Data from HighRes_H2_15_09_11_07_2024_HR4C61891__117__15-11-08-101.txt Node

Date: Thu Nov 07 15:11:08 EST 2024
User: crc00042
Spectrometer: HR4C6189
Trigger mode: 4
Integration Time (sec): 1.000000E-1
Scans to average: 1
Electric dark correction enabled: true
Nonlinearity correction enabled: false
Boxcar width: 0
XAxis mode: Wavelengths
Number of Pixels in Spectrum: 3648
>>>>>Begin Spectral Data<<<<<
639.567	-41.46
639.602	-41.46
639.636	-41.46
639.67	-43.46
639.704	-21.46
639.738	-15.46
639.773	-8.46
639.807	-15.46
639.841	-10.46
639.875	15.54
639.909	-2.46
639.943	-8.46
639.978	7.54
640.012	14.54
640.046	11.54
640.08	22.54
640.114	1.54
640.148	-12.46
640.182	-7.46
640.217	10.54
640.251	18.54
640.285	6.54
640.319	-0.46
640.353	5.54
640.387	-0.46
640.421	1.54
640.455	-5.46
640.49	1.54
640.524	5.54
640.558	8.54
640.592	10.54
640.626	-7.46
640.66	5.54
640.694	-17.46
640.728	11.54
640.762	6.54
640.796	17.54
640.83	33.54
640.865	-15.46
640.899	4.54
640.933	1.54
640.967	15.54
641.001	-1.46
641.035	5.54
641.069	4.54
641.103	9.54
641.137	-16.46
641.171	-7.46
641.205	23.54
641.239	3.54
641.273	18.54
641.307	10.54
641.341	-4.46
641.375	3.54
641.409	-1.46
641.443	-3.46
641.477	5.54
641.511	13.54
641.545	8.54
641.579	0.54
641.614	29.54
641.648	8.54
641.682	-11.46
641.716	9.54
641.75	9.54
641.784	1.54
641.818	-9.46
641.852	8.54
641.886	-1.46
641.919	40.54
641.953	8.54
641.987	-17.46
642.021	0.54
642.055	-4.46
642.089	1.54
642.123	-6.46
642.157	-14.46
642.191	-25.46
642.225	6.54
642.259	-5.46
642.293	-2.46
642.327	2.54
642.361	9.54
642.395	18.54
642.429	10.54
642.463	24.54
642.497	12.54
642.531	-4.46
642.565	13.54
642.599	11.54
642.633	-3.46
642.666	7.54
642.7	10.54
642.734	17.54
642.768	3.54
642.802	4.54
642.836	14.54
642.87	-10.46
642.904	0.54
642.938	7.54
642.972	-1.46
643.005	-6.46
643.039	6.54
643.073	-1.46
643.107	-5.46
643.141	8.54
643.175	7.54
643.209	6.54
643.243	-0.46
643.276	1.54
643.31	2.54
643.344	2.54
643.378	-12.46
643.412	11.54
643.446	7.54
643.48	9.54
643.513	5.54
643.547	2.54
643.581	-10.46
643.615	8.54
643.649	16.54
643.683	3.54
643.716	-14.46
643.75	7.54
643.784	-1.46
643.818	10.54
643.852	0.54
643.886	6.54
643.919	5.54
643.953	5.54
643.987	1.54
644.021	11.54
644.055	24.54
644.088	-4.46
644.122	-13.46
644.156	-0.46
644.19	0.54
644.224	-10.46
644.257	7.54
644.291	2.54
644.325	16.54
644.359	-0.46
644.392	17.54
644.426	8.54
644.46	-5.46
644.494	12.54
644.527	-14.46
644.561	-1.46
644.595	12.54
644.629	-4.46
644.662	5.54
644.696	11.54
644.73	11.54
644.764	22.54
644.797	9.54
644.831	13.54
644.865	12.54
644.899	-2.46
644.932	21.54
644.966	-13.46
645	-5.46
645.033	22.54
645.067	-3.46
645.101	2.54
645.135	3.54
645.168	-7.46
645.202	-18.46
645.236	11.54
645.269	5.54
645.303	-0.46
645.337	-11.46
645.37	-8.46
645.404	-4.46
645.438	-2.46
645.471	15.54
645.505	24.54
645.539	3.54
645.572	-12.46
645.606	-5.46
645.64	11.54
645.673	8.54
645.707	25.54
645.741	13.54
645.774	8.54
645.808	27.54
645.842	-3.46
645.875	8.54
645.909	-4.46
645.943	-8.46
645.976	-5.46
646.01	15.54
646.043	28.54
646.077	-0.46
646.111	7.54
646.144	1.54
646.178	13.54
646.212	2.54
646.245	-10.46
646.279	-2.46
646.312	2.54
646.346	11.54
646.38	-0.46
646.413	8.54
646.447	-0.46
646.48	7.54
646.514	4.54
646.547	7.54
646.581	-21.46
646.615	-1.46
646.648	-17.46
646.682	-3.46
646.715	7.54
646.749	10.54
646.782	-9.46
646.816	-1.46
646.85	5.54
646.883	-7.46
646.917	-7.46
646.95	-4.46
646.984	10.54
647.017	4.54
647.051	5.54
647.084	5.54
647.118	-2.46
647.151	-7.46
647.185	4.54
647.218	1.54
647.252	16.54
647.285	-12.46
647.319	-11.46
647.353	8.54
647.386	13.54
647.42	3.54
647.453	1.54
647.487	4.54
647.52	-10.46
647.553	-5.46
647.587	6.54
647.62	12.54
647.654	1.54
647.687	1.54
647.721	5.54
647.754	1.54
647.788	-1.46
647.821	-21.46
647.855	22.54
647.888	11.54
647.922	21.54
647.955	12.54
647.989	1.54
648.022	-2.46
648.055	21.54
648.089	-3.46
648.122	11.54
648.156	-7.46
648.189	12.54
648.223	17.54
648.256	32.54
648.29	8.54
648.323	13.54
648.356	12.54
648.39	22.54
648.423	7.54
648.457	-1.46
648.49	20.54
648.523	0.54
648.557	-5.46
648.59	6.54
648.624	6.54
648.657	18.54
648.69	26.54
648.724	26.54
648.757	13.54
648.791	7.54
648.824	13.54
648.857	19.54
648.891	8.54
648.924	-2.46
648.957	17.54
648.991	-3.46
649.024	5.54
649.057	4.54
649.091	-3.46
649.124	16.54
649.158	1.54
649.191	15.54
649.224	8.54
649.258	22.54
649.291	10.54
649.324	25.54
649.358	-6.46
649.391	13.54
649.424	7.54
649.458	-2.46
649.491	5.54
649.524	4.54
649.557	3.54
649.591	-3.46
649.624	9.54
649.657	-6.46
649.691	-9.46
649.724	-5.46
649.757	8.54
649.791	0.54
649.824	8.54
649.857	5.54
649.89	3.54
649.924	-9.46
649.957	1.54
649.99	-13.46
650.023	-7.46
650.057	-10.46
650.09	8.54
650.123	9.54
650.157	15.54
650.19	36.54
650.223	9.54
650.256	-12.46
650.29	-11.46
650.323	10.54
650.356	6.54
650.389	10.54
650.423	-11.46
650.456	1.54
650.489	8.54
650.522	17.54
650.555	29.54
650.589	8.54
650.622	4.54
650.655	-3.46
650.688	0.54
650.721	-14.46
650.755	-1.46
650.788	4.54
650.821	-1.46
650.854	16.54
650.887	20.54
650.921	6.54
650.954	4.54
650.987	1.54
651.02	2.54
651.053	-4.46
651.087	-3.46
651.12	28.54
651.153	8.54
651.186	7.54
651.219	-21.46
651.252	23.54
651.286	12.54
651.319	14.54
651.352	12.54
651.385	8.54
651.418	-14.46
651.451	8.54
651.484	1.54
651.518	-2.46
651.551	29.54
651.584	4.54
651.617	6.54
651.65	7.54
651.683	12.54
651.716	6.54
651.749	-11.46
651.783	2.54
651.816	12.54
651.849	2.54
651.882	12.54
651.915	-0.46
651.948	5.54
651.981	1.54
652.014	1.54
652.047	-20.46
652.08	-2.46
652.114	-3.46
652.147	-1.46
652.18	9.54
652.213	17.54
652.246	-0.46
652.279	-2.46
652.312	24.54
652.345	1.54
652.378	15.54
652.411	16.54
652.444	18.54
652.477	8.54
652.51	-6.46
652.543	-18.46
652.576	-0.46
652.609	3.54
652.642	-2.46
652.675	13.54
652.709	-1.46
652.742	11.54
652.775	-4.46
652.808	28.54
652.841	4.54
652.874	10.54
652.907	-2.46
652.94	10.54
652.973	-6.46
653.006	-10.46
653.039	10.54
653.072	7.54
653.105	11.54
653.138	-6.46
653.171	-2.46
653.204	12.54
653.237	9.54
653.27	-8.46
653.303	13.54
653.336	22.54
653.368	5.54
653.401	5.54
653.434	-2.46
653.467	-1.46
653.5	-9.46
653.533	-19.46
653.566	8.54
653.599	14.54
653.632	-2.46
653.665	5.54
653.698	-15.46
653.731	-1.46
653.764	7.54
653.797	6.54
653.83	12.54
653.863	13.54
653.896	9.54
653.929	-5.46
653.961	2.54
653.994	6.54
654.027	-11.46
654.06	6.54
654.093	16.54
654.126	5.54
654.159	-5.46
654.192	17.54
654.225	5.54
654.258	-4.46
654.29	-20.46
654.323	8.54
654.356	1.54
654.389	-3.46
654.422	-1.46
654.455	23.54
654.488	8.54
654.521	-8.46
654.553	8.54
654.586	13.54
654.619	19.54
654.652	3.54
654.685	8.54
654.718	1.54
654.751	-2.46
654.783	-5.46
654.816	22.54
654.849	4.54
654.882	19.54
654.915	-7.46
654.948	-0.46
654.98	2.54
655.013	10.54
655.046	5.54
655.079	-10.46
655.112	-2.46
655.144	8.54
655.177	29.54
655.21	0.54
655.243	9.54
655.276	3.54
655.308	10.54
655.341	1.54
655.374	30.54
655.407	-0.46
655.44	4.54
655.472	26.54
655.505	20.54
655.538	7.54
655.571	17.54
655.603	-6.46
655.636	8.54
655.669	32.54
655.702	21.54
655.734	8.54
655.767	9.54
655.8	9.54
655.833	21.54
655.865	31.54
655.898	22.54
655.931	33.54
655.964	53.54
655.996	58.54
656.029	69.54
656.062	58.54
656.095	77.54
656.127	61.54
656.16	117.54
656.193	109.54
656.225	181.54
656.258	291.54
656.291	487.54
656.324	1105.54
656.356	3355.54
656.389	7461.54
656.422	6032.54
656.454	2089.54
656.487	654.54
656.52	258.54
656.552	142.54
656.585	69.54
656.618	58.54
656.65	48.54
656.683	18.54
656.716	10.54
656.748	13.54
656.781	1.54
656.814	8.54
656.846	-2.46
656.879	4.54
656.912	9.54
656.944	-17.46
656.977	-12.46
657.01	-7.46
657.042	11.54
657.075	21.54
657.108	-17.46
657.14	12.54
657.173	11.54
657.205	27.54
657.238	6.54
657.271	7.54
657.303	-10.46
657.336	12.54
657.369	1.54
657.401	-11.46
657.434	0.54
657.466	7.54
657.499	8.54
657.532	-3.46
657.564	13.54
657.597	8.54
657.629	0.54
657.662	15.54
657.694	-0.46
657.727	0.54
657.76	19.54
657.792	-8.46
657.825	-14.46
657.857	-5.46
657.89	-5.46
657.922	15.54
657.955	-14.46
657.987	2.54
658.02	6.54
658.053	12.54
658.085	4.54
658.118	13.54
658.15	5.54
658.183	15.54
658.215	-0.46
658.248	2.54
658.28	3.54
658.313	1.54
658.345	3.54
658.378	0.54
658.41	-12.46
658.443	-0.46
658.475	1.54
658.508	5.54
658.54	-0.46
658.573	-15.46
658.605	10.54
658.638	-3.46
658.67	9.54
658.703	3.54
658.735	-20.46
658.768	-3.46
658.8	4.54
658.833	33.54
658.865	5.54
658.898	4.54
658.93	-11.46
658.963	8.54
658.995	-7.46
659.028	-3.46
659.06	-11.46
659.092	-6.46
659.125	-23.46
659.157	1.54
659.19	2.54
659.222	2.54
659.255	-3.46
659.287	-0.46
659.32	5.54
659.352	-2.46
659.384	16.54
659.417	7.54
659.449	13.54
659.482	11.54
659.514	-8.46
659.546	4.54
659.579	3.54
659.611	11.54
659.644	3.54
659.676	-13.46
659.708	-11.46
659.741	-11.46
659.773	3.54
659.806	4.54
659.838	15.54
659.87	7.54
659.903	-21.46
659.935	25.54
659.967	11.54
660	13.54
660.032	-23.46
660.065	8.54
660.097	-7.46
660.129	-1.46
660.162	-14.46
660.194	10.54
660.226	7.54
660.259	26.54
660.291	12.54
660.323	4.54
660.356	22.54
660.388	3.54
660.42	1.54
660.453	3.54
660.485	-4.46
660.517	15.54
660.55	19.54
660.582	4.54
660.614	11.54
660.647	15.54
660.679	-6.46
660.711	4.54
660.743	-3.46
660.776	2.54
660.808	2.54
660.84	4.54
660.873	-15.46
660.905	3.54
660.937	5.54
660.969	-14.46
661.002	8.54
661.034	11.54
661.066	-2.46
661.099	14.54
661.131	13.54
661.163	-4.46
661.195	5.54
661.228	13.54
661.26	0.54
661.292	5.54
661.324	-1.46
661.357	5.54
661.389	0.54
661.421	5.54
661.453	8.54
661.485	9.54
661.518	-4.46
661.55	-7.46
661.582	-1.46
661.614	7.54
661.647	20.54
661.679	-1.46
661.711	4.54
661.743	6.54
661.775	4.54
661.808	14.54
661.84	-21.46
661.872	-6.46
661.904	3.54
661.936	6.54
661.969	-19.46
662.001	-15.46
662.033	3.54
662.065	-7.46
662.097	15.54
662.129	9.54
662.162	-1.46
662.194	11.54
662.226	4.54
662.258	15.54
662.29	-7.46
662.322	-16.46
662.355	-19.46
662.387	38.54
662.419	9.54
662.451	21.54
662.483	18.54
662.515	-4.46
662.547	18.54
662.58	-1.46
662.612	-12.46
662.644	-26.46
662.676	6.54
662.708	5.54
662.74	-10.46
662.772	21.54
662.804	11.54
662.836	4.54
662.869	2.54
662.901	15.54
662.933	13.54
662.965	11.54
662.997	-4.46
663.029	-6.46
663.061	-14.46
663.093	-4.46
663.125	14.54
663.157	14.54
663.189	-3.46
663.221	12.54
663.254	-1.46
663.286	2.54
663.318	-4.46
663.35	-16.46
663.382	-6.46
663.414	6.54
663.446	-4.46
663.478	-10.46
663.51	36.54
663.542	-0.46
663.574	7.54
663.606	13.54
663.638	-4.46
663.67	4.54
663.702	-14.46
663.734	0.54
663.766	-11.46
663.798	-10.46
663.83	-6.46
663.862	9.54
663.894	-2.46
663.926	2.54
663.958	11.54
663.99	2.54
664.022	-7.46
664.054	7.54
664.086	-0.46
664.118	-12.46
664.15	-25.46
664.182	10.54
664.214	3.54
664.246	39.54
664.278	21.54
664.31	14.54
664.342	3.54
664.374	10.54
664.406	10.54
664.438	3.54
664.47	-2.46
664.502	-11.46
664.534	3.54
664.566	3.54
664.598	7.54
664.63	0.54
664.662	10.54
664.693	-8.46
664.725	-2.46
664.757	-6.46
664.789	4.54
664.821	8.54
664.853	0.54
664.885	-4.46
664.917	-5.46
664.949	11.54
664.981	24.54
665.013	1.54
665.045	-4.46
665.076	-10.46
665.108	-0.46
665.14	-3.46
665.172	0.54
665.204	-2.46
665.236	7.54
665.268	6.54
665.3	6.54
665.331	-8.46
665.363	-1.46
665.395	-13.46
665.427	-21.46
665.459	8.54
665.491	-5.46
665.523	-9.46
665.555	-6.46
665.586	0.54
665.618	-18.46
665.65	-22.46
665.682	-1.46
665.714	-1.46
665.746	-7.46
665.777	-3.46
665.809	5.54
665.841	2.54
665.873	1.54
665.905	9.54
665.937	15.54
665.968	5.54
666	1.54
666.032	8.54
666.064	12.54
666.096	-8.46
666.127	16.54
666.159	9.54
666.191	-4.46
666.223	12.54
666.255	5.54
666.286	5.54
666.318	-11.46
666.35	17.54
666.382	13.54
666.413	5.54
666.445	-22.46
666.477	-10.46
666.509	-0.46
666.54	5.54
666.572	6.54
666.604	7.54
666.636	3.54
666.667	32.54
666.699	17.54
666.731	0.54
666.763	-13.46
666.794	0.54
666.826	-6.46
666.858	-18.46
666.89	20.54
666.921	11.54
666.953	2.54
666.985	16.54
667.017	24.54
667.048	6.54
667.08	6.54
667.112	5.54
667.143	-0.46
667.175	12.54
667.207	6.54
667.238	-1.46
667.27	4.54
667.302	0.54
667.334	-2.46
667.365	12.54
667.397	-3.46
667.429	-9.46
667.46	1.54
667.492	8.54
667.524	-6.46
667.555	1.54
667.587	19.54
667.619	9.54
667.65	-14.46
667.682	4.54
667.714	1.54
667.745	-4.46
667.777	-0.46
667.808	11.54
667.84	-7.46
667.872	4.54
667.903	26.54
667.935	3.54
667.967	4.54
667.998	4.54
668.03	-16.46
668.061	4.54
668.093	-2.46
668.125	17.54
668.156	0.54
668.188	-22.46
668.22	-10.46
668.251	13.54
668.283	6.54
668.314	13.54
668.346	-3.46
668.377	3.54
668.409	-5.46
668.441	8.54
668.472	-12.46
668.504	2.54
668.535	6.54
668.567	12.54
668.599	1.54
668.63	5.54
668.662	6.54
668.693	1.54
668.725	4.54
668.756	4.54
668.788	2.54
668.819	-5.46
668.851	1.54
668.882	6.54
668.914	6.54
668.946	-8.46
668.977	-5.46
669.009	-10.46
669.04	-13.46
669.072	-2.46
669.103	3.54
669.135	5.54
669.166	4.54
669.198	-7.46
669.229	7.54
669.261	-3.46
669.292	8.54
669.324	15.54
669.355	1.54
669.387	9.54
669.418	9.54
669.45	-1.46
669.481	14.54
669.513	22.54
669.544	27.54
669.576	0.54
669.607	-3.46
669.639	12.54
669.67	1.54
669.701	16.54
669.733	-14.46
669.764	0.54
669.796	-1.46
669.827	-11.46
669.859	3.54
669.89	6.54
669.922	4.54
669.953	0.54
669.985	6.54
670.016	9.54
670.047	8.54
670.079	5.54
670.11	2.54
670.142	-2.46
670.173	5.54
670.204	-1.46
670.236	-8.46
670.267	-1.46
670.299	-7.46
670.33	12.54
670.362	20.54
670.393	-2.46
670.424	13.54
670.456	-5.46
670.487	3.54
670.518	0.54
670.55	11.54
670.581	-5.46
670.613	-8.46
670.644	-2.46
670.675	-12.46
670.707	-3.46
670.738	5.54
670.769	-3.46
670.801	-12.46
670.832	-3.46
670.864	-10.46
670.895	3.54
670.926	-7.46
670.958	-1.46
670.989	-3.46
671.02	-5.46
671.052	17.54
671.083	-0.46
671.114	-20.46
671.146	3.54
671.177	0.54
671.208	13.54
671.24	-0.46
671.271	8.54
671.302	5.54
671.333	-0.46
671.365	-7.46
671.396	-2.46
671.427	-4.46
671.459	11.54
671.49	4.54
671.521	-15.46
671.553	-5.46
671.584	12.54
671.615	0.54
671.646	12.54
671.678	1.54
671.709	5.54
671.74	-19.46
671.771	-23.46
671.803	4.54
671.834	-3.46
671.865	-13.46
671.896	-2.46
671.928	-4.46
671.959	-3.46
671.99	-6.46
672.021	-9.46
672.053	-3.46
672.084	-1.46
672.115	19.54
672.146	-4.46
672.178	1.54
672.209	-21.46
672.24	9.54
672.271	8.54
672.303	-14.46
672.334	-22.46
672.365	-18.46
672.396	2.54
672.427	12.54
672.459	17.54
672.49	18.54
672.521	-11.46
672.552	16.54
672.583	0.54
672.615	9.54
672.646	-5.46
672.677	3.54
672.708	0.54
672.739	-1.46
672.77	10.54
672.802	9.54
672.833	-1.46
672.864	7.54
672.895	-10.46
672.926	-16.46
672.957	2.54
672.989	7.54
673.02	0.54
673.051	0.54
673.082	4.54
673.113	-2.46
673.144	3.54
673.175	-1.46
673.206	-9.46
673.238	-18.46
673.269	4.54
673.3	2.54
673.331	16.54
673.362	7.54
673.393	0.54
673.424	8.54
673.455	18.54
673.487	3.54
673.518	12.54
673.549	5.54
673.58	3.54
673.611	4.54
673.642	-12.46
673.673	-12.46
673.704	6.54
673.735	-2.46
673.766	1.54
673.797	4.54
673.828	5.54
673.86	-9.46
673.891	-12.46
673.922	-2.46
673.953	-2.46
673.984	-3.46
674.015	3.54
674.046	3.54
674.077	16.54
674.108	-5.46
674.139	4.54
674.17	4.54
674.201	-15.46
674.232	1.54
674.263	-26.46
674.294	-17.46
674.325	-11.46
674.356	11.54
674.387	16.54
674.418	-4.46
674.449	-2.46
674.48	13.54
674.511	5.54
674.542	7.54
674.573	3.54
674.604	5.54
674.635	-0.46
674.666	11.54
674.697	14.54
674.728	3.54
674.759	-3.46
674.79	-15.46
674.821	-6.46
674.852	0.54
674.883	-13.46
674.914	-8.46
674.945	-6.46
674.976	4.54
675.007	-17.46
675.038	-18.46
675.069	-1.46
675.1	-0.46
675.131	4.54
675.162	-14.46
675.193	-13.46
675.224	-3.46
675.254	7.54
675.285	2.54
675.316	28.54
675.347	5.54
675.378	-1.46
675.409	-1.46
675.44	15.54
675.471	9.54
675.502	-3.46
675.533	-0.46
675.564	10.54
675.595	16.54
675.625	21.54
675.656	6.54
675.687	14.54
675.718	3.54
675.749	19.54
675.78	-12.46
675.811	1.54
675.842	6.54
675.873	10.54
675.903	-1.46
675.934	-4.46
675.965	-5.46
675.996	-10.46
676.027	3.54
676.058	-1.46
676.089	-3.46
676.119	5.54
676.15	8.54
676.181	7.54
676.212	0.54
676.243	28.54
676.274	-4.46
676.304	7.54
676.335	-15.46
676.366	4.54
676.397	-2.46
676.428	-11.46
676.459	4.54
676.489	8.54
676.52	-1.46
676.551	0.54
676.582	7.54
676.613	1.54
676.643	-7.46
676.674	19.54
676.705	9.54
676.736	23.54
676.767	29.54
676.797	17.54
676.828	28.54
676.859	0.54
676.89	2.54
676.92	-11.46
676.951	0.54
676.982	1.54
677.013	6.54
677.044	14.54
677.074	4.54
677.105	1.54
677.136	9.54
677.167	-4.46
677.197	12.54
677.228	-4.46
677.259	-2.46
677.289	-4.46
677.32	-18.46
677.351	-14.46
677.382	-3.46
677.412	-13.46
677.443	13.54
677.474	7.54
677.505	-9.46
677.535	5.54
677.566	-21.46
677.597	-6.46
677.627	-0.46
677.658	-2.46
677.689	9.54
677.72	-1.46
677.75	1.54
677.781	-4.46
677.812	6.54
677.842	4.54
677.873	4.54
677.904	-10.46
677.934	-2.46
677.965	-4.46
677.996	-20.46
678.026	-15.46
678.057	4.54
678.088	-11.46
678.118	6.54
678.149	-8.46
678.18	-10.46
678.21	-4.46
678.241	10.54
678.272	2.54
678.302	11.54
678.333	-2.46
678.363	16.54
678.394	10.54
678.425	-17.46
678.455	0.54
678.486	-1.46
678.517	6.54
678.547	-17.46
678.578	5.54
678.608	-3.46
678.639	-12.46
678.67	17.54
678.7	-5.46
678.731	-3.46
678.761	-9.46
678.792	0.54
678.823	5.54
678.853	-4.46
678.884	-20.46
678.914	6.54
678.945	-2.46
678.975	-7.46
679.006	-2.46
679.037	-4.46
679.067	30.54
679.098	8.54
679.128	-12.46
679.159	-6.46
679.189	1.54
679.22	-14.46
679.25	-0.46
679.281	-6.46
679.312	1.54
679.342	-2.46
679.373	13.54
679.403	-9.46
679.434	9.54
679.464	12.54
679.495	8.54
679.525	18.54
679.556	-0.46
679.586	18.54
679.617	14.54
679.647	0.54
679.678	2.54
679.708	0.54
679.739	-12.46
679.769	-11.46
679.8	3.54
679.83	-1.46
679.861	9.54
679.891	6.54
679.922	-13.46
679.952	-5.46
679.983	-2.46
680.013	2.54
680.044	-5.46
680.074	10.54
680.105	6.54
680.135	13.54
680.165	22.54
680.196	12.54
680.226	5.54
680.257	6.54
680.287	-13.46
680.318	-11.46
680.348	-17.46
680.379	3.54
680.409	-2.46
680.439	-18.46
680.47	-8.46
680.5	-0.46
680.531	5.54
680.561	22.54
680.592	6.54
680.622	19.54
680.652	6.54
680.683	20.54
680.713	9.54
680.744	-4.46
680.774	-7.46
680.804	12.54
680.835	-3.46
680.865	-13.46
680.896	15.54
680.926	16.54
680.956	12.54
680.987	11.54
681.017	-1.46
681.047	4.54
681.078	-14.46
681.108	1.54
681.139	-1.46
681.169	13.54
681.199	-0.46
681.23	15.54
681.26	-3.46
681.29	6.54
681.321	-12.46
681.351	-2.46
681.381	-20.46
681.412	1.54
681.442	6.54
681.472	24.54
681.503	0.54
681.533	16.54
681.563	-4.46
681.594	2.54
681.624	9.54
681.654	-6.46
681.685	-3.46
681.715	-1.46
681.745	-3.46
681.775	1.54
681.806	8.54
681.836	3.54
681.866	-6.46
681.897	-9.46
681.927	5.54
681.957	-17.46
681.987	0.54
682.018	-6.46
682.048	15.54
682.078	5.54
682.109	13.54
682.139	15.54
682.169	9.54
682.199	-12.46
682.23	-1.46
682.26	-1.46
682.29	-4.46
682.32	-4.46
682.351	-2.46
682.381	-0.46
682.411	11.54
682.441	-7.46
682.472	1.54
682.502	1.54
682.532	4.54
682.562	1.54
682.592	2.54
682.623	5.54
682.653	-0.46
682.683	-21.46
682.713	-12.46
682.743	-12.46
682.774	6.54
682.804	-1.46
682.834	5.54
682.864	-9.46
682.894	6.54
682.925	6.54
682.955	-13.46
682.985	-4.46
683.015	5.54
683.045	7.54
683.076	-7.46
683.106	-2.46
683.136	11.54
683.166	-0.46
683.196	-13.46
683.226	6.54
683.257	-2.46
683.287	-1.46
683.317	-3.46
683.347	-4.46
683.377	-11.46
683.407	6.54
683.437	6.54
683.468	18.54
683.498	-5.46
683.528	1.54
683.558	0.54
683.588	1.54
683.618	-22.46
683.648	-5.46
683.678	3.54
683.708	7.54
683.739	4.54
683.769	0.54
683.799	2.54
683.829	8.54
683.859	26.54
683.889	27.54
683.919	6.54
683.949	-5.46
683.979	1.54
684.009	0.54
684.039	-9.46
684.07	-12.46
684.1	4.54
684.13	5.54
684.16	3.54
684.19	14.54
684.22	-23.46
684.25	1.54
684.28	-10.46
684.31	20.54
684.34	18.54
684.37	10.54
684.4	1.54
684.43	21.54
684.46	8.54
684.49	5.54
684.52	7.54
684.55	19.54
684.58	3.54
684.61	7.54
684.64	3.54
684.67	2.54
684.7	11.54
684.73	1.54
684.76	-3.46
684.79	16.54
684.82	12.54
684.85	-4.46
684.88	13.54
684.91	1.54
684.94	-6.46
684.97	-5.46
685	-7.46
685.03	-6.46
685.06	-1.46
685.09	10.54
685.12	36.54
685.15	12.54
685.18	1.54
685.21	13.54
685.24	12.54
685.27	7.54
685.3	-12.46
685.33	2.54
685.36	2.54
685.39	-7.46
685.42	-0.46
685.45	10.54
685.48	-2.46
685.51	-15.46
685.54	12.54
685.569	1.54
685.599	11.54
685.629	15.54
685.659	13.54
685.689	5.54
685.719	7.54
685.749	-12.46
685.779	10.54
685.809	5.54
685.839	12.54
685.869	11.54
685.898	-2.46
685.928	5.54
685.958	8.54
685.988	16.54
686.018	3.54
686.048	17.54
686.078	9.54
686.108	17.54
686.137	0.54
686.167	17.54
686.197	-11.46
686.227	-14.46
686.257	35.54
686.287	14.54
686.317	-3.46
686.346	5.54
686.376	-10.46
686.406	-22.46
686.436	7.54
686.466	5.54
686.496	11.54
686.525	-7.46
686.555	6.54
686.585	21.54
686.615	26.54
686.645	7.54
686.675	-6.46
686.704	-10.46
686.734	10.54
686.764	-3.46
686.794	-0.46
686.824	1.54
686.853	19.54
686.883	15.54
686.913	28.54
686.943	9.54
686.973	4.54
687.002	-3.46
687.032	-1.46
687.062	-7.46
687.092	12.54
687.121	-2.46
687.151	8.54
687.181	0.54
687.211	14.54
687.24	14.54
687.27	4.54
687.3	1.54
687.33	15.54
687.359	-9.46
687.389	13.54
687.419	3.54
687.449	12.54
687.478	15.54
687.508	-0.46
687.538	13.54
687.568	13.54
687.597	-8.46
687.627	12.54
687.657	-0.46
687.686	13.54
687.716	35.54
687.746	-15.46
687.776	-7.46
687.805	4.54
687.835	-3.46
687.865	14.54
687.894	17.54
687.924	-8.46
687.954	1.54
687.983	8.54
688.013	2.54
688.043	18.54
688.072	8.54
688.102	4.54
688.132	12.54
688.161	3.54
688.191	2.54
688.221	7.54
688.25	-11.46
688.28	14.54
688.31	1.54
688.339	1.54
688.369	-19.46
688.399	-12.46
688.428	-19.46
688.458	-1.46
688.488	-4.46
688.517	24.54
688.547	4.54
688.576	53.54
688.606	28.54
688.636	-11.46
688.665	16.54
688.695	19.54
688.725	18.54
688.754	7.54
688.784	0.54
688.813	17.54
688.843	10.54
688.873	5.54
688.902	-15.46
688.932	3.54
688.961	7.54
688.991	18.54
689.02	8.54
689.05	2.54
689.08	13.54
689.109	15.54
689.139	-4.46
689.168	5.54
689.198	5.54
689.227	-13.46
689.257	-4.46
689.287	5.54
689.316	-3.46
689.346	-3.46
689.375	-13.46
689.405	6.54
689.434	12.54
689.464	3.54
689.493	1.54
689.523	1.54
689.552	7.54
689.582	8.54
689.611	7.54
689.641	15.54
689.67	9.54
689.7	4.54
689.73	6.54
689.759	10.54
689.789	29.54
689.818	0.54
689.848	1.54
689.877	5.54
689.906	-2.46
689.936	-9.46
689.965	1.54
689.995	3.54
690.024	3.54
690.054	-2.46
690.083	14.54
690.113	5.54
690.142	-3.46
690.172	2.54
690.201	14.54
690.231	0.54
690.26	-14.46
690.29	0.54
690.319	18.54
690.348	10.54
690.378	-6.46
690.407	-3.46
690.437	-1.46
690.466	1.54
690.496	-1.46
690.525	10.54
690.555	1.54
690.584	5.54
690.613	11.54
690.643	6.54
690.672	-7.46
690.702	6.54
690.731	1.54
690.76	9.54
690.79	2.54
690.819	-13.46
690.849	-6.46
690.878	6.54
690.907	3.54
690.937	8.54
690.966	22.54
690.996	2.54
691.025	-4.46
691.054	11.54
691.084	3.54
691.113	-10.46
691.142	-7.46
691.172	-3.46
691.201	5.54
691.23	-10.46
691.26	13.54
691.289	-1.46
691.319	-13.46
691.348	4.54
691.377	11.54
691.407	14.54
691.436	-1.46
691.465	18.54
691.495	5.54
691.524	1.54
691.553	-9.46
691.583	-4.46
691.612	18.54
691.641	1.54
691.67	-2.46
691.7	3.54
691.729	-13.46
691.758	9.54
691.788	2.54
691.817	-3.46
691.846	0.54
691.876	7.54
691.905	14.54
691.934	-10.46
691.963	6.54
691.993	5.54
692.022	1.54
692.051	-11.46
692.081	9.54
692.11	15.54
692.139	-3.46
692.168	14.54
692.198	21.54
692.227	9.54
692.256	4.54
692.285	-4.46
692.315	-12.46
692.344	7.54
692.373	6.54
692.402	-1.46
692.432	3.54
692.461	13.54
692.49	3.54
692.519	9.54
692.548	18.54
692.578	12.54
692.607	1.54
692.636	0.54
692.665	13.54
692.694	7.54
692.724	2.54
692.753	-10.46
692.782	8.54
692.811	-4.46
692.84	-1.46
692.87	3.54
692.899	0.54
692.928	13.54
692.957	16.54
692.986	-6.46
693.016	-1.46
693.045	1.54
693.074	4.54
693.103	8.54
693.132	15.54
693.161	6.54
693.191	-2.46
693.22	-3.46
693.249	11.54
693.278	-10.46
693.307	33.54
693.336	-11.46
693.365	-19.46
693.395	2.54
693.424	-8.46
693.453	21.54
693.482	9.54
693.511	-6.46
693.54	8.54
693.569	9.54
693.598	13.54
693.628	18.54
693.657	19.54
693.686	19.54
693.715	23.54
693.744	28.54
693.773	23.54
693.802	15.54
693.831	5.54
693.86	13.54
693.889	6.54
693.919	8.54
693.948	-5.46
693.977	5.54
694.006	7.54
694.035	4.54
694.064	-1.46
694.093	-3.46
694.122	-2.46
694.151	-2.46
694.18	11.54
694.209	19.54
694.238	9.54
694.267	29.54
694.296	6.54
694.325	16.54
694.354	9.54
694.383	0.54
694.412	2.54
694.441	-5.46
694.471	1.54
694.5	-6.46
694.529	9.54
694.558	26.54
694.587	22.54
694.616	7.54
694.645	16.54
694.674	19.54
694.703	3.54
694.732	-2.46
694.761	24.54
694.79	30.54
694.819	-2.46
694.848	7.54
694.877	21.54
694.906	21.54
694.935	8.54
694.963	11.54
694.992	7.54
695.021	0.54
695.05	5.54
695.079	3.54
695.108	1.54
695.137	32.54
695.166	23.54
695.195	-4.46
695.224	22.54
695.253	2.54
695.282	11.54
695.311	12.54
695.34	4.54
695.369	13.54
695.398	14.54
695.427	21.54
695.456	6.54
695.485	4.54
695.513	7.54
695.542	10.54
695.571	18.54
695.6	7.54
695.629	-1.46
695.658	12.54
695.687	2.54
695.716	1.54
695.745	36.54
695.774	-13.46
695.802	-0.46
695.831	10.54
695.86	9.54
695.889	26.54
695.918	10.54
695.947	1.54
695.976	5.54
696.005	2.54
696.033	4.54
696.062	12.54
696.091	3.54
696.12	11.54
696.149	15.54
696.178	6.54
696.207	25.54
696.235	-12.46
696.264	6.54
696.293	9.54
696.322	12.54
696.351	22.54
696.38	5.54
696.408	14.54
696.437	3.54
696.466	17.54
696.495	9.54
696.524	14.54
696.553	-1.46
696.581	-3.46
696.61	-5.46
696.639	5.54
696.668	5.54
696.697	-6.46
696.725	2.54
696.754	-5.46
696.783	-1.46
696.812	-2.46
696.84	4.54
696.869	21.54
696.898	-4.46
696.927	9.54
696.956	16.54
696.984	13.54
697.013	13.54
697.042	14.54
697.071	5.54
697.099	7.54
697.128	-3.46
697.157	3.54
697.186	0.54
697.214	-3.46
697.243	-6.46
697.272	2.54
697.301	13.54
697.329	7.54
697.358	-6.46
697.387	20.54
697.415	-2.46
697.444	4.54
697.473	1.54
697.502	7.54
697.53	12.54
697.559	4.54
697.588	4.54
697.616	6.54
697.645	-2.46
697.674	10.54
697.703	-4.46
697.731	16.54
697.76	-6.46
697.789	0.54
697.817	5.54
697.846	24.54
697.875	15.54
697.903	25.54
697.932	23.54
697.961	11.54
697.989	17.54
698.018	10.54
698.047	4.54
698.075	13.54
698.104	-14.46
698.133	-14.46
698.161	-7.46
698.19	-1.46
698.218	0.54
698.247	-2.46
698.276	4.54
698.304	5.54
698.333	7.54
698.362	3.54
698.39	26.54
698.419	12.54
698.447	-2.46
698.476	-3.46
698.505	23.54
698.533	19.54
698.562	0.54
698.591	-3.46
698.619	-12.46
698.648	5.54
698.676	18.54
698.705	-2.46
698.733	4.54
698.762	5.54
698.791	1.54
698.819	2.54
698.848	2.54
698.876	22.54
698.905	2.54
698.933	11.54
698.962	2.54
698.991	5.54
699.019	17.54
699.048	4.54
699.076	13.54
699.105	-15.46
699.133	1.54
699.162	5.54
699.19	25.54
699.219	20.54
699.248	-1.46
699.276	-0.46
699.305	-3.46
699.333	-1.46
699.362	1.54
699.39	17.54
699.419	-10.46
699.447	5.54
699.476	12.54
699.504	0.54
699.533	2.54
699.561	-0.46
699.59	-0.46
699.618	10.54
699.647	1.54
699.675	3.54
699.704	9.54
699.732	12.54
699.761	16.54
699.789	9.54
699.818	22.54
699.846	5.54
699.874	-0.46
699.903	1.54
699.931	-6.46
699.96	5.54
699.988	20.54
700.017	12.54
700.045	-1.46
700.074	-9.46
700.102	-4.46
700.13	1.54
700.159	1.54
700.187	8.54
700.216	-1.46
700.244	-3.46
700.273	2.54
700.301	11.54
700.329	-1.46
700.358	15.54
700.386	10.54
700.415	-11.46
700.443	22.54
700.472	13.54
700.5	8.54
700.528	12.54
700.557	1.54
700.585	-5.46
700.614	-1.46
700.642	23.54
700.67	14.54
700.699	10.54
700.727	17.54
700.755	5.54
700.784	-1.46
700.812	5.54
700.841	18.54
700.869	-1.46
700.897	-11.46
700.926	-12.46
700.954	9.54
700.982	21.54
701.011	-0.46
701.039	8.54
701.067	-6.46
701.096	13.54
701.124	-5.46
701.152	-0.46
701.181	9.54
701.209	-12.46
701.237	19.54
701.266	7.54
701.294	-7.46
701.322	0.54
701.351	28.54
701.379	-4.46
701.407	4.54
701.435	12.54
701.464	20.54
701.492	22.54
701.52	9.54
701.549	17.54
701.577	13.54
701.605	-4.46
701.634	14.54
701.662	-3.46
701.69	-20.46
701.718	1.54
701.747	10.54
701.775	6.54
701.803	-0.46
701.831	22.54
701.86	5.54
701.888	8.54
701.916	-2.46
701.944	-1.46
701.973	-3.46
702.001	2.54
702.029	-3.46
702.057	-6.46
702.086	-6.46
702.114	-0.46
702.142	1.54
702.17	17.54
702.199	1.54
702.227	-2.46
702.255	6.54
702.283	-0.46
702.311	2.54
702.34	4.54
702.368	-1.46
702.396	-2.46
702.424	-0.46
702.452	-6.46
702.481	17.54
702.509	-0.46
702.537	9.54
702.565	1.54
702.593	-11.46
702.621	-0.46
702.65	2.54
702.678	-1.46
702.706	20.54
702.734	6.54
702.762	6.54
702.79	12.54
702.819	7.54
702.847	10.54
702.875	11.54
702.903	9.54
702.931	-4.46
702.959	4.54
702.988	0.54
703.016	-1.46
703.044	8.54
703.072	10.54
703.1	5.54
703.128	17.54
703.156	3.54
703.184	-9.46
703.212	5.54
703.241	4.54
703.269	4.54
703.297	20.54
703.325	14.54
703.353	-9.46
703.381	-13.46
703.409	0.54
703.437	-9.46
703.465	-0.46
703.493	-6.46
703.522	12.54
703.55	12.54
703.578	6.54
703.606	-7.46
703.634	-5.46
703.662	6.54
703.69	4.54
703.718	6.54
703.746	21.54
703.774	5.54
703.802	6.54
703.83	3.54
703.858	-11.46
703.886	-0.46
703.914	-5.46
703.942	4.54
703.97	-1.46
703.998	-2.46
704.027	3.54
704.055	-0.46
704.083	-2.46
704.111	-3.46
704.139	-7.46
704.167	4.54
704.195	-4.46
704.223	-1.46
704.251	-3.46
704.279	23.54
704.307	4.54
704.335	-8.46
704.363	2.54
704.391	-12.46
704.419	3.54
704.447	-15.46
704.475	-13.46
704.503	7.54
704.531	16.54
704.558	-4.46
704.586	-14.46
704.614	6.54
704.642	8.54
704.67	-5.46
704.698	4.54
704.726	3.54
704.754	-0.46
704.782	-6.46
704.81	-5.46
704.838	13.54
704.866	-5.46
704.894	-2.46
704.922	-2.46
704.95	9.54
704.978	19.54
705.006	10.54
705.034	12.54
705.061	-5.46
705.089	14.54
705.117	-8.46
705.145	-2.46
705.173	-10.46
705.201	4.54
705.229	22.54
705.257	-2.46
705.285	11.54
705.313	12.54
705.34	-9.46
705.368	-3.46
705.396	1.54
705.424	0.54
705.452	-0.46
705.48	11.54
705.508	3.54
705.536	2.54
705.563	-5.46
705.591	0.54
705.619	1.54
705.647	-9.46
705.675	-2.46
705.703	2.54
705.731	-8.46
705.758	-1.46
705.786	-5.46
705.814	36.54
705.842	4.54
705.87	10.54
705.898	22.54
705.925	-5.46
705.953	-2.46
705.981	-13.46
706.009	-2.46
706.037	-7.46
706.065	3.54
706.092	-15.46
706.12	-14.46
706.148	8.54
706.176	10.54
706.204	7.54
706.231	14.54
706.259	-9.46
706.287	-13.46
706.315	1.54
706.342	-6.46
706.37	12.54
706.398	15.54
706.426	2.54
706.454	-1.46
706.481	21.54
706.509	9.54
706.537	-1.46
706.565	-1.46
706.592	4.54
706.62	-0.46
706.648	-5.46
706.676	-7.46
706.703	-8.46
706.731	-6.46
706.759	-1.46
706.787	5.54
706.814	3.54
706.842	8.54
706.87	-2.46
706.897	-4.46
706.925	-13.46
706.953	8.54
706.981	16.54
707.008	2.54
707.036	-2.46
707.064	-1.46
707.091	-6.46
707.119	13.54
707.147	-0.46
707.174	-0.46
707.202	21.54
707.23	-3.46
707.258	1.54
707.285	-10.46
707.313	-11.46
707.341	-3.46
707.368	-9.46
707.396	-13.46
707.424	0.54
707.451	18.54
707.479	6.54
707.507	0.54
707.534	-2.46
707.562	2.54
707.59	-8.46
707.617	-10.46
707.645	-2.46
707.672	0.54
707.7	-0.46
707.728	11.54
707.755	5.54
707.783	-3.46
707.811	-1.46
707.838	-13.46
707.866	-9.46
707.893	-2.46
707.921	-14.46
707.949	2.54
707.976	9.54
708.004	20.54
708.031	11.54
708.059	-6.46
708.087	3.54
708.114	2.54
708.142	-11.46
708.169	-4.46
708.197	-12.46
708.225	-7.46
708.252	-19.46
708.28	18.54
708.307	7.54
708.335	12.54
708.362	-7.46
708.39	-20.46
708.418	3.54
708.445	4.54
708.473	-8.46
708.5	-9.46
708.528	2.54
708.555	9.54
708.583	2.54
708.61	5.54
708.638	8.54
708.665	-9.46
708.693	4.54
708.72	-8.46
708.748	-9.46
708.776	6.54
708.803	36.54
708.831	10.54
708.858	18.54
708.886	-4.46
708.913	0.54
708.941	-3.46
708.968	13.54
708.996	-5.46
709.023	20.54
709.051	1.54
709.078	-9.46
709.105	4.54
709.133	1.54
709.16	-8.46
709.188	8.54
709.215	5.54
709.243	1.54
709.27	-9.46
709.298	-9.46
709.325	-3.46
709.353	8.54
709.38	-2.46
709.408	17.54
709.435	-3.46
709.462	-17.46
709.49	7.54
709.517	0.54
709.545	8.54
709.572	6.54
709.6	-3.46
709.627	2.54
709.655	1.54
709.682	-3.46
709.709	-5.46
709.737	1.54
709.764	-10.46
709.792	16.54
709.819	-2.46
709.846	-4.46
709.874	13.54
709.901	9.54
709.929	13.54
709.956	17.54
709.983	-13.46
710.011	-0.46
710.038	1.54
710.066	22.54
710.093	2.54
710.12	7.54
710.148	-0.46
710.175	-12.46
710.202	-7.46
710.23	2.54
710.257	13.54
710.284	13.54
710.312	6.54
710.339	-0.46
710.366	5.54
710.394	-10.46
710.421	9.54
710.448	0.54
710.476	-9.46
710.503	11.54
710.53	9.54
710.558	7.54
710.585	18.54
710.612	-12.46
710.64	-1.46
710.667	-3.46
710.694	-2.46
710.722	2.54
710.749	-18.46
710.776	-2.46
710.804	11.54
710.831	5.54
710.858	10.54
710.885	6.54
710.913	-16.46
710.94	12.54
710.967	5.54
710.995	16.54
711.022	-3.46
711.049	9.54
711.076	-2.46
711.104	-4.46
711.131	-1.46
711.158	-2.46
711.185	20.54
711.213	5.54
711.24	-0.46
711.267	5.54
711.294	-0.46
711.322	11.54
711.349	4.54
711.376	3.54
711.403	10.54
711.431	-7.46
711.458	1.54
711.485	-8.46
711.512	2.54
711.54	9.54
711.567	4.54
711.594	2.54
711.621	-3.46
711.648	1.54
711.676	1.54
711.703	-2.46
711.73	-12.46
711.757	-1.46
711.784	1.54
711.812	1.54
711.839	1.54
711.866	6.54
711.893	-2.46
711.92	18.54
711.947	-7.46
711.975	8.54
712.002	-5.46
712.029	4.54
712.056	1.54
712.083	19.54
712.11	-11.46
712.138	22.54
712.165	9.54
712.192	3.54
712.219	-4.46
712.246	-4.46
712.273	-14.46
712.3	-12.46
712.328	9.54
712.355	2.54
712.382	-2.46
712.409	6.54
712.436	9.54
712.463	17.54
712.49	9.54
712.517	23.54
712.544	-13.46
712.572	6.54
712.599	7.54
712.626	7.54
712.653	-5.46
712.68	-0.46
712.707	13.54
712.734	-6.46
712.761	13.54
712.788	29.54
712.815	4.54
712.842	7.54
712.87	4.54
712.897	0.54
712.924	-2.46
712.951	1.54
712.978	12.54
713.005	18.54
713.032	8.54
713.059	1.54
713.086	10.54
713.113	-22.46
713.14	-5.46
713.167	21.54
713.194	10.54
713.221	-2.46
713.248	-11.46
713.275	5.54
713.302	0.54
713.329	11.54
713.356	7.54
713.383	-2.46
713.41	11.54
713.437	5.54
713.464	1.54
713.491	6.54
713.518	-0.46
713.545	-2.46
713.572	2.54
713.599	17.54
713.626	2.54
713.653	5.54
713.68	-2.46
713.707	-3.46
713.734	12.54
713.761	2.54
713.788	-1.46
713.815	20.54
713.842	-2.46
713.869	-4.46
713.896	11.54
713.923	18.54
713.95	-6.46
713.977	10.54
714.004	10.54
714.031	-1.46
714.058	-3.46
714.085	2.54
714.112	6.54
714.139	-3.46
714.165	-12.46
714.192	-0.46
714.219	11.54
714.246	5.54
714.273	-10.46
714.3	-4.46
714.327	-0.46
714.354	4.54
714.381	5.54
714.408	-0.46
714.435	0.54
714.461	-4.46
714.488	9.54
714.515	2.54
714.542	0.54
714.569	6.54
714.596	-10.46
714.623	-7.46
714.65	-14.46
714.677	3.54
714.703	-5.46
714.73	1.54
714.757	5.54
714.784	-9.46
714.811	-10.46
714.838	9.54
714.865	10.54
714.891	13.54
714.918	-13.46
714.945	5.54
714.972	1.54
714.999	10.54
715.026	-2.46
715.052	-1.46
715.079	-11.46
715.106	5.54
715.133	5.54
715.16	-1.46
715.187	0.54
715.213	-3.46
715.24	-10.46
715.267	-2.46
715.294	-2.46
715.321	-2.46
715.347	2.54
715.374	2.54
715.401	1.54
715.428	13.54
715.455	6.54
715.481	-4.46
715.508	33.54
715.535	2.54
715.562	12.54
715.588	10.54
715.615	2.54
715.642	7.54
715.669	4.54
715.695	-12.46
715.722	1.54
715.749	16.54
715.776	8.54
715.802	0.54
715.829	7.54
715.856	2.54
715.883	27.54
715.909	-4.46
715.936	-1.46
715.963	-5.46
715.99	-9.46
716.016	10.54
716.043	5.54
716.07	-9.46
716.096	-15.46
716.123	3.54
716.15	8.54
716.177	2.54
716.203	7.54
716.23	-3.46
716.257	-7.46
716.283	-4.46
716.31	7.54
716.337	10.54
716.363	13.54
716.39	11.54
716.417	27.54
716.443	-2.46
716.47	14.54
716.497	6.54
716.523	8.54
716.55	1.54
716.577	16.54
716.603	1.54
716.63	1.54
716.657	19.54
716.683	10.54
716.71	0.54
716.737	4.54
716.763	2.54
716.79	7.54
716.817	9.54
716.843	14.54
716.87	3.54
716.897	11.54
716.923	16.54
716.95	-5.46
716.976	-15.46
717.003	-5.46
717.03	-10.46
717.056	-2.46
717.083	-7.46
717.109	14.54
717.136	15.54
717.163	-2.46
717.189	7.54
717.216	-16.46
717.242	-13.46
717.269	-5.46
717.296	10.54
717.322	13.54
717.349	11.54
717.375	12.54
717.402	-7.46
717.428	10.54
717.455	-0.46
717.481	6.54
717.508	5.54
717.535	16.54
717.561	-4.46
717.588	4.54
717.614	1.54
717.641	-2.46
717.667	-2.46
717.694	-5.46
717.72	-5.46
717.747	2.54
717.773	-3.46
717.8	-1.46
717.826	5.54
717.853	4.54
717.88	10.54
717.906	30.54
717.933	8.54
717.959	-9.46
717.986	9.54
718.012	-10.46
718.039	4.54
718.065	9.54
718.092	-1.46
718.118	-2.46
718.144	-1.46
718.171	11.54
718.197	16.54
718.224	5.54
718.25	0.54
718.277	4.54
718.303	-4.46
718.33	-1.46
718.356	-4.46
718.383	-14.46
718.409	-5.46
718.436	5.54
718.462	9.54
718.489	-4.46
718.515	3.54
718.541	8.54
718.568	8.54
718.594	4.54
718.621	19.54
718.647	4.54
718.674	10.54
718.7	23.54
718.726	-1.46
718.753	-4.46
718.779	9.54
718.806	0.54
718.832	7.54
718.858	0.54
718.885	-7.46
718.911	6.54
718.938	10.54
718.964	-14.46
718.99	10.54
719.017	2.54
719.043	0.54
719.07	14.54
719.096	10.54
719.122	0.54
719.149	10.54
719.175	-6.46
719.201	4.54
719.228	-5.46
719.254	-2.46
719.281	3.54
719.307	5.54
719.333	-0.46
719.36	1.54
719.386	4.54
719.412	14.54
719.439	-0.46
719.465	-0.46
719.491	-11.46
719.518	8.54
719.544	16.54
719.57	7.54
719.597	4.54
719.623	-6.46
719.649	-7.46
719.675	-6.46
719.702	-1.46
719.728	9.54
719.754	9.54
719.781	4.54
719.807	1.54
719.833	0.54
719.86	0.54
719.886	7.54
719.912	8.54
719.938	-16.46
719.965	-2.46
719.991	8.54
720.017	-0.46
720.044	-1.46
720.07	-1.46
720.096	8.54
720.122	-4.46
720.149	-2.46
720.175	29.54
720.201	11.54
720.227	1.54
720.254	8.54
720.28	3.54
720.306	-4.46
720.332	2.54
720.359	13.54
720.385	21.54
720.411	12.54
720.437	22.54
720.463	-9.46
720.49	-5.46
720.516	-2.46
720.542	-7.46
720.568	3.54
720.595	16.54
720.621	1.54
720.647	-4.46
720.673	9.54
720.699	8.54
720.725	17.54
720.752	11.54
720.778	16.54
720.804	20.54
720.83	17.54
720.856	5.54
720.883	-17.46
720.909	3.54
720.935	-6.46
720.961	23.54
720.987	11.54
721.013	18.54
721.04	-1.46
721.066	-15.46
721.092	-7.46
721.118	-2.46
721.144	6.54
721.17	5.54
721.196	-3.46
721.223	-18.46
721.249	-5.46
721.275	17.54
721.301	7.54
721.327	14.54
721.353	-5.46
721.379	5.54
721.405	11.54
721.432	21.54
721.458	7.54
721.484	16.54
721.51	-9.46
721.536	16.54
721.562	-11.46
721.588	5.54
721.614	-5.46
721.64	-2.46
721.666	9.54
721.693	1.54
721.719	0.54
721.745	-10.46
721.771	-1.46
721.797	8.54
721.823	-13.46
721.849	4.54
721.875	14.54
721.901	3.54
721.927	0.54
721.953	-6.46
721.979	16.54
722.005	6.54
722.031	-3.46
722.057	-3.46
722.083	13.54
722.109	3.54
722.135	16.54
722.161	7.54
722.187	1.54
722.214	10.54
722.24	8.54
722.266	0.54
722.292	15.54
722.318	21.54
722.344	-5.46
722.37	-1.46
722.396	13.54
722.422	-3.46
722.448	5.54
722.474	-9.46
722.5	23.54
722.526	6.54
722.552	8.54
722.578	-7.46
722.603	9.54
722.629	0.54
722.655	-1.46
722.681	-9.46
722.707	-8.46
722.733	-7.46
722.759	-2.46
722.785	4.54
722.811	0.54
722.837	5.54
722.863	9.54
722.889	10.54
722.915	-2.46
722.941	10.54
722.967	3.54
722.993	8.54
723.019	13.54
723.045	-2.46
723.071	16.54
723.097	-2.46
723.122	-0.46
723.148	-5.46
723.174	8.54
723.2	10.54
723.226	-1.46
723.252	11.54
723.278	-2.46
723.304	9.54
723.33	-3.46
723.356	-11.46
723.381	-10.46
723.407	-10.46
723.433	6.54
723.459	-3.46
723.485	-15.46
723.511	18.54
723.537	9.54
723.563	-9.46
723.588	-1.46
723.614	10.54
723.64	12.54
723.666	-2.46
723.692	9.54
723.718	12.54
723.744	11.54
723.769	-8.46
723.795	-6.46
723.821	-3.46
723.847	1.54
723.873	9.54
723.899	3.54
723.924	-7.46
723.95	-3.46
723.976	-14.46
724.002	12.54
724.028	5.54
724.053	2.54
724.079	1.54
724.105	3.54
724.131	-1.46
724.157	-8.46
724.182	-5.46
724.208	10.54
724.234	4.54
724.26	0.54
724.286	12.54
724.311	5.54
724.337	-6.46
724.363	-4.46
724.389	17.54
724.415	1.54
724.44	0.54
724.466	-1.46
724.492	8.54
724.518	9.54
724.543	7.54
724.569	-6.46
724.595	9.54
724.621	5.54
724.646	8.54
724.672	-11.46
724.698	-15.46
724.723	5.54
724.749	-4.46
724.775	-6.46
724.801	2.54
724.826	-3.46
724.852	1.54
724.878	-7.46
724.904	-5.46
724.929	2.54
724.955	-3.46
724.981	0.54
725.006	8.54
725.032	8.54
725.058	2.54
725.083	-3.46
725.109	1.54
725.135	-3.46
725.161	0.54
725.186	-3.46
725.212	-3.46
725.238	6.54
725.263	5.54
725.289	5.54
725.315	-1.46
725.34	-4.46
725.366	5.54
725.392	-5.46
725.417	-3.46
725.443	-3.46
725.468	13.54
725.494	29.54
725.52	19.54
725.545	-7.46
725.571	7.54
725.597	6.54
725.622	13.54
725.648	-9.46
725.674	7.54
725.699	5.54
725.725	12.54
725.75	17.54
725.776	1.54
725.802	9.54
725.827	6.54
725.853	10.54
725.878	-3.46
725.904	-4.46
725.93	-2.46
725.955	-11.46
725.981	-14.46
726.006	-2.46
726.032	10.54
726.057	3.54
726.083	-4.46
726.109	3.54
726.134	2.54
726.16	10.54
726.185	-4.46
726.211	-1.46
726.236	12.54
726.262	15.54
726.288	4.54
726.313	8.54
726.339	3.54
726.364	-7.46
726.39	17.54
726.415	5.54
726.441	-1.46
726.466	-10.46
726.492	-9.46
726.517	11.54
726.543	-1.46
726.568	-7.46
726.594	-7.46
726.619	6.54
726.645	6.54
726.67	0.54
726.696	-3.46
726.721	-10.46
726.747	-10.46
726.772	-1.46
726.798	0.54
726.823	8.54
726.849	6.54
726.874	3.54
726.9	32.54
726.925	-3.46
726.951	-9.46
726.976	14.54
727.002	1.54
727.027	11.54
727.053	-2.46
727.078	-3.46
727.104	6.54
727.129	8.54
727.155	5.54
727.18	7.54
727.205	-8.46
727.231	1.54
727.256	3.54
727.282	14.54
727.307	15.54
727.333	9.54
727.358	-4.46
727.383	-1.46
727.409	-15.46
727.434	9.54
727.46	-7.46
727.485	3.54
727.511	4.54
727.536	-8.46
727.561	4.54
727.587	-5.46
727.612	-7.46
727.637	-6.46
727.663	-23.46
727.688	8.54
727.714	1.54
727.739	-9.46
727.764	-4.46
727.79	4.54
727.815	18.54
727.841	15.54
727.866	8.54
727.891	15.54
727.917	-13.46
727.942	-5.46
727.967	-0.46
727.993	-23.46
728.018	-8.46
728.043	-7.46
728.069	8.54
728.094	7.54
728.119	-1.46
728.145	11.54
728.17	11.54
728.195	10.54
728.221	21.54
728.246	4.54
728.271	-7.46
728.297	-2.46
728.322	7.54
728.347	-14.46
728.373	3.54
728.398	11.54
728.423	-14.46
728.448	4.54
728.474	-2.46
728.499	6.54
728.524	0.54
728.55	2.54
728.575	4.54
728.6	9.54
728.625	-5.46
728.651	-2.46
728.676	-5.46
728.701	13.54
728.727	8.54
728.752	-4.46
728.777	-7.46
728.802	-6.46
728.828	11.54
728.853	22.54
728.878	13.54
728.903	-12.46
728.929	-7.46
728.954	4.54
728.979	7.54
729.004	11.54
729.03	2.54
729.055	8.54
729.08	-3.46
729.105	-3.46
729.13	13.54
729.156	-3.46
729.181	-9.46
729.206	-15.46
729.231	-6.46
729.256	8.54
729.282	-7.46
729.307	-32.46
729.332	-3.46
729.357	5.54
729.382	-6.46
729.408	-7.46
729.433	1.54
729.458	-5.46
729.483	-1.46
729.508	11.54
729.533	1.54
729.559	5.54
729.584	0.54
729.609	4.54
729.634	16.54
729.659	-3.46
729.684	-17.46
729.71	14.54
729.735	-8.46
729.76	-11.46
729.785	-7.46
729.81	20.54
729.835	4.54
729.86	-8.46
729.886	-2.46
729.911	-20.46
729.936	0.54
729.961	-1.46
729.986	-6.46
730.011	0.54
730.036	13.54
730.061	20.54
730.086	12.54
730.112	5.54
730.137	17.54
730.162	8.54
730.187	-11.46
730.212	15.54
730.237	0.54
730.262	2.54
730.287	-2.46
730.312	23.54
730.337	-19.46
730.362	3.54
730.387	2.54
730.413	-8.46
730.438	-8.46
730.463	-12.46
730.488	-0.46
730.513	-5.46
730.538	-10.46
730.563	12.54
730.588	4.54
730.613	-3.46
730.638	-14.46
730.663	-4.46
730.688	21.54
730.713	4.54
730.738	6.54
730.763	-0.46
730.788	-3.46
730.813	9.54
730.838	6.54
730.863	1.54
730.888	-4.46
730.913	-14.46
730.938	-12.46
730.963	12.54
730.988	13.54
731.013	11.54
731.038	4.54
731.063	8.54
731.088	11.54
731.113	-2.46
731.138	5.54
731.163	-8.46
731.188	-11.46
731.213	0.54
731.238	-4.46
731.263	-7.46
731.288	-0.46
731.313	-3.46
731.338	12.54
731.363	2.54
731.388	-1.46
731.413	6.54
731.438	16.54
731.463	-0.46
731.487	5.54
731.512	-1.46
731.537	3.54
731.562	4.54
731.587	4.54
731.612	-11.46
731.637	-14.46
731.662	-2.46
731.687	0.54
731.712	-5.46
731.737	9.54
731.762	1.54
731.786	-1.46
731.811	10.54
731.836	-4.46
731.861	-4.46
731.886	-11.46
731.911	7.54
731.936	18.54
731.961	1.54
731.986	12.54
732.01	0.54
732.035	-3.46
732.06	21.54
732.085	4.54
732.11	6.54
732.135	-4.46
732.16	10.54
732.184	9.54
732.209	14.54
732.234	2.54
732.259	-13.46
732.284	20.54
732.309	-10.46
732.334	-8.46
732.358	-19.46
732.383	-12.46
732.408	-15.46
732.433	7.54
732.458	-4.46
732.482	3.54
732.507	13.54
732.532	11.54
732.557	13.54
732.582	10.54
732.607	-7.46
732.631	-29.46
732.656	-20.46
732.681	-5.46
732.706	-0.46
732.73	-9.46
732.755	-5.46
732.78	5.54
732.805	8.54
732.83	4.54
732.854	-2.46
732.879	4.54
732.904	5.54
732.929	-6.46
732.953	22.54
732.978	-1.46
733.003	-6.46
733.028	-4.46
733.052	18.54
733.077	3.54
733.102	16.54
733.127	4.54
733.151	-10.46
733.176	-7.46
733.201	-6.46
733.226	-10.46
733.25	8.54
733.275	-9.46
733.3	13.54
733.324	22.54
733.349	16.54
733.374	19.54
733.399	2.54
733.423	13.54
733.448	-10.46
733.473	2.54
733.497	-5.46
733.522	-4.46
733.547	18.54
733.571	6.54
733.596	-5.46
733.621	-9.46
733.646	-4.46
733.67	3.54
733.695	3.54
733.72	0.54
733.744	11.54
733.769	11.54
733.794	16.54
733.818	-6.46
733.843	-5.46
733.867	-12.46
733.892	-1.46
733.917	5.54
733.941	6.54
733.966	-5.46
733.991	-1.46
734.015	7.54
734.04	-1.46
734.065	6.54
734.089	20.54
734.114	1.54
734.138	16.54
734.163	4.54
734.188	1.54
734.212	6.54
734.237	6.54
734.261	-1.46
734.286	-6.46
734.311	-7.46
734.335	-3.46
734.36	9.54
734.384	2.54
734.409	18.54
734.434	11.54
734.458	11.54
734.483	13.54
734.507	1.54
734.532	-12.46
734.556	-3.46
734.581	6.54
734.606	-15.46
734.63	-8.46
734.655	-5.46
734.679	10.54
734.704	-7.46
734.728	5.54
734.753	0.54
734.777	-4.46
734.802	19.54
734.826	10.54
734.851	18.54
734.876	0.54
734.9	-1.46
734.925	9.54
734.949	4.54
734.974	4.54
734.998	7.54
735.023	-6.46
735.047	-11.46
735.072	1.54
735.096	1.54
735.121	11.54
735.145	3.54
735.17	-6.46
735.194	12.54
735.219	-7.46
735.243	-10.46
735.268	10.54
735.292	2.54
735.317	-1.46
735.341	0.54
735.365	-10.46
735.39	0.54
735.414	-4.46
735.439	7.54
735.463	7.54
735.488	0.54
735.512	-5.46
735.537	0.54
735.561	13.54
735.586	7.54
735.61	-5.46
735.634	-4.46
735.659	1.54
735.683	-0.46
735.708	-11.46
735.732	-14.46
735.757	-8.46
735.781	2.54
735.805	5.54
735.83	-4.46
735.854	1.54
735.879	-3.46
735.903	17.54
735.927	15.54
735.952	4.54
735.976	-3.46
736.001	-1.46
736.025	-13.46
736.049	-5.46
736.074	-1.46
736.098	-1.46
736.123	5.54
736.147	-4.46
736.171	10.54
736.196	17.54
736.22	-3.46
736.244	8.54
736.269	5.54
736.293	4.54
736.317	-2.46
736.342	5.54
736.366	19.54
736.39	32.54
736.415	3.54
736.439	8.54
736.463	20.54
736.488	21.54
736.512	13.54
736.536	7.54
736.561	17.54
736.585	-3.46
736.609	-6.46
736.634	-17.46
736.658	-3.46
736.682	-4.46
736.707	-4.46
736.731	-4.46
736.755	-10.46
736.78	22.54
736.804	8.54
736.828	-3.46
736.852	-14.46
736.877	0.54
736.901	17.54
736.925	-1.46
736.949	6.54
736.974	-2.46
736.998	-11.46
737.022	8.54
737.047	2.54
737.071	0.54
737.095	6.54
737.119	17.54
737.144	1.54
737.168	4.54
737.192	-10.46
737.216	13.54
737.241	0.54
737.265	8.54
737.289	-14.46
737.313	-23.46
737.337	-3.46
737.362	8.54
737.386	-14.46
737.41	-5.46
737.434	0.54
737.459	11.54
737.483	19.54
737.507	11.54
737.531	38.54
737.555	20.54
737.58	4.54
737.604	18.54
737.628	-14.46
737.652	-21.46
737.676	14.54
737.701	14.54
737.725	6.54
737.749	5.54
737.773	6.54
737.797	13.54
737.821	-1.46
737.846	1.54
737.87	35.54
737.894	-2.46
737.918	8.54
737.942	-4.46
737.966	1.54
737.99	4.54
738.015	-3.46
738.039	26.54
738.063	5.54
738.087	10.54
738.111	4.54
738.135	12.54
738.159	-1.46
738.184	5.54
738.208	-7.46
738.232	-2.46
738.256	27.54
738.28	3.54
738.304	12.54
738.328	-0.46
738.352	4.54
738.376	21.54
738.4	-1.46
738.425	16.54
738.449	-0.46
738.473	13.54
738.497	12.54
738.521	14.54
738.545	0.54
738.569	-1.46
738.593	12.54
738.617	6.54
738.641	2.54
738.665	21.54
738.689	13.54
738.713	-2.46
738.737	14.54
738.762	14.54
738.786	6.54
738.81	-25.46
738.834	9.54
738.858	3.54
738.882	18.54
738.906	2.54
738.93	9.54
738.954	10.54
738.978	18.54
739.002	-1.46
739.026	5.54
739.05	2.54
739.074	-5.46
739.098	29.54
739.122	20.54
739.146	12.54
739.17	17.54
739.194	26.54
739.218	12.54
739.242	14.54
739.266	7.54
739.29	13.54
739.314	2.54
739.338	-0.46
739.362	3.54
739.386	17.54
739.41	7.54
739.434	8.54
739.458	8.54
739.482	-10.46
739.506	16.54
739.53	8.54
739.554	6.54
739.577	-15.46
739.601	-3.46
739.625	-12.46
739.649	-3.46
739.673	-1.46
739.697	18.54
739.721	-3.46
739.745	7.54
739.769	11.54
739.793	10.54
739.817	3.54
739.841	-2.46
739.865	-2.46
739.889	-5.46
739.912	6.54
739.936	-3.46
739.96	1.54
739.984	12.54
740.008	7.54
740.032	-10.46
740.056	-10.46
740.08	-5.46
740.104	1.54
740.127	28.54
740.151	10.54
740.175	19.54
740.199	1.54
740.223	48.54
740.247	4.54
740.271	11.54
740.295	-4.46
740.318	-22.46
740.342	1.54
740.366	-5.46
740.39	21.54
740.414	-2.46
740.438	0.54
740.461	13.54
740.485	-5.46
740.509	-15.46
740.533	-15.46
740.557	-12.46
740.581	-6.46
740.604	3.54
740.628	-8.46
740.652	-2.46
740.676	17.54
740.7	3.54
740.723	-3.46
740.747	-3.46
740.771	5.54
740.795	-5.46
740.819	12.54
740.842	5.54
740.866	-0.46
740.89	4.54
740.914	-4.46
740.938	-7.46
740.961	2.54
740.985	-2.46
741.009	3.54
741.033	4.54
741.056	6.54
741.08	-11.46
741.104	-1.46
741.128	9.54
741.151	4.54
741.175	14.54
741.199	8.54
741.223	23.54
741.246	12.54
741.27	18.54
741.294	7.54
741.318	-9.46
741.341	-8.46
741.365	-4.46
741.389	4.54
741.413	7.54
741.436	11.54
741.46	11.54
741.484	22.54
741.507	-7.46
741.531	18.54
741.555	7.54
741.579	4.54
741.602	11.54
741.626	11.54
741.65	-6.46
741.673	10.54
741.697	12.54
741.721	-0.46
741.744	-17.46
741.768	-5.46
741.792	0.54
741.815	9.54
741.839	4.54
741.863	1.54
741.886	17.54
741.91	15.54
741.934	8.54
741.957	-7.46
741.981	16.54
742.005	-2.46
742.028	2.54
742.052	-19.46
742.075	6.54
742.099	9.54
742.123	-2.46
742.146	-2.46
742.17	-0.46
742.194	-10.46
742.217	-7.46
742.241	-11.46
742.264	-2.46
742.288	22.54
742.312	1.54
742.335	-5.46
742.359	-7.46
742.382	11.54
742.406	9.54
742.43	10.54
742.453	16.54
742.477	-1.46
742.5	0.54
742.524	-2.46
742.548	-4.46
742.571	-3.46
742.595	-11.46
742.618	-6.46
742.642	-5.46
742.665	17.54
742.689	-5.46
742.712	14.54
742.736	4.54
742.76	18.54
742.783	17.54
742.807	6.54
742.83	6.54
742.854	-5.46
742.877	2.54
742.901	13.54
742.924	-1.46
742.948	14.54
742.971	13.54
742.995	13.54
743.018	5.54
743.042	9.54
743.065	1.54
743.089	2.54
743.112	13.54
743.136	-1.46
743.159	8.54
743.183	-6.46
743.206	4.54
743.23	-7.46
743.253	4.54
743.277	-1.46
743.3	-10.46
743.324	4.54
743.347	-7.46
743.371	18.54
743.394	2.54
743.418	14.54
743.441	5.54
743.465	-0.46
743.488	13.54
743.512	-11.46
743.535	2.54
743.558	-1.46
743.582	1.54
743.605	7.54
743.629	23.54
743.652	10.54
743.676	-1.46
743.699	4.54
743.723	18.54
743.746	8.54
743.769	-6.46
743.793	6.54
743.816	0.54
743.84	12.54
743.863	5.54
743.886	14.54
743.91	12.54
743.933	9.54
743.957	6.54
743.98	-2.46
744.003	4.54
744.027	3.54
744.05	-5.46
744.074	-20.46
744.097	-29.46
744.12	-9.46
744.144	-15.46
744.167	11.54
744.19	5.54
744.214	-2.46
744.237	3.54
744.26	11.54
744.284	1.54
744.307	-5.46
744.331	14.54
744.354	-5.46
744.377	-1.46
744.401	1.54
744.424	0.54
744.447	-11.46
744.471	3.54
