Data from HighRes_H2_15_09_11_07_2024_HR4C61891__164__15-11-12-801.txt Node

Date: Thu Nov 07 15:11:12 EST 2024
User: crc00042
Spectrometer: HR4C6189
Trigger mode: 4
Integration Time (sec): 1.000000E-1
Scans to average: 1
Electric dark correction enabled: true
Nonlinearity correction enabled: false
Boxcar width: 0
XAxis mode: Wavelengths
Number of Pixels in Spectrum: 3648
>>>>>Begin Spectral Data<<<<<
639.567	-59.23
639.602	-59.23
639.636	-59.23
639.67	-44.23
639.704	-26.23
639.738	-6.23
639.773	14.77
639.807	-18.23
639.841	7.77
639.875	11.77
639.909	11.77
639.943	-14.23
639.978	0.77
640.012	-3.23
640.046	14.77
640.08	-7.23
640.114	-8.23
640.148	-4.23
640.182	-14.23
640.217	0.77
640.251	34.77
640.285	14.77
640.319	-9.23
640.353	1.77
640.387	9.77
640.421	-0.23
640.455	-3.23
640.49	-6.23
640.524	6.77
640.558	8.77
640.592	-6.23
640.626	-1.23
640.66	-1.23
640.694	6.77
640.728	5.77
640.762	16.77
640.796	7.77
640.83	7.77
640.865	-5.23
640.899	4.77
640.933	12.77
640.967	-21.23
641.001	11.77
641.035	19.77
641.069	-8.23
641.103	-3.23
641.137	-1.23
641.171	-4.23
641.205	21.77
641.239	6.77
641.273	5.77
641.307	8.77
641.341	-12.23
641.375	-13.23
641.409	2.77
641.443	1.77
641.477	15.77
641.511	14.77
641.545	7.77
641.579	0.77
641.614	5.77
641.648	-8.23
641.682	-13.23
641.716	8.77
641.75	27.77
641.784	-1.23
641.818	-10.23
641.852	16.77
641.886	-1.23
641.919	19.77
641.953	-6.23
641.987	-12.23
642.021	-10.23
642.055	3.77
642.089	5.77
642.123	-0.23
642.157	4.77
642.191	-9.23
642.225	17.77
642.259	-7.23
642.293	6.77
642.327	-7.23
642.361	5.77
642.395	21.77
642.429	13.77
642.463	22.77
642.497	15.77
642.531	-7.23
642.565	-4.23
642.599	11.77
642.633	0.77
642.666	6.77
642.7	4.77
642.734	5.77
642.768	-2.23
642.802	8.77
642.836	-8.23
642.87	-13.23
642.904	6.77
642.938	18.77
642.972	12.77
643.005	-1.23
643.039	18.77
643.073	-5.23
643.107	-2.23
643.141	-6.23
643.175	1.77
643.209	-7.23
643.243	-17.23
643.276	3.77
643.31	-6.23
643.344	10.77
643.378	2.77
643.412	10.77
643.446	-5.23
643.48	1.77
643.513	5.77
643.547	-0.23
643.581	-0.23
643.615	-12.23
643.649	-11.23
643.683	-4.23
643.716	-3.23
643.75	3.77
643.784	-24.23
643.818	4.77
643.852	-3.23
643.886	0.77
643.919	1.77
643.953	14.77
643.987	5.77
644.021	-6.23
644.055	11.77
644.088	16.77
644.122	-0.23
644.156	-2.23
644.19	7.77
644.224	1.77
644.257	10.77
644.291	20.77
644.325	16.77
644.359	15.77
644.392	11.77
644.426	15.77
644.46	6.77
644.494	8.77
644.527	-21.23
644.561	-8.23
644.595	-9.23
644.629	-12.23
644.662	-4.23
644.696	1.77
644.73	7.77
644.764	-5.23
644.797	-12.23
644.831	-12.23
644.865	2.77
644.899	6.77
644.932	19.77
644.966	4.77
645	9.77
645.033	6.77
645.067	-13.23
645.101	3.77
645.135	-14.23
645.168	-4.23
645.202	-11.23
645.236	-3.23
645.269	13.77
645.303	0.77
645.337	3.77
645.37	-0.23
645.404	7.77
645.438	12.77
645.471	11.77
645.505	8.77
645.539	9.77
645.572	-6.23
645.606	1.77
645.64	6.77
645.673	11.77
645.707	17.77
645.741	4.77
645.774	-12.23
645.808	8.77
645.842	-8.23
645.875	3.77
645.909	-4.23
645.943	-14.23
645.976	2.77
646.01	6.77
646.043	16.77
646.077	-3.23
646.111	-2.23
646.144	5.77
646.178	11.77
646.212	-9.23
646.245	-15.23
646.279	1.77
646.312	1.77
646.346	2.77
646.38	-13.23
646.413	7.77
646.447	7.77
646.48	-5.23
646.514	16.77
646.547	3.77
646.581	2.77
646.615	3.77
646.648	-0.23
646.682	-1.23
646.715	3.77
646.749	-3.23
646.782	0.77
646.816	-13.23
646.85	-15.23
646.883	-24.23
646.917	-11.23
646.95	-1.23
646.984	8.77
647.017	11.77
647.051	20.77
647.084	3.77
647.118	-7.23
647.151	-2.23
647.185	25.77
647.218	-21.23
647.252	13.77
647.285	-8.23
647.319	-11.23
647.353	15.77
647.386	13.77
647.42	-10.23
647.453	-10.23
647.487	-1.23
647.52	14.77
647.553	5.77
647.587	-1.23
647.62	-15.23
647.654	5.77
647.687	6.77
647.721	16.77
647.754	10.77
647.788	5.77
647.821	-1.23
647.855	5.77
647.888	3.77
647.922	5.77
647.955	13.77
647.989	8.77
648.022	4.77
648.055	15.77
648.089	-16.23
648.122	18.77
648.156	-6.23
648.189	-9.23
648.223	15.77
648.256	25.77
648.29	4.77
648.323	1.77
648.356	2.77
648.39	-6.23
648.423	-3.23
648.457	2.77
648.49	2.77
648.523	5.77
648.557	-3.23
648.59	-17.23
648.624	-3.23
648.657	3.77
648.69	18.77
648.724	3.77
648.757	19.77
648.791	10.77
648.824	11.77
648.857	16.77
648.891	-0.23
648.924	15.77
648.957	17.77
648.991	-29.23
649.024	13.77
649.057	-16.23
649.091	-19.23
649.124	2.77
649.158	7.77
649.191	3.77
649.224	4.77
649.258	5.77
649.291	-1.23
649.324	1.77
649.358	5.77
649.391	3.77
649.424	-2.23
649.458	-6.23
649.491	12.77
649.524	-16.23
649.557	-18.23
649.591	-24.23
649.624	16.77
649.657	-7.23
649.691	-4.23
649.724	11.77
649.757	1.77
649.791	-25.23
649.824	-4.23
649.857	6.77
649.89	18.77
649.924	-2.23
649.957	-0.23
649.99	-12.23
650.023	-4.23
650.057	2.77
650.09	10.77
650.123	-0.23
650.157	0.77
650.19	7.77
650.223	-9.23
650.256	-4.23
650.29	-2.23
650.323	4.77
650.356	-1.23
650.389	1.77
650.423	-5.23
650.456	-8.23
650.489	-14.23
650.522	4.77
650.555	19.77
650.589	15.77
650.622	0.77
650.655	30.77
650.688	-7.23
650.721	-0.23
650.755	4.77
650.788	1.77
650.821	3.77
650.854	-0.23
650.887	7.77
650.921	-7.23
650.954	2.77
650.987	-11.23
651.02	-6.23
651.053	-6.23
651.087	-16.23
651.12	16.77
651.153	16.77
651.186	-5.23
651.219	-7.23
651.252	4.77
651.286	6.77
651.319	-4.23
651.352	8.77
651.385	3.77
651.418	-1.23
651.451	6.77
651.484	-4.23
651.518	-12.23
651.551	6.77
651.584	-8.23
651.617	12.77
651.65	17.77
651.683	9.77
651.716	6.77
651.749	1.77
651.783	10.77
651.816	14.77
651.849	-1.23
651.882	9.77
651.915	-11.23
651.948	6.77
651.981	5.77
652.014	-17.23
652.047	-0.23
652.08	-16.23
652.114	3.77
652.147	-3.23
652.18	9.77
652.213	26.77
652.246	-20.23
652.279	-8.23
652.312	0.77
652.345	-7.23
652.378	23.77
652.411	11.77
652.444	-0.23
652.477	2.77
652.51	20.77
652.543	-25.23
652.576	11.77
652.609	3.77
652.642	0.77
652.675	8.77
652.709	-3.23
652.742	-0.23
652.775	6.77
652.808	15.77
652.841	-0.23
652.874	-8.23
652.907	5.77
652.94	-7.23
652.973	-17.23
653.006	-3.23
653.039	5.77
653.072	4.77
653.105	-1.23
653.138	-15.23
653.171	-2.23
653.204	-17.23
653.237	-11.23
653.27	-8.23
653.303	-3.23
653.336	-8.23
653.368	2.77
653.401	13.77
653.434	-14.23
653.467	-0.23
653.5	-5.23
653.533	-9.23
653.566	-10.23
653.599	17.77
653.632	0.77
653.665	-1.23
653.698	-19.23
653.731	-11.23
653.764	9.77
653.797	5.77
653.83	7.77
653.863	12.77
653.896	14.77
653.929	7.77
653.961	1.77
653.994	-13.23
654.027	-2.23
654.06	14.77
654.093	-0.23
654.126	3.77
654.159	-19.23
654.192	0.77
654.225	1.77
654.258	-6.23
654.29	-4.23
654.323	7.77
654.356	-4.23
654.389	6.77
654.422	-12.23
654.455	0.77
654.488	-1.23
654.521	-13.23
654.553	-1.23
654.586	4.77
654.619	1.77
654.652	-0.23
654.685	15.77
654.718	6.77
654.751	17.77
654.783	6.77
654.816	8.77
654.849	-0.23
654.882	-7.23
654.915	-23.23
654.948	-3.23
654.98	-7.23
655.013	2.77
655.046	-4.23
655.079	-7.23
655.112	12.77
655.144	-13.23
655.177	7.77
655.21	4.77
655.243	6.77
655.276	12.77
655.308	0.77
655.341	-14.23
655.374	9.77
655.407	-1.23
655.44	-9.23
655.472	9.77
655.505	-1.23
655.538	-0.23
655.571	12.77
655.603	1.77
655.636	6.77
655.669	23.77
655.702	12.77
655.734	7.77
655.767	8.77
655.8	11.77
655.833	22.77
655.865	37.77
655.898	12.77
655.931	33.77
655.964	35.77
655.996	38.77
656.029	62.77
656.062	33.77
656.095	45.77
656.127	62.77
656.16	99.77
656.193	115.77
656.225	157.77
656.258	270.77
656.291	483.77
656.324	1139.77
656.356	3434.77
656.389	7620.77
656.422	6108.77
656.454	2092.77
656.487	681.77
656.52	270.77
656.552	129.77
656.585	75.77
656.618	51.77
656.65	31.77
656.683	19.77
656.716	17.77
656.748	9.77
656.781	-2.23
656.814	-18.23
656.846	15.77
656.879	10.77
656.912	-4.23
656.944	-13.23
656.977	-10.23
657.01	5.77
657.042	-0.23
657.075	18.77
657.108	-6.23
657.14	6.77
657.173	4.77
657.205	23.77
657.238	1.77
657.271	4.77
657.303	3.77
657.336	15.77
657.369	5.77
657.401	-5.23
657.434	4.77
657.466	22.77
657.499	1.77
657.532	-2.23
657.564	-3.23
657.597	-10.23
657.629	11.77
657.662	5.77
657.694	7.77
657.727	-11.23
657.76	1.77
657.792	4.77
657.825	7.77
657.857	-3.23
657.89	-2.23
657.922	12.77
657.955	-15.23
657.987	11.77
658.02	22.77
658.053	14.77
658.085	-0.23
658.118	4.77
658.15	13.77
658.183	20.77
658.215	24.77
658.248	8.77
658.28	2.77
658.313	10.77
658.345	10.77
658.378	2.77
658.41	5.77
658.443	-5.23
658.475	-1.23
658.508	5.77
658.54	11.77
658.573	0.77
658.605	2.77
658.638	1.77
658.67	-14.23
658.703	12.77
658.735	-10.23
658.768	2.77
658.8	-8.23
658.833	11.77
658.865	7.77
658.898	-19.23
658.93	-4.23
658.963	-1.23
658.995	-17.23
659.028	-4.23
659.06	2.77
659.092	-6.23
659.125	6.77
659.157	-0.23
659.19	-4.23
659.222	4.77
659.255	9.77
659.287	-9.23
659.32	-12.23
659.352	1.77
659.384	22.77
659.417	-1.23
659.449	0.77
659.482	2.77
659.514	-4.23
659.546	-17.23
659.579	-12.23
659.611	5.77
659.644	-1.23
659.676	-13.23
659.708	-5.23
659.741	12.77
659.773	16.77
659.806	7.77
659.838	-2.23
659.87	-3.23
659.903	-1.23
659.935	10.77
659.967	4.77
660	9.77
660.032	0.77
660.065	-3.23
660.097	-7.23
660.129	-17.23
660.162	-10.23
660.194	0.77
660.226	15.77
660.259	18.77
660.291	-9.23
660.323	3.77
660.356	3.77
660.388	-5.23
660.42	7.77
660.453	9.77
660.485	1.77
660.517	9.77
660.55	10.77
660.582	-4.23
660.614	14.77
660.647	0.77
660.679	-21.23
660.711	-1.23
660.743	0.77
660.776	10.77
660.808	14.77
660.84	10.77
660.873	15.77
660.905	-1.23
660.937	2.77
660.969	-0.23
661.002	0.77
661.034	11.77
661.066	1.77
661.099	4.77
661.131	19.77
661.163	-13.23
661.195	3.77
661.228	16.77
661.26	7.77
661.292	-0.23
661.324	2.77
661.357	15.77
661.389	15.77
661.421	5.77
661.453	-3.23
661.485	0.77
661.518	2.77
661.55	-7.23
661.582	-13.23
661.614	4.77
661.647	10.77
661.679	-7.23
661.711	16.77
661.743	-4.23
661.775	-10.23
661.808	12.77
661.84	-12.23
661.872	2.77
661.904	4.77
661.936	-5.23
661.969	-7.23
662.001	-4.23
662.033	-1.23
662.065	-0.23
662.097	16.77
662.129	6.77
662.162	-0.23
662.194	-2.23
662.226	2.77
662.258	11.77
662.29	4.77
662.322	-11.23
662.355	-9.23
662.387	9.77
662.419	15.77
662.451	4.77
662.483	7.77
662.515	-12.23
662.547	0.77
662.58	-12.23
662.612	-2.23
662.644	0.77
662.676	8.77
662.708	29.77
662.74	-0.23
662.772	-11.23
662.804	-0.23
662.836	-2.23
662.869	2.77
662.901	10.77
662.933	-1.23
662.965	17.77
662.997	17.77
663.029	6.77
663.061	-9.23
663.093	-6.23
663.125	25.77
663.157	-5.23
663.189	8.77
663.221	4.77
663.254	2.77
663.286	3.77
663.318	-4.23
663.35	-0.23
663.382	-9.23
663.414	6.77
663.446	1.77
663.478	2.77
663.51	31.77
663.542	-11.23
663.574	16.77
663.606	2.77
663.638	3.77
663.67	2.77
663.702	2.77
663.734	-2.23
663.766	11.77
663.798	-25.23
663.83	-5.23
663.862	9.77
663.894	6.77
663.926	5.77
663.958	20.77
663.99	0.77
664.022	-3.23
664.054	7.77
664.086	-16.23
664.118	-16.23
664.15	-29.23
664.182	2.77
664.214	-15.23
664.246	10.77
664.278	4.77
664.31	17.77
664.342	-3.23
664.374	-5.23
664.406	-1.23
664.438	5.77
664.47	7.77
664.502	-16.23
664.534	-2.23
664.566	-10.23
664.598	1.77
664.63	-13.23
664.662	1.77
664.693	4.77
664.725	-20.23
664.757	-11.23
664.789	-17.23
664.821	5.77
664.853	1.77
664.885	-8.23
664.917	-17.23
664.949	6.77
664.981	23.77
665.013	-8.23
665.045	-2.23
665.076	7.77
665.108	-7.23
665.14	7.77
665.172	6.77
665.204	-14.23
665.236	-9.23
665.268	7.77
665.3	0.77
665.331	-33.23
665.363	2.77
665.395	-10.23
665.427	-10.23
665.459	-9.23
665.491	-4.23
665.523	-9.23
665.555	-28.23
665.586	-3.23
665.618	-0.23
665.65	-21.23
665.682	-2.23
665.714	1.77
665.746	-15.23
665.777	0.77
665.809	-8.23
665.841	-0.23
665.873	-5.23
665.905	7.77
665.937	6.77
665.968	-9.23
666	-13.23
666.032	-6.23
666.064	-9.23
666.096	-0.23
666.127	-3.23
666.159	-4.23
666.191	4.77
666.223	1.77
666.255	14.77
666.286	5.77
666.318	-9.23
666.35	6.77
666.382	-0.23
666.413	-23.23
666.445	-10.23
666.477	1.77
666.509	-9.23
666.54	6.77
666.572	-2.23
666.604	-2.23
666.636	-5.23
666.667	11.77
666.699	15.77
666.731	-3.23
666.763	-15.23
666.794	-1.23
666.826	-6.23
666.858	-16.23
666.89	14.77
666.921	3.77
666.953	-2.23
666.985	-8.23
667.017	1.77
667.048	1.77
667.08	-8.23
667.112	-20.23
667.143	-13.23
667.175	17.77
667.207	4.77
667.238	-10.23
667.27	10.77
667.302	5.77
667.334	2.77
667.365	12.77
667.397	9.77
667.429	2.77
667.46	14.77
667.492	-0.23
667.524	-9.23
667.555	-9.23
667.587	3.77
667.619	-8.23
667.65	10.77
667.682	0.77
667.714	5.77
667.745	4.77
667.777	-1.23
667.808	3.77
667.84	1.77
667.872	-4.23
667.903	26.77
667.935	5.77
667.967	-9.23
667.998	2.77
668.03	7.77
668.061	8.77
668.093	2.77
668.125	-3.23
668.156	5.77
668.188	-2.23
668.22	-3.23
668.251	-3.23
668.283	13.77
668.314	15.77
668.346	9.77
668.377	2.77
668.409	-13.23
668.441	3.77
668.472	8.77
668.504	30.77
668.535	-10.23
668.567	-7.23
668.599	2.77
668.63	0.77
668.662	19.77
668.693	11.77
668.725	-2.23
668.756	2.77
668.788	-19.23
668.819	-6.23
668.851	8.77
668.882	9.77
668.914	0.77
668.946	6.77
668.977	-13.23
669.009	10.77
669.04	-4.23
669.072	-8.23
669.103	-3.23
669.135	-15.23
669.166	4.77
669.198	18.77
669.229	-7.23
669.261	-3.23
669.292	-0.23
669.324	2.77
669.355	7.77
669.387	-6.23
669.418	10.77
669.45	-22.23
669.481	-6.23
669.513	1.77
669.544	17.77
669.576	-8.23
669.607	4.77
669.639	13.77
669.67	-12.23
669.701	6.77
669.733	-14.23
669.764	-1.23
669.796	-18.23
669.827	-15.23
669.859	-6.23
669.89	9.77
669.922	17.77
669.953	5.77
669.985	0.77
670.016	18.77
670.047	4.77
670.079	-0.23
670.11	6.77
670.142	3.77
670.173	-13.23
670.204	-0.23
670.236	3.77
670.267	-9.23
670.299	-7.23
670.33	0.77
670.362	11.77
670.393	-8.23
670.424	-4.23
670.456	-22.23
670.487	-12.23
670.518	0.77
670.55	-0.23
670.581	-4.23
670.613	-7.23
670.644	-6.23
670.675	-5.23
670.707	-30.23
670.738	3.77
670.769	-5.23
670.801	-6.23
670.832	4.77
670.864	-8.23
670.895	-3.23
670.926	3.77
670.958	-1.23
670.989	-6.23
671.02	-5.23
671.052	16.77
671.083	7.77
671.114	2.77
671.146	9.77
671.177	-6.23
671.208	-3.23
671.24	-16.23
671.271	-8.23
671.302	12.77
671.333	-14.23
671.365	-9.23
671.396	-8.23
671.427	-3.23
671.459	-0.23
671.49	0.77
671.521	1.77
671.553	-1.23
671.584	-1.23
671.615	-2.23
671.646	8.77
671.678	-12.23
671.709	-21.23
671.74	-29.23
671.771	-18.23
671.803	4.77
671.834	7.77
671.865	-8.23
671.896	-6.23
671.928	6.77
671.959	-5.23
671.99	-11.23
672.021	9.77
672.053	9.77
672.084	11.77
672.115	3.77
672.146	-6.23
672.178	-22.23
672.209	-4.23
672.24	-0.23
672.271	21.77
672.303	6.77
672.334	-12.23
672.365	1.77
672.396	-0.23
672.427	-0.23
672.459	3.77
672.49	26.77
672.521	14.77
672.552	5.77
672.583	-5.23
672.615	-15.23
672.646	8.77
672.677	-1.23
672.708	-2.23
672.739	-6.23
672.77	-4.23
672.802	-3.23
672.833	-9.23
672.864	-1.23
672.895	-17.23
672.926	-20.23
672.957	-13.23
672.989	-22.23
673.02	-4.23
673.051	-9.23
673.082	15.77
673.113	2.77
673.144	19.77
673.175	1.77
673.206	-4.23
673.238	1.77
673.269	4.77
673.3	-1.23
673.331	23.77
673.362	2.77
673.393	-4.23
673.424	7.77
673.455	9.77
673.487	-24.23
673.518	-2.23
673.549	-13.23
673.58	-8.23
673.611	-0.23
673.642	-1.23
673.673	-16.23
673.704	-0.23
673.735	-10.23
673.766	-0.23
673.797	2.77
673.828	0.77
673.86	1.77
673.891	-13.23
673.922	-16.23
673.953	-12.23
673.984	14.77
674.015	5.77
674.046	-0.23
674.077	5.77
674.108	-10.23
674.139	-13.23
674.17	-0.23
674.201	-7.23
674.232	-6.23
674.263	5.77
674.294	-4.23
674.325	1.77
674.356	1.77
674.387	12.77
674.418	0.77
674.449	-21.23
674.48	-12.23
674.511	-3.23
674.542	5.77
674.573	-8.23
674.604	6.77
674.635	-2.23
674.666	4.77
674.697	11.77
674.728	-20.23
674.759	-2.23
674.79	-5.23
674.821	-2.23
674.852	13.77
674.883	4.77
674.914	-2.23
674.945	-5.23
674.976	-5.23
675.007	-6.23
675.038	-7.23
675.069	-8.23
675.1	-14.23
675.131	5.77
675.162	-8.23
675.193	-14.23
675.224	-8.23
675.254	8.77
675.285	-8.23
675.316	5.77
675.347	-1.23
675.378	-15.23
675.409	-9.23
675.44	-2.23
675.471	-3.23
675.502	-10.23
675.533	-1.23
675.564	0.77
675.595	-14.23
675.625	19.77
675.656	-1.23
675.687	-9.23
675.718	-15.23
675.749	8.77
675.78	8.77
675.811	-2.23
675.842	3.77
675.873	-9.23
675.903	-10.23
675.934	7.77
675.965	-13.23
675.996	-6.23
676.027	-0.23
676.058	-5.23
676.089	-16.23
676.119	8.77
676.15	-8.23
676.181	-8.23
676.212	-3.23
676.243	13.77
676.274	-4.23
676.304	-4.23
676.335	-7.23
676.366	7.77
676.397	-1.23
676.428	-7.23
676.459	18.77
676.489	7.77
676.52	3.77
676.551	1.77
676.582	-13.23
676.613	7.77
676.643	-10.23
676.674	9.77
676.705	-9.23
676.736	-7.23
676.767	21.77
676.797	1.77
676.828	15.77
676.859	-0.23
676.89	-3.23
676.92	-6.23
676.951	9.77
676.982	-3.23
677.013	-4.23
677.044	25.77
677.074	-0.23
677.105	-0.23
677.136	-7.23
677.167	-7.23
677.197	8.77
677.228	0.77
677.259	-10.23
677.289	-3.23
677.32	-22.23
677.351	-20.23
677.382	-16.23
677.412	-13.23
677.443	13.77
677.474	0.77
677.505	-10.23
677.535	-4.23
677.566	-7.23
677.597	-5.23
677.627	-16.23
677.658	-7.23
677.689	-5.23
677.72	-23.23
677.75	-9.23
677.781	2.77
677.812	0.77
677.842	7.77
677.873	-2.23
677.904	-14.23
677.934	-12.23
677.965	-7.23
677.996	-9.23
678.026	9.77
678.057	-4.23
678.088	-12.23
678.118	-3.23
678.149	-21.23
678.18	-7.23
678.21	2.77
678.241	-8.23
678.272	4.77
678.302	0.77
678.333	-0.23
678.363	7.77
678.394	2.77
678.425	8.77
678.455	-9.23
678.486	0.77
678.517	1.77
678.547	4.77
678.578	1.77
678.608	-5.23
678.639	-4.23
678.67	16.77
678.7	1.77
678.731	-3.23
678.761	-12.23
678.792	5.77
678.823	2.77
678.853	-6.23
678.884	-28.23
678.914	3.77
678.945	0.77
678.975	-6.23
679.006	-4.23
679.037	-3.23
679.067	13.77
679.098	-16.23
679.128	-4.23
679.159	8.77
679.189	-8.23
679.22	-10.23
679.25	-7.23
679.281	1.77
679.312	-1.23
679.342	-5.23
679.373	14.77
679.403	-1.23
679.434	11.77
679.464	-6.23
679.495	1.77
679.525	4.77
679.556	-12.23
679.586	4.77
679.617	-4.23
679.647	6.77
679.678	12.77
679.708	15.77
679.739	-8.23
679.769	3.77
679.8	-2.23
679.83	6.77
679.861	11.77
679.891	-7.23
679.922	-9.23
679.952	-3.23
679.983	-4.23
680.013	12.77
680.044	1.77
680.074	6.77
680.105	-4.23
680.135	4.77
680.165	9.77
680.196	11.77
680.226	8.77
680.257	15.77
680.287	1.77
680.318	0.77
680.348	-0.23
680.379	1.77
680.409	15.77
680.439	0.77
680.47	-1.23
680.5	-4.23
680.531	-12.23
680.561	29.77
680.592	9.77
680.622	29.77
680.652	4.77
680.683	13.77
680.713	-9.23
680.744	-5.23
680.774	2.77
680.804	8.77
680.835	1.77
680.865	-15.23
680.896	13.77
680.926	13.77
680.956	14.77
680.987	8.77
681.017	-21.23
681.047	5.77
681.078	-3.23
681.108	4.77
681.139	-13.23
681.169	-6.23
681.199	1.77
681.23	17.77
681.26	-5.23
681.29	-0.23
681.321	-16.23
681.351	0.77
681.381	-20.23
681.412	6.77
681.442	1.77
681.472	8.77
681.503	7.77
681.533	11.77
681.563	-0.23
681.594	1.77
681.624	5.77
681.654	-9.23
681.685	-1.23
681.715	7.77
681.745	-5.23
681.775	-2.23
681.806	-0.23
681.836	5.77
681.866	-10.23
681.897	-1.23
681.927	-16.23
681.957	-29.23
681.987	-9.23
682.018	-17.23
682.048	11.77
682.078	0.77
682.109	20.77
682.139	6.77
682.169	-13.23
682.199	-0.23
682.23	-9.23
682.26	-7.23
682.29	-5.23
682.32	1.77
682.351	-12.23
682.381	17.77
682.411	10.77
682.441	6.77
682.472	-12.23
682.502	-14.23
682.532	-12.23
682.562	1.77
682.592	8.77
682.623	13.77
682.653	-1.23
682.683	2.77
682.713	-2.23
682.743	1.77
682.774	-2.23
682.804	11.77
682.834	20.77
682.864	-13.23
682.894	2.77
682.925	-3.23
682.955	1.77
682.985	-5.23
683.015	14.77
683.045	15.77
683.076	-16.23
683.106	-6.23
683.136	1.77
683.166	5.77
683.196	5.77
683.226	-15.23
683.257	-2.23
683.287	-0.23
683.317	-3.23
683.347	-2.23
683.377	1.77
683.407	-3.23
683.437	10.77
683.468	-1.23
683.498	8.77
683.528	-2.23
683.558	2.77
683.588	-14.23
683.618	-7.23
683.648	-5.23
683.678	7.77
683.708	-3.23
683.739	17.77
683.769	-0.23
683.799	-2.23
683.829	2.77
683.859	0.77
683.889	15.77
683.919	-15.23
683.949	17.77
683.979	9.77
684.009	-0.23
684.039	-8.23
684.07	-16.23
684.1	14.77
684.13	2.77
684.16	-6.23
684.19	-11.23
684.22	-1.23
684.25	1.77
684.28	-17.23
684.31	-2.23
684.34	3.77
684.37	9.77
684.4	-14.23
684.43	-5.23
684.46	-5.23
684.49	-9.23
684.52	2.77
684.55	21.77
684.58	22.77
684.61	10.77
684.64	9.77
684.67	11.77
684.7	-7.23
684.73	8.77
684.76	-4.23
684.79	14.77
684.82	-0.23
684.85	-0.23
684.88	9.77
684.91	-2.23
684.94	14.77
684.97	2.77
685	-4.23
685.03	-6.23
685.06	-7.23
685.09	0.77
685.12	31.77
685.15	7.77
685.18	0.77
685.21	-5.23
685.24	6.77
685.27	22.77
685.3	3.77
685.33	7.77
685.36	-7.23
685.39	5.77
685.42	-14.23
685.45	7.77
685.48	4.77
685.51	-5.23
685.54	15.77
685.569	-4.23
685.599	5.77
685.629	-4.23
685.659	-3.23
685.689	-3.23
685.719	-10.23
685.749	-1.23
685.779	5.77
685.809	11.77
685.839	6.77
685.869	3.77
685.898	9.77
685.928	6.77
685.958	-3.23
685.988	11.77
686.018	-0.23
686.048	8.77
686.078	0.77
686.108	11.77
686.137	5.77
686.167	7.77
686.197	-17.23
686.227	-12.23
686.257	21.77
686.287	21.77
686.317	-2.23
686.346	6.77
686.376	-9.23
686.406	-13.23
686.436	15.77
686.466	-7.23
686.496	1.77
686.525	3.77
686.555	-7.23
686.585	-0.23
686.615	16.77
686.645	6.77
686.675	0.77
686.704	1.77
686.734	-1.23
686.764	-6.23
686.794	9.77
686.824	-13.23
686.853	-2.23
686.883	12.77
686.913	9.77
686.943	-0.23
686.973	-5.23
687.002	-14.23
687.032	15.77
687.062	-4.23
687.092	4.77
687.121	-20.23
687.151	1.77
687.181	2.77
687.211	15.77
687.24	-13.23
687.27	3.77
687.3	4.77
687.33	4.77
687.359	-11.23
687.389	16.77
687.419	12.77
687.449	6.77
687.478	6.77
687.508	-5.23
687.538	-11.23
687.568	-14.23
687.597	1.77
687.627	0.77
687.657	-3.23
687.686	12.77
687.716	24.77
687.746	-5.23
687.776	-14.23
687.805	10.77
687.835	0.77
687.865	16.77
687.894	2.77
687.924	-6.23
687.954	-2.23
687.983	8.77
688.013	2.77
688.043	5.77
688.072	-0.23
688.102	-2.23
688.132	-13.23
688.161	0.77
688.191	-8.23
688.221	10.77
688.25	-17.23
688.28	-2.23
688.31	-2.23
688.339	-13.23
688.369	-18.23
688.399	-14.23
688.428	-6.23
688.458	-8.23
688.488	4.77
688.517	2.77
688.547	5.77
688.576	12.77
688.606	4.77
688.636	-17.23
688.665	-0.23
688.695	0.77
688.725	18.77
688.754	5.77
688.784	-12.23
688.813	-2.23
688.843	-14.23
688.873	-11.23
688.902	-8.23
688.932	-8.23
688.961	6.77
688.991	1.77
689.02	1.77
689.05	-15.23
689.08	14.77
689.109	10.77
689.139	9.77
689.168	-4.23
689.198	-4.23
689.227	4.77
689.257	6.77
689.287	8.77
689.316	-0.23
689.346	-3.23
689.375	-5.23
689.405	2.77
689.434	-4.23
689.464	9.77
689.493	1.77
689.523	6.77
689.552	-11.23
689.582	7.77
689.611	-2.23
689.641	-1.23
689.67	3.77
689.7	1.77
689.73	14.77
689.759	4.77
689.789	11.77
689.818	-4.23
689.848	-17.23
689.877	17.77
689.906	-18.23
689.936	-15.23
689.965	4.77
689.995	-1.23
690.024	0.77
690.054	-4.23
690.083	-0.23
690.113	-9.23
690.142	8.77
690.172	-1.23
690.201	9.77
690.231	8.77
690.26	9.77
690.29	16.77
690.319	17.77
690.348	-10.23
690.378	-9.23
690.407	-12.23
690.437	-4.23
690.466	0.77
690.496	7.77
690.525	-3.23
690.555	-8.23
690.584	-4.23
690.613	10.77
690.643	14.77
690.672	27.77
690.702	3.77
690.731	-3.23
690.76	12.77
690.79	-2.23
690.819	-17.23
690.849	-14.23
690.878	-12.23
690.907	6.77
690.937	-1.23
690.966	5.77
690.996	13.77
691.025	-10.23
691.054	-1.23
691.084	-7.23
691.113	-3.23
691.142	-10.23
691.172	5.77
691.201	24.77
691.23	0.77
691.26	-5.23
691.289	-10.23
691.319	-0.23
691.348	1.77
691.377	4.77
691.407	24.77
691.436	6.77
691.465	10.77
691.495	-16.23
691.524	-18.23
691.553	-5.23
691.583	-13.23
691.612	16.77
691.641	-5.23
691.67	-6.23
691.7	8.77
691.729	9.77
691.758	9.77
691.788	8.77
691.817	5.77
691.846	-4.23
691.876	0.77
691.905	-0.23
691.934	5.77
691.963	10.77
691.993	-4.23
692.022	0.77
692.051	-6.23
692.081	5.77
692.11	19.77
692.139	5.77
692.168	3.77
692.198	19.77
692.227	32.77
692.256	10.77
692.285	3.77
692.315	-0.23
692.344	-1.23
692.373	12.77
692.402	-6.23
692.432	1.77
692.461	1.77
692.49	-0.23
692.519	-4.23
692.548	6.77
692.578	10.77
692.607	-15.23
692.636	-16.23
692.665	-0.23
692.694	-12.23
692.724	3.77
692.753	6.77
692.782	10.77
692.811	-1.23
692.84	-7.23
692.87	2.77
692.899	2.77
692.928	-0.23
692.957	-1.23
692.986	8.77
693.016	3.77
693.045	6.77
693.074	3.77
693.103	-10.23
693.132	-0.23
693.161	1.77
693.191	-0.23
693.22	-8.23
693.249	17.77
693.278	-5.23
693.307	4.77
693.336	-4.23
693.365	-8.23
693.395	6.77
693.424	4.77
693.453	8.77
693.482	-2.23
693.511	-2.23
693.54	12.77
693.569	3.77
693.598	-3.23
693.628	11.77
693.657	26.77
693.686	31.77
693.715	12.77
693.744	9.77
693.773	9.77
693.802	1.77
693.831	8.77
693.86	11.77
693.889	-1.23
693.919	10.77
693.948	-0.23
693.977	0.77
694.006	-6.23
694.035	-11.23
694.064	-18.23
694.093	-5.23
694.122	10.77
694.151	7.77
694.18	11.77
694.209	17.77
694.238	6.77
694.267	18.77
694.296	33.77
694.325	5.77
694.354	6.77
694.383	8.77
694.412	19.77
694.441	-26.23
694.471	-4.23
694.5	-18.23
694.529	-9.23
694.558	17.77
694.587	24.77
694.616	-14.23
694.645	-5.23
694.674	-1.23
694.703	5.77
694.732	-2.23
694.761	6.77
694.79	13.77
694.819	-5.23
694.848	11.77
694.877	9.77
694.906	2.77
694.935	-0.23
694.963	29.77
694.992	9.77
695.021	10.77
695.05	10.77
695.079	-7.23
695.108	-19.23
695.137	12.77
695.166	2.77
695.195	-7.23
695.224	8.77
695.253	9.77
695.282	9.77
695.311	6.77
695.34	-0.23
695.369	2.77
695.398	-0.23
695.427	22.77
695.456	5.77
695.485	13.77
695.513	-7.23
695.542	-16.23
695.571	-19.23
695.6	9.77
695.629	9.77
695.658	18.77
695.687	0.77
695.716	-5.23
695.745	22.77
695.774	-14.23
695.802	-1.23
695.831	7.77
695.86	5.77
695.889	6.77
695.918	-0.23
695.947	2.77
695.976	7.77
696.005	-1.23
696.033	-1.23
696.062	9.77
696.091	-8.23
696.12	5.77
696.149	20.77
696.178	5.77
696.207	2.77
696.235	2.77
696.264	13.77
696.293	7.77
696.322	16.77
696.351	3.77
696.38	-4.23
696.408	4.77
696.437	6.77
696.466	12.77
696.495	7.77
696.524	2.77
696.553	17.77
696.581	2.77
696.61	0.77
696.639	-4.23
696.668	-3.23
696.697	-8.23
696.725	12.77
696.754	7.77
696.783	-8.23
696.812	2.77
696.84	7.77
696.869	2.77
696.898	3.77
696.927	-7.23
696.956	13.77
696.984	-12.23
697.013	-0.23
697.042	-4.23
697.071	16.77
697.099	3.77
697.128	-3.23
697.157	6.77
697.186	14.77
697.214	-2.23
697.243	-10.23
697.272	-18.23
697.301	3.77
697.329	-1.23
697.358	2.77
697.387	20.77
697.415	9.77
697.444	-0.23
697.473	-22.23
697.502	-2.23
697.53	11.77
697.559	0.77
697.588	4.77
697.616	-11.23
697.645	10.77
697.674	18.77
697.703	-2.23
697.731	14.77
697.76	13.77
697.789	-5.23
697.817	-11.23
697.846	7.77
697.875	4.77
697.903	24.77
697.932	17.77
697.961	19.77
697.989	16.77
698.018	18.77
698.047	0.77
698.075	10.77
698.104	-7.23
698.133	3.77
698.161	-10.23
698.19	1.77
698.218	-4.23
698.247	19.77
698.276	10.77
698.304	1.77
698.333	5.77
698.362	4.77
698.39	2.77
698.419	0.77
698.447	-1.23
698.476	-2.23
698.505	-0.23
698.533	-10.23
698.562	10.77
698.591	9.77
698.619	-11.23
698.648	1.77
698.676	6.77
698.705	-9.23
698.733	-9.23
698.762	2.77
698.791	1.77
698.819	-23.23
698.848	4.77
698.876	9.77
698.905	-11.23
698.933	4.77
698.962	2.77
698.991	14.77
699.019	7.77
699.048	2.77
699.076	5.77
699.105	-6.23
699.133	0.77
699.162	-1.23
699.19	6.77
699.219	15.77
699.248	-11.23
699.276	-7.23
699.305	-2.23
699.333	-0.23
699.362	5.77
699.39	-1.23
699.419	-9.23
699.447	25.77
699.476	9.77
699.504	-2.23
699.533	-5.23
699.561	-12.23
699.59	-1.23
699.618	1.77
699.647	2.77
699.675	5.77
699.704	3.77
699.732	-2.23
699.761	-0.23
699.789	4.77
699.818	-3.23
699.846	-14.23
699.874	-6.23
699.903	0.77
699.931	-6.23
699.96	12.77
699.988	-5.23
700.017	-13.23
700.045	8.77
700.074	-8.23
700.102	-2.23
700.13	-8.23
700.159	6.77
700.187	-3.23
700.216	-8.23
700.244	-6.23
700.273	-4.23
700.301	6.77
700.329	17.77
700.358	10.77
700.386	5.77
700.415	23.77
700.443	16.77
700.472	-11.23
700.5	0.77
700.528	14.77
700.557	8.77
700.585	-2.23
700.614	2.77
700.642	2.77
700.67	10.77
700.699	10.77
700.727	2.77
700.755	-5.23
700.784	-3.23
700.812	-15.23
700.841	10.77
700.869	-17.23
700.897	-14.23
700.926	1.77
700.954	3.77
700.982	10.77
701.011	-0.23
701.039	3.77
701.067	11.77
701.096	1.77
701.124	-15.23
701.152	4.77
701.181	-4.23
701.209	-16.23
701.237	2.77
701.266	-12.23
701.294	-14.23
701.322	-3.23
701.351	-2.23
701.379	-2.23
701.407	-6.23
701.435	-3.23
701.464	14.77
701.492	11.77
701.52	-12.23
701.549	-10.23
701.577	-10.23
701.605	1.77
701.634	8.77
701.662	16.77
701.69	-25.23
701.718	-14.23
701.747	-11.23
701.775	11.77
701.803	-9.23
701.831	1.77
701.86	-3.23
701.888	-11.23
701.916	7.77
701.944	-0.23
701.973	-10.23
702.001	-7.23
702.029	-22.23
702.057	-7.23
702.086	-6.23
702.114	-1.23
702.142	-2.23
702.17	-13.23
702.199	-6.23
702.227	-0.23
702.255	-9.23
702.283	10.77
702.311	1.77
702.34	1.77
702.368	-4.23
702.396	-6.23
702.424	13.77
702.452	-5.23
702.481	4.77
702.509	1.77
702.537	18.77
702.565	-6.23
702.593	-18.23
702.621	-3.23
702.65	3.77
702.678	-8.23
702.706	-1.23
702.734	-4.23
702.762	-2.23
702.79	-12.23
702.819	9.77
702.847	3.77
702.875	7.77
702.903	6.77
702.931	-1.23
702.959	-10.23
702.988	10.77
703.016	-11.23
703.044	-4.23
703.072	-8.23
703.1	-12.23
703.128	-14.23
703.156	6.77
703.184	-6.23
703.212	4.77
703.241	-1.23
703.269	-9.23
703.297	10.77
703.325	7.77
703.353	-2.23
703.381	-17.23
703.409	-5.23
703.437	-15.23
703.465	-0.23
703.493	-12.23
703.522	0.77
703.55	11.77
703.578	-0.23
703.606	1.77
703.634	-3.23
703.662	-17.23
703.69	-9.23
703.718	5.77
703.746	3.77
703.774	1.77
703.802	20.77
703.83	-4.23
703.858	-6.23
703.886	-5.23
703.914	-11.23
703.942	-7.23
703.97	-12.23
703.998	0.77
704.027	10.77
704.055	13.77
704.083	1.77
704.111	4.77
704.139	-10.23
704.167	-6.23
704.195	-5.23
704.223	9.77
704.251	0.77
704.279	-7.23
704.307	-0.23
704.335	1.77
704.363	-3.23
704.391	-2.23
704.419	-7.23
704.447	-1.23
704.475	-4.23
704.503	-2.23
704.531	3.77
704.558	2.77
704.586	-13.23
704.614	-0.23
704.642	11.77
704.67	-5.23
704.698	2.77
704.726	6.77
704.754	-3.23
704.782	11.77
704.81	-7.23
704.838	33.77
704.866	9.77
704.894	-6.23
704.922	-12.23
704.95	-1.23
704.978	-1.23
705.006	2.77
705.034	24.77
705.061	-6.23
705.089	13.77
705.117	-6.23
705.145	-2.23
705.173	-17.23
705.201	-11.23
705.229	-3.23
705.257	-16.23
705.285	9.77
705.313	-3.23
705.34	-1.23
705.368	-2.23
705.396	-5.23
705.424	-4.23
705.452	2.77
705.48	-9.23
705.508	-10.23
705.536	-9.23
705.563	-5.23
705.591	9.77
705.619	0.77
705.647	-1.23
705.675	3.77
705.703	6.77
705.731	1.77
705.758	12.77
705.786	-10.23
705.814	9.77
705.842	13.77
705.87	10.77
705.898	9.77
705.925	-2.23
705.953	-5.23
705.981	-10.23
706.009	-2.23
706.037	-6.23
706.065	-12.23
706.092	-13.23
706.12	-12.23
706.148	-5.23
706.176	3.77
706.204	7.77
706.231	5.77
706.259	-0.23
706.287	-5.23
706.315	-1.23
706.342	-2.23
706.37	18.77
706.398	-0.23
706.426	-4.23
706.454	8.77
706.481	14.77
706.509	0.77
706.537	-22.23
706.565	-7.23
706.592	7.77
706.62	-6.23
706.648	10.77
706.676	-13.23
706.703	-4.23
706.731	1.77
706.759	2.77
706.787	-12.23
706.814	-14.23
706.842	3.77
706.87	-6.23
706.897	6.77
706.925	-5.23
706.953	4.77
706.981	8.77
707.008	13.77
707.036	1.77
707.064	-4.23
707.091	-15.23
707.119	-2.23
707.147	-2.23
707.174	1.77
707.202	15.77
707.23	-15.23
707.258	0.77
707.285	-14.23
707.313	-10.23
707.341	-5.23
707.368	2.77
707.396	-14.23
707.424	-4.23
707.451	-2.23
707.479	-1.23
707.507	1.77
707.534	-6.23
707.562	-0.23
707.59	-6.23
707.617	-10.23
707.645	-19.23
707.672	5.77
707.7	-0.23
707.728	7.77
707.755	11.77
707.783	5.77
707.811	7.77
707.838	-5.23
707.866	-0.23
707.893	1.77
707.921	-0.23
707.949	-15.23
707.976	-10.23
708.004	-1.23
708.031	-2.23
708.059	-0.23
708.087	-1.23
708.114	-10.23
708.142	4.77
708.169	-17.23
708.197	-8.23
708.225	1.77
708.252	-8.23
708.28	5.77
708.307	-1.23
708.335	5.77
708.362	-5.23
708.39	-13.23
708.418	-8.23
708.445	-17.23
708.473	-17.23
708.5	3.77
708.528	14.77
708.555	-8.23
708.583	-10.23
708.61	-4.23
708.638	-0.23
708.665	-5.23
708.693	6.77
708.72	-1.23
708.748	-19.23
708.776	1.77
708.803	40.77
708.831	17.77
708.858	18.77
708.886	-9.23
708.913	-4.23
708.941	-16.23
708.968	11.77
708.996	-1.23
709.023	24.77
709.051	-3.23
709.078	3.77
709.105	-5.23
709.133	-8.23
709.16	-10.23
709.188	3.77
709.215	15.77
709.243	20.77
709.27	-25.23
709.298	5.77
709.325	-4.23
709.353	-21.23
709.38	4.77
709.408	7.77
709.435	5.77
709.462	8.77
709.49	18.77
709.517	1.77
709.545	-1.23
709.572	-1.23
709.6	10.77
709.627	-3.23
709.655	4.77
709.682	-0.23
709.709	13.77
709.737	-1.23
709.764	-3.23
709.792	-9.23
709.819	0.77
709.846	1.77
709.874	-11.23
709.901	1.77
709.929	19.77
709.956	5.77
709.983	-14.23
710.011	-13.23
710.038	-2.23
710.066	-5.23
710.093	14.77
710.12	9.77
710.148	10.77
710.175	-20.23
710.202	-7.23
710.23	6.77
710.257	1.77
710.284	5.77
710.312	8.77
710.339	-2.23
710.366	-0.23
710.394	-2.23
710.421	-5.23
710.448	-10.23
710.476	-7.23
710.503	6.77
710.53	16.77
710.558	12.77
710.585	1.77
710.612	-7.23
710.64	2.77
710.667	2.77
710.694	-4.23
710.722	-2.23
710.749	-6.23
710.776	0.77
710.804	18.77
710.831	-0.23
710.858	-3.23
710.885	-4.23
710.913	4.77
710.94	23.77
710.967	1.77
710.995	6.77
711.022	5.77
711.049	0.77
711.076	-3.23
711.104	12.77
711.131	2.77
711.158	-4.23
711.185	-1.23
711.213	-4.23
711.24	-0.23
711.267	6.77
711.294	9.77
711.322	4.77
711.349	-13.23
711.376	-13.23
711.403	5.77
711.431	-8.23
711.458	-1.23
711.485	-4.23
711.512	-2.23
711.54	1.77
711.567	-2.23
711.594	-5.23
711.621	-2.23
711.648	-13.23
711.676	-7.23
711.703	-3.23
711.73	-15.23
711.757	8.77
711.784	2.77
711.812	-0.23
711.839	2.77
711.866	4.77
711.893	-11.23
711.92	2.77
711.947	18.77
711.975	7.77
712.002	-7.23
712.029	14.77
712.056	-3.23
712.083	-5.23
712.11	-8.23
712.138	16.77
712.165	9.77
712.192	12.77
712.219	10.77
712.246	-4.23
712.273	-2.23
712.3	-5.23
712.328	-4.23
712.355	-0.23
712.382	-14.23
712.409	-13.23
712.436	-12.23
712.463	11.77
712.49	15.77
712.517	-0.23
712.544	-1.23
712.572	9.77
712.599	-4.23
712.626	-4.23
712.653	-1.23
712.68	-1.23
712.707	14.77
712.734	-7.23
712.761	-8.23
712.788	-22.23
712.815	-14.23
712.842	14.77
712.87	4.77
712.897	-13.23
712.924	-12.23
712.951	4.77
712.978	23.77
713.005	15.77
713.032	4.77
713.059	-18.23
713.086	-1.23
713.113	-15.23
713.14	-3.23
713.167	21.77
713.194	2.77
713.221	-6.23
713.248	-8.23
713.275	2.77
713.302	-11.23
713.329	21.77
713.356	-0.23
713.383	2.77
713.41	9.77
713.437	-4.23
713.464	-0.23
713.491	10.77
713.518	9.77
713.545	-1.23
713.572	-3.23
713.599	8.77
713.626	-0.23
713.653	-2.23
713.68	-7.23
713.707	5.77
713.734	1.77
713.761	0.77
713.788	-6.23
713.815	6.77
713.842	-0.23
713.869	0.77
713.896	9.77
713.923	2.77
713.95	8.77
713.977	14.77
714.004	6.77
714.031	-6.23
714.058	-7.23
714.085	-0.23
714.112	2.77
714.139	-1.23
714.165	-13.23
714.192	-10.23
714.219	4.77
714.246	-0.23
714.273	3.77
714.3	-0.23
714.327	1.77
714.354	18.77
714.381	-8.23
714.408	8.77
714.435	-7.23
714.461	-7.23
714.488	11.77
714.515	-10.23
714.542	3.77
714.569	-1.23
714.596	-2.23
714.623	-9.23
714.65	-18.23
714.677	1.77
714.703	-1.23
714.73	-4.23
714.757	-14.23
714.784	-23.23
714.811	-18.23
714.838	3.77
714.865	5.77
714.891	9.77
714.918	15.77
714.945	-13.23
714.972	-1.23
714.999	18.77
715.026	-2.23
715.052	11.77
715.079	-2.23
715.106	5.77
715.133	1.77
715.16	-4.23
715.187	4.77
715.213	-1.23
715.24	-14.23
715.267	-9.23
715.294	-1.23
715.321	1.77
715.347	9.77
715.374	-6.23
715.401	-5.23
715.428	-12.23
715.455	6.77
715.481	-1.23
715.508	18.77
715.535	4.77
715.562	15.77
715.588	-0.23
715.615	-9.23
715.642	-7.23
715.669	-1.23
715.695	-3.23
715.722	-13.23
715.749	-9.23
715.776	14.77
715.802	0.77
715.829	-2.23
715.856	-9.23
715.883	5.77
715.909	4.77
715.936	-0.23
715.963	7.77
715.99	-12.23
716.016	3.77
716.043	-1.23
716.07	3.77
716.096	-9.23
716.123	-7.23
716.15	-5.23
716.177	-0.23
716.203	14.77
716.23	10.77
716.257	7.77
716.283	19.77
716.31	2.77
716.337	12.77
716.363	-1.23
716.39	1.77
716.417	8.77
716.443	6.77
716.47	12.77
716.497	16.77
716.523	5.77
716.55	4.77
716.577	-0.23
716.603	5.77
716.63	-0.23
716.657	6.77
716.683	-15.23
716.71	-0.23
716.737	-5.23
716.763	3.77
716.79	0.77
716.817	0.77
716.843	3.77
716.87	2.77
716.897	-11.23
716.923	11.77
716.95	-0.23
716.976	-3.23
717.003	9.77
717.03	7.77
717.056	7.77
717.083	5.77
717.109	10.77
717.136	19.77
717.163	8.77
717.189	0.77
717.216	4.77
717.242	0.77
717.269	-0.23
717.296	20.77
717.322	-1.23
717.349	-2.23
717.375	5.77
717.402	-1.23
717.428	10.77
717.455	9.77
717.481	-4.23
717.508	-2.23
717.535	-1.23
717.561	6.77
717.588	-5.23
717.614	5.77
717.641	5.77
717.667	3.77
717.694	-0.23
717.72	-1.23
717.747	-4.23
717.773	-11.23
717.8	-6.23
717.826	3.77
717.853	4.77
717.88	9.77
717.906	5.77
717.933	-9.23
717.959	12.77
717.986	-2.23
718.012	-2.23
718.039	6.77
718.065	-4.23
718.092	17.77
718.118	-5.23
718.144	-10.23
718.171	14.77
718.197	16.77
718.224	-6.23
718.25	4.77
718.277	5.77
718.303	5.77
718.33	2.77
718.356	-14.23
718.383	-7.23
718.409	-5.23
718.436	-11.23
718.462	-3.23
718.489	-8.23
718.515	26.77
718.541	7.77
718.568	6.77
718.594	0.77
718.621	-0.23
718.647	-7.23
718.674	16.77
718.7	21.77
718.726	-0.23
718.753	14.77
718.779	-0.23
718.806	-0.23
718.832	-12.23
718.858	-1.23
718.885	-3.23
718.911	-6.23
718.938	15.77
718.964	-16.23
718.99	-2.23
719.017	5.77
719.043	3.77
719.07	9.77
719.096	-6.23
719.122	18.77
719.149	-6.23
719.175	7.77
719.201	3.77
719.228	-5.23
719.254	-2.23
719.281	-17.23
719.307	0.77
719.333	-12.23
719.36	23.77
719.386	14.77
719.412	-4.23
719.439	-20.23
719.465	-9.23
719.491	-9.23
719.518	8.77
719.544	-1.23
719.57	-3.23
719.597	-2.23
719.623	1.77
719.649	5.77
719.675	-9.23
719.702	-8.23
719.728	9.77
719.754	-5.23
719.781	-6.23
719.807	-6.23
719.833	-5.23
719.86	-0.23
719.886	-0.23
719.912	-2.23
719.938	2.77
719.965	-11.23
719.991	21.77
720.017	5.77
720.044	-11.23
720.07	-8.23
720.096	3.77
720.122	2.77
720.149	19.77
720.175	24.77
720.201	0.77
720.227	-6.23
720.254	-2.23
720.28	0.77
720.306	-4.23
720.332	15.77
720.359	12.77
720.385	-4.23
720.411	-2.23
720.437	6.77
720.463	-9.23
720.49	25.77
720.516	-8.23
720.542	0.77
720.568	3.77
720.595	4.77
720.621	-5.23
720.647	2.77
720.673	17.77
720.699	-10.23
720.725	7.77
720.752	4.77
720.778	12.77
720.804	2.77
720.83	1.77
720.856	-5.23
720.883	-16.23
720.909	5.77
720.935	-7.23
720.961	2.77
720.987	1.77
721.013	9.77
721.04	3.77
721.066	-5.23
721.092	-6.23
721.118	10.77
721.144	2.77
721.17	-22.23
721.196	-7.23
721.223	-8.23
721.249	-10.23
721.275	17.77
721.301	-1.23
721.327	3.77
721.353	-9.23
721.379	-13.23
721.405	7.77
721.432	7.77
721.458	0.77
721.484	-6.23
721.51	-11.23
721.536	-16.23
721.562	-2.23
721.588	6.77
721.614	-1.23
721.64	-6.23
721.666	3.77
721.693	-5.23
721.719	-22.23
721.745	-7.23
721.771	9.77
721.797	-0.23
721.823	1.77
721.849	9.77
721.875	0.77
721.901	-10.23
721.927	-1.23
721.953	3.77
721.979	5.77
722.005	7.77
722.031	1.77
722.057	22.77
722.083	-2.23
722.109	-5.23
722.135	10.77
722.161	16.77
722.187	-18.23
722.214	-14.23
722.24	-2.23
722.266	-8.23
722.292	8.77
722.318	16.77
722.344	7.77
722.37	11.77
722.396	15.77
722.422	-6.23
722.448	6.77
722.474	-17.23
722.5	-10.23
722.526	5.77
722.552	1.77
722.578	2.77
722.603	3.77
722.629	6.77
722.655	-6.23
722.681	-16.23
722.707	3.77
722.733	-10.23
722.759	-6.23
722.785	0.77
722.811	3.77
722.837	5.77
722.863	3.77
722.889	2.77
722.915	-9.23
722.941	-4.23
722.967	0.77
722.993	5.77
723.019	-4.23
723.045	7.77
723.071	8.77
723.097	2.77
723.122	1.77
723.148	-9.23
723.174	-8.23
723.2	7.77
723.226	-11.23
723.252	-1.23
723.278	-8.23
723.304	3.77
723.33	-14.23
723.356	6.77
723.381	-20.23
723.407	-12.23
723.433	4.77
723.459	-13.23
723.485	-2.23
723.511	15.77
723.537	-11.23
723.563	-10.23
723.588	0.77
723.614	8.77
723.64	5.77
723.666	0.77
723.692	-0.23
723.718	12.77
723.744	-1.23
723.769	-4.23
723.795	-10.23
723.821	-17.23
723.847	-4.23
723.873	4.77
723.899	-9.23
723.924	-8.23
723.95	-1.23
723.976	-6.23
724.002	-2.23
724.028	-14.23
724.053	6.77
724.079	1.77
724.105	-4.23
724.131	1.77
724.157	12.77
724.182	10.77
724.208	-1.23
724.234	7.77
724.26	1.77
724.286	-11.23
724.311	-6.23
724.337	-2.23
724.363	-1.23
724.389	8.77
724.415	-9.23
724.44	14.77
724.466	4.77
724.492	-2.23
724.518	1.77
724.543	-17.23
724.569	-9.23
724.595	17.77
724.621	-5.23
724.646	-5.23
724.672	-20.23
724.698	5.77
724.723	-5.23
724.749	9.77
724.775	13.77
724.801	-2.23
724.826	-13.23
724.852	-22.23
724.878	-6.23
724.904	-14.23
724.929	-1.23
724.955	-4.23
724.981	8.77
725.006	5.77
725.032	3.77
725.058	18.77
725.083	2.77
725.109	1.77
725.135	-4.23
725.161	9.77
725.186	-5.23
725.212	-4.23
725.238	6.77
725.263	-4.23
725.289	-17.23
725.315	-6.23
725.34	-14.23
725.366	0.77
725.392	-21.23
725.417	-8.23
725.443	-5.23
725.468	6.77
725.494	13.77
725.52	9.77
725.545	7.77
725.571	-6.23
725.597	8.77
725.622	-0.23
725.648	5.77
725.674	3.77
725.699	1.77
725.725	2.77
725.75	19.77
725.776	2.77
725.802	4.77
725.827	10.77
725.853	-8.23
725.878	-1.23
725.904	2.77
725.93	2.77
725.955	-14.23
725.981	-8.23
726.006	-5.23
726.032	8.77
726.057	4.77
726.083	-6.23
726.109	3.77
726.134	3.77
726.16	-0.23
726.185	1.77
726.211	9.77
726.236	5.77
726.262	-12.23
726.288	-2.23
726.313	9.77
726.339	-6.23
726.364	1.77
726.39	7.77
726.415	-3.23
726.441	9.77
726.466	-6.23
726.492	0.77
726.517	-1.23
726.543	-0.23
726.568	-5.23
726.594	-2.23
726.619	13.77
726.645	2.77
726.67	-5.23
726.696	3.77
726.721	2.77
726.747	-14.23
726.772	11.77
726.798	6.77
726.823	11.77
726.849	-1.23
726.874	1.77
726.9	18.77
726.925	15.77
726.951	6.77
726.976	8.77
727.002	-4.23
727.027	-10.23
727.053	16.77
727.078	1.77
727.104	0.77
727.129	-19.23
727.155	-11.23
727.18	15.77
727.205	-1.23
727.231	-8.23
727.256	-5.23
727.282	6.77
727.307	0.77
727.333	-1.23
727.358	-13.23
727.383	-14.23
727.409	-1.23
727.434	-2.23
727.46	-7.23
727.485	-9.23
727.511	13.77
727.536	-7.23
727.561	-14.23
727.587	-5.23
727.612	-9.23
727.637	-0.23
727.663	-2.23
727.688	10.77
727.714	-2.23
727.739	-15.23
727.764	-13.23
727.79	-2.23
727.815	11.77
727.841	1.77
727.866	8.77
727.891	5.77
727.917	-12.23
727.942	-18.23
727.967	1.77
727.993	-15.23
728.018	-0.23
728.043	-4.23
728.069	2.77
728.094	17.77
728.119	3.77
728.145	-2.23
728.17	-10.23
728.195	13.77
728.221	5.77
728.246	-5.23
728.271	-5.23
728.297	-11.23
728.322	-0.23
728.347	-6.23
728.373	-7.23
728.398	-18.23
728.423	-14.23
728.448	-7.23
728.474	2.77
728.499	17.77
728.524	-7.23
728.55	-4.23
728.575	3.77
728.6	16.77
728.625	-4.23
728.651	-6.23
728.676	-6.23
728.701	-8.23
728.727	-10.23
728.752	1.77
728.777	-8.23
728.802	-0.23
728.828	-6.23
728.853	3.77
728.878	12.77
728.903	-6.23
728.929	-5.23
728.954	-20.23
728.979	-2.23
729.004	4.77
729.03	-12.23
729.055	3.77
729.08	-6.23
729.105	-14.23
729.13	25.77
729.156	3.77
729.181	2.77
729.206	-13.23
729.231	-5.23
729.256	2.77
729.282	3.77
729.307	-3.23
729.332	6.77
729.357	-14.23
729.382	-6.23
729.408	-5.23
729.433	7.77
729.458	3.77
729.483	3.77
729.508	29.77
729.533	13.77
729.559	9.77
729.584	-5.23
729.609	7.77
729.634	18.77
729.659	-9.23
729.684	2.77
729.71	2.77
729.735	10.77
729.76	5.77
729.785	0.77
729.81	2.77
729.835	-10.23
729.86	-14.23
729.886	-5.23
729.911	2.77
729.936	-0.23
729.961	12.77
729.986	-8.23
730.011	-2.23
730.036	8.77
730.061	18.77
730.086	14.77
730.112	-0.23
730.137	18.77
730.162	-4.23
730.187	-11.23
730.212	5.77
730.237	-9.23
730.262	-7.23
730.287	-8.23
730.312	7.77
730.337	-8.23
730.362	13.77
730.387	4.77
730.413	-17.23
730.438	-5.23
730.463	7.77
730.488	-8.23
730.513	-12.23
730.538	-15.23
730.563	29.77
730.588	9.77
730.613	8.77
730.638	-0.23
730.663	-16.23
730.688	8.77
730.713	-4.23
730.738	5.77
730.763	-13.23
730.788	-24.23
730.813	-1.23
730.838	-10.23
730.863	-12.23
730.888	-4.23
730.913	-3.23
730.938	-9.23
730.963	-8.23
730.988	7.77
731.013	13.77
731.038	-6.23
731.063	6.77
731.088	-0.23
731.113	-11.23
731.138	7.77
731.163	7.77
731.188	-4.23
731.213	-0.23
731.238	3.77
731.263	-2.23
731.288	-23.23
731.313	4.77
731.338	-10.23
731.363	-5.23
731.388	-10.23
731.413	0.77
731.438	11.77
731.463	-4.23
731.487	3.77
731.512	-1.23
731.537	-0.23
731.562	-9.23
731.587	7.77
731.612	-1.23
731.637	-5.23
731.662	-12.23
731.687	-7.23
731.712	-25.23
731.737	6.77
731.762	5.77
731.786	-6.23
731.811	-11.23
731.836	2.77
731.861	16.77
731.886	-7.23
731.911	2.77
731.936	10.77
731.961	0.77
731.986	-1.23
732.01	6.77
732.035	1.77
732.06	7.77
732.085	-2.23
732.11	1.77
732.135	-10.23
732.16	6.77
732.184	-21.23
732.209	-6.23
732.234	4.77
732.259	0.77
732.284	5.77
732.309	-3.23
732.334	0.77
732.358	-6.23
732.383	-20.23
732.408	1.77
732.433	2.77
732.458	2.77
732.482	-4.23
732.507	4.77
732.532	-2.23
732.557	12.77
732.582	0.77
732.607	-11.23
732.631	-17.23
732.656	-23.23
732.681	-7.23
732.706	3.77
732.73	-6.23
732.755	-12.23
732.78	-2.23
732.805	-0.23
732.83	-3.23
732.854	-1.23
732.879	-8.23
732.904	-8.23
732.929	-4.23
732.953	10.77
732.978	-11.23
733.003	-4.23
733.028	-11.23
733.052	-11.23
733.077	8.77
733.102	-4.23
733.127	-9.23
733.151	-2.23
733.176	8.77
733.201	9.77
733.226	-2.23
733.25	0.77
733.275	1.77
733.3	-4.23
733.324	20.77
733.349	6.77
733.374	-2.23
733.399	-0.23
733.423	-1.23
733.448	1.77
733.473	1.77
733.497	5.77
733.522	-1.23
733.547	9.77
733.571	10.77
733.596	-7.23
733.621	-5.23
733.646	-2.23
733.67	-4.23
733.695	1.77
733.72	1.77
733.744	-1.23
733.769	-9.23
733.794	10.77
733.818	-0.23
733.843	-5.23
733.867	-0.23
733.892	-12.23
733.917	2.77
733.941	-5.23
733.966	9.77
733.991	-8.23
734.015	6.77
734.04	-8.23
734.065	5.77
734.089	21.77
734.114	8.77
734.138	1.77
734.163	-7.23
734.188	5.77
734.212	7.77
734.237	-8.23
734.261	13.77
734.286	-0.23
734.311	-7.23
734.335	9.77
734.36	-15.23
734.384	-1.23
734.409	6.77
734.434	-20.23
734.458	-2.23
734.483	-10.23
734.507	-14.23
734.532	-3.23
734.556	3.77
734.581	9.77
734.606	3.77
734.63	-0.23
734.655	7.77
734.679	-1.23
734.704	2.77
734.728	2.77
734.753	-6.23
734.777	-5.23
734.802	-13.23
734.826	8.77
734.851	5.77
734.876	23.77
734.9	2.77
734.925	9.77
734.949	4.77
734.974	2.77
734.998	6.77
735.023	-21.23
735.047	-19.23
735.072	10.77
735.096	7.77
735.121	0.77
735.145	-9.23
735.17	-11.23
735.194	11.77
735.219	-15.23
735.243	3.77
735.268	8.77
735.292	9.77
735.317	10.77
735.341	11.77
735.365	-9.23
735.39	-1.23
735.414	4.77
735.439	9.77
735.463	14.77
735.488	2.77
735.512	11.77
735.537	-0.23
735.561	-7.23
735.586	-1.23
735.61	0.77
735.634	-6.23
735.659	-0.23
735.683	19.77
735.708	11.77
735.732	5.77
735.757	-4.23
735.781	4.77
735.805	3.77
735.83	-7.23
735.854	-8.23
735.879	-0.23
735.903	-3.23
735.927	3.77
735.952	-0.23
735.976	-2.23
736.001	0.77
736.025	0.77
736.049	0.77
736.074	-7.23
736.098	-8.23
736.123	-8.23
736.147	9.77
736.171	12.77
736.196	21.77
736.22	-3.23
736.244	1.77
736.269	-4.23
736.293	-8.23
736.317	4.77
736.342	2.77
736.366	22.77
736.39	3.77
736.415	11.77
736.439	-2.23
736.463	4.77
736.488	7.77
736.512	6.77
736.536	3.77
736.561	30.77
736.585	-6.23
736.609	-6.23
736.634	-15.23
736.658	-6.23
736.682	-10.23
736.707	-11.23
736.731	1.77
736.755	-1.23
736.78	14.77
736.804	10.77
736.828	19.77
736.852	13.77
736.877	-5.23
736.901	7.77
736.925	9.77
736.949	9.77
736.974	-5.23
736.998	-22.23
737.022	2.77
737.047	-1.23
737.071	12.77
737.095	8.77
737.119	5.77
737.144	11.77
737.168	9.77
737.192	-12.23
737.216	-1.23
737.241	-1.23
737.265	6.77
737.289	-4.23
737.313	-6.23
737.337	14.77
737.362	-1.23
737.386	-2.23
737.41	1.77
737.434	5.77
737.459	7.77
737.483	9.77
737.507	26.77
737.531	17.77
737.555	-2.23
737.58	-6.23
737.604	3.77
737.628	-15.23
737.652	-10.23
737.676	-11.23
737.701	14.77
737.725	-8.23
737.749	9.77
737.773	-5.23
737.797	-2.23
737.821	-3.23
737.846	7.77
737.87	27.77
737.894	-1.23
737.918	-3.23
737.942	-16.23
737.966	8.77
737.99	10.77
738.015	-1.23
738.039	12.77
738.063	1.77
738.087	11.77
738.111	9.77
738.135	29.77
738.159	2.77
738.184	6.77
738.208	6.77
738.232	-5.23
738.256	5.77
738.28	0.77
738.304	-1.23
738.328	0.77
738.352	9.77
738.376	9.77
738.4	13.77
738.425	12.77
738.449	-4.23
738.473	16.77
738.497	2.77
738.521	9.77
738.545	-2.23
738.569	10.77
738.593	21.77
738.617	1.77
738.641	1.77
738.665	-0.23
738.689	9.77
738.713	-4.23
738.737	1.77
738.762	26.77
738.786	10.77
738.81	-16.23
738.834	-0.23
738.858	-13.23
738.882	21.77
738.906	-3.23
738.93	5.77
738.954	-4.23
738.978	-2.23
739.002	-7.23
739.026	5.77
739.05	1.77
739.074	-8.23
739.098	19.77
739.122	7.77
739.146	-9.23
739.17	9.77
739.194	5.77
739.218	-24.23
739.242	-6.23
739.266	-11.23
739.29	1.77
739.314	11.77
739.338	-7.23
739.362	2.77
739.386	7.77
739.41	3.77
739.434	-12.23
739.458	4.77
739.482	4.77
739.506	17.77
739.53	-2.23
739.554	5.77
739.577	-4.23
739.601	-4.23
739.625	-17.23
739.649	-0.23
739.673	-7.23
739.697	14.77
739.721	5.77
739.745	24.77
739.769	8.77
739.793	17.77
739.817	3.77
739.841	6.77
739.865	-4.23
739.889	-16.23
739.912	30.77
739.936	1.77
739.96	-0.23
739.984	17.77
740.008	5.77
740.032	-2.23
740.056	-0.23
740.08	19.77
740.104	-5.23
740.127	-1.23
740.151	-1.23
740.175	20.77
740.199	7.77
740.223	38.77
740.247	17.77
740.271	5.77
740.295	-1.23
740.318	-21.23
740.342	-11.23
740.366	-0.23
740.39	14.77
740.414	5.77
740.438	7.77
740.461	7.77
740.485	-6.23
740.509	-15.23
740.533	-10.23
740.557	-4.23
740.581	-2.23
740.604	-15.23
740.628	5.77
740.652	15.77
740.676	5.77
740.7	-0.23
740.723	-1.23
740.747	-10.23
740.771	-1.23
740.795	-14.23
740.819	4.77
740.842	16.77
740.866	5.77
740.89	-0.23
740.914	-11.23
740.938	0.77
740.961	6.77
740.985	6.77
741.009	-7.23
741.033	-0.23
741.056	4.77
741.08	2.77
741.104	-1.23
741.128	-1.23
741.151	3.77
741.175	9.77
741.199	-13.23
741.223	0.77
741.246	4.77
741.27	6.77
741.294	-0.23
741.318	-12.23
741.341	0.77
741.365	-2.23
741.389	8.77
741.413	8.77
741.436	-0.23
741.46	1.77
741.484	2.77
741.507	-1.23
741.531	19.77
741.555	4.77
741.579	7.77
741.602	9.77
741.626	9.77
741.65	-8.23
741.673	13.77
741.697	23.77
741.721	-1.23
741.744	-17.23
741.768	-2.23
741.792	-5.23
741.815	-5.23
741.839	5.77
741.863	13.77
741.886	13.77
741.91	19.77
741.934	4.77
741.957	-4.23
741.981	9.77
742.005	3.77
742.028	-34.23
742.052	-9.23
742.075	14.77
742.099	10.77
742.123	-2.23
742.146	-4.23
742.17	-4.23
742.194	-13.23
742.217	-12.23
742.241	-3.23
742.264	-10.23
742.288	10.77
742.312	16.77
742.335	-6.23
742.359	-3.23
742.382	15.77
742.406	6.77
742.43	2.77
742.453	8.77
742.477	-3.23
742.5	11.77
742.524	-1.23
742.548	-4.23
742.571	3.77
742.595	0.77
742.618	6.77
742.642	-14.23
742.665	-4.23
742.689	-8.23
742.712	6.77
742.736	-1.23
742.76	1.77
742.783	-2.23
742.807	0.77
742.83	1.77
742.854	-20.23
742.877	6.77
742.901	-3.23
742.924	-16.23
742.948	-2.23
742.971	5.77
742.995	-4.23
743.018	-19.23
743.042	-23.23
743.065	-10.23
743.089	-13.23
743.112	12.77
743.136	0.77
743.159	4.77
743.183	11.77
743.206	0.77
743.23	-4.23
743.253	-1.23
743.277	12.77
743.3	-5.23
743.324	-10.23
743.347	-14.23
743.371	4.77
743.394	0.77
743.418	4.77
743.441	7.77
743.465	15.77
743.488	2.77
743.512	-4.23
743.535	5.77
743.558	1.77
743.582	-18.23
743.605	-0.23
743.629	13.77
743.652	9.77
743.676	-4.23
743.699	-3.23
743.723	5.77
743.746	21.77
743.769	-4.23
743.793	6.77
743.816	1.77
743.84	18.77
743.863	8.77
743.886	6.77
743.91	12.77
743.933	4.77
743.957	14.77
743.98	-16.23
744.003	-6.23
744.027	-9.23
744.05	-9.23
744.074	0.77
744.097	-23.23
744.12	1.77
744.144	-17.23
744.167	-2.23
744.19	1.77
744.214	-0.23
744.237	-9.23
744.26	19.77
744.284	-2.23
744.307	-10.23
744.331	-2.23
744.354	-1.23
744.377	-8.23
744.401	13.77
744.424	-4.23
744.447	-9.23
744.471	-11.23
