Data from HighRes_H2_15_09_11_07_2024_HR4C61891__133__15-11-09-701.txt Node

Date: Thu Nov 07 15:11:09 EST 2024
User: crc00042
Spectrometer: HR4C6189
Trigger mode: 4
Integration Time (sec): 1.000000E-1
Scans to average: 1
Electric dark correction enabled: true
Nonlinearity correction enabled: false
Boxcar width: 0
XAxis mode: Wavelengths
Number of Pixels in Spectrum: 3648
>>>>>Begin Spectral Data<<<<<
639.567	-40.85
639.602	-40.85
639.636	-40.85
639.67	-54.85
639.704	-21.85
639.738	-8.85
639.773	9.15
639.807	-17.85
639.841	13.15
639.875	13.15
639.909	-25.85
639.943	-4.85
639.978	4.15
640.012	6.15
640.046	11.15
640.08	7.15
640.114	3.15
640.148	-9.85
640.182	-5.85
640.217	-13.85
640.251	9.15
640.285	-5.85
640.319	-23.85
640.353	-0.85
640.387	6.15
640.421	-15.85
640.455	-6.85
640.49	4.15
640.524	-6.85
640.558	18.15
640.592	5.15
640.626	-16.85
640.66	-10.85
640.694	-3.85
640.728	-4.85
640.762	-0.85
640.796	18.15
640.83	13.15
640.865	-10.85
640.899	2.15
640.933	-15.85
640.967	-17.85
641.001	0.15
641.035	5.15
641.069	-7.85
641.103	0.15
641.137	-29.85
641.171	-12.85
641.205	-14.85
641.239	-9.85
641.273	14.15
641.307	1.15
641.341	5.15
641.375	2.15
641.409	-4.85
641.443	-2.85
641.477	-2.85
641.511	4.15
641.545	-4.85
641.579	-16.85
641.614	7.15
641.648	-4.85
641.682	-11.85
641.716	10.15
641.75	19.15
641.784	-5.85
641.818	-3.85
641.852	-1.85
641.886	-3.85
641.919	8.15
641.953	0.15
641.987	-20.85
642.021	-3.85
642.055	-2.85
642.089	-6.85
642.123	-24.85
642.157	-9.85
642.191	-1.85
642.225	11.15
642.259	-13.85
642.293	7.15
642.327	4.15
642.361	-1.85
642.395	4.15
642.429	8.15
642.463	5.15
642.497	27.15
642.531	-1.85
642.565	0.15
642.599	-1.85
642.633	-5.85
642.666	13.15
642.7	11.15
642.734	11.15
642.768	-7.85
642.802	-12.85
642.836	-14.85
642.87	-2.85
642.904	6.15
642.938	4.15
642.972	11.15
643.005	4.15
643.039	3.15
643.073	-10.85
643.107	-5.85
643.141	-6.85
643.175	-6.85
643.209	-0.85
643.243	5.15
643.276	10.15
643.31	-17.85
643.344	0.15
643.378	13.15
643.412	12.15
643.446	-0.85
643.48	-5.85
643.513	5.15
643.547	-12.85
643.581	0.15
643.615	9.15
643.649	5.15
643.683	4.15
643.716	2.15
643.75	0.15
643.784	-20.85
643.818	9.15
643.852	-5.85
643.886	-9.85
643.919	-8.85
643.953	-11.85
643.987	0.15
644.021	8.15
644.055	13.15
644.088	5.15
644.122	-9.85
644.156	-8.85
644.19	-0.85
644.224	-1.85
644.257	3.15
644.291	-6.85
644.325	-4.85
644.359	-19.85
644.392	20.15
644.426	4.15
644.46	9.15
644.494	-12.85
644.527	-14.85
644.561	-9.85
644.595	0.15
644.629	-7.85
644.662	-17.85
644.696	5.15
644.73	-7.85
644.764	-15.85
644.797	-5.85
644.831	-8.85
644.865	10.15
644.899	3.15
644.932	19.15
644.966	12.15
645	12.15
645.033	18.15
645.067	-7.85
645.101	2.15
645.135	-1.85
645.168	-21.85
645.202	0.15
645.236	7.15
645.269	11.15
645.303	-2.85
645.337	-15.85
645.37	-9.85
645.404	6.15
645.438	-7.85
645.471	3.15
645.505	0.15
645.539	6.15
645.572	-2.85
645.606	-4.85
645.64	-4.85
645.673	6.15
645.707	16.15
645.741	6.15
645.774	-11.85
645.808	1.15
645.842	-1.85
645.875	12.15
645.909	-4.85
645.943	-0.85
645.976	-5.85
646.01	6.15
646.043	6.15
646.077	17.15
646.111	10.15
646.144	-1.85
646.178	12.15
646.212	-14.85
646.245	2.15
646.279	14.15
646.312	4.15
646.346	4.15
646.38	-14.85
646.413	12.15
646.447	21.15
646.48	3.15
646.514	18.15
646.547	7.15
646.581	-11.85
646.615	-3.85
646.648	-6.85
646.682	6.15
646.715	3.15
646.749	-1.85
646.782	-4.85
646.816	3.15
646.85	-10.85
646.883	-6.85
646.917	-6.85
646.95	-4.85
646.984	3.15
647.017	-13.85
647.051	-1.85
647.084	-0.85
647.118	-11.85
647.151	-7.85
647.185	1.15
647.218	5.15
647.252	32.15
647.285	1.15
647.319	-28.85
647.353	-14.85
647.386	12.15
647.42	5.15
647.453	2.15
647.487	9.15
647.52	-0.85
647.553	3.15
647.587	2.15
647.62	1.15
647.654	1.15
647.687	-6.85
647.721	16.15
647.754	1.15
647.788	-1.85
647.821	-22.85
647.855	7.15
647.888	6.15
647.922	15.15
647.955	6.15
647.989	2.15
648.022	3.15
648.055	-8.85
648.089	-11.85
648.122	16.15
648.156	-9.85
648.189	-5.85
648.223	17.15
648.256	4.15
648.29	6.15
648.323	-24.85
648.356	2.15
648.39	10.15
648.423	16.15
648.457	-1.85
648.49	14.15
648.523	-0.85
648.557	4.15
648.59	12.15
648.624	8.15
648.657	-12.85
648.69	20.15
648.724	-0.85
648.757	4.15
648.791	31.15
648.824	15.15
648.857	14.15
648.891	-13.85
648.924	-6.85
648.957	16.15
648.991	0.15
649.024	4.15
649.057	-5.85
649.091	3.15
649.124	4.15
649.158	8.15
649.191	16.15
649.224	12.15
649.258	-0.85
649.291	8.15
649.324	1.15
649.358	-14.85
649.391	-0.85
649.424	6.15
649.458	11.15
649.491	3.15
649.524	0.15
649.557	-9.85
649.591	-19.85
649.624	13.15
649.657	-11.85
649.691	-2.85
649.724	-1.85
649.757	-10.85
649.791	8.15
649.824	7.15
649.857	4.15
649.89	10.15
649.924	-11.85
649.957	-4.85
649.99	-8.85
650.023	-5.85
650.057	-2.85
650.09	10.15
650.123	2.15
650.157	15.15
650.19	19.15
650.223	-0.85
650.256	5.15
650.29	3.15
650.323	-1.85
650.356	6.15
650.389	-2.85
650.423	-13.85
650.456	10.15
650.489	-10.85
650.522	5.15
650.555	18.15
650.589	5.15
650.622	-3.85
650.655	1.15
650.688	1.15
650.721	-7.85
650.755	-8.85
650.788	2.15
650.821	-9.85
650.854	-7.85
650.887	-0.85
650.921	4.15
650.954	-4.85
650.987	-2.85
651.02	-11.85
651.053	-5.85
651.087	-20.85
651.12	18.15
651.153	2.15
651.186	6.15
651.219	-20.85
651.252	-1.85
651.286	12.15
651.319	5.15
651.352	4.15
651.385	6.15
651.418	21.15
651.451	3.15
651.484	-0.85
651.518	2.15
651.551	8.15
651.584	-24.85
651.617	14.15
651.65	8.15
651.683	5.15
651.716	-5.85
651.749	-4.85
651.783	-12.85
651.816	-1.85
651.849	-1.85
651.882	2.15
651.915	-2.85
651.948	4.15
651.981	-2.85
652.014	-11.85
652.047	-26.85
652.08	-16.85
652.114	-14.85
652.147	3.15
652.18	14.15
652.213	22.15
652.246	0.15
652.279	-1.85
652.312	-0.85
652.345	-17.85
652.378	-4.85
652.411	0.15
652.444	27.15
652.477	6.15
652.51	9.15
652.543	-17.85
652.576	5.15
652.609	-11.85
652.642	-6.85
652.675	4.15
652.709	-8.85
652.742	-5.85
652.775	-4.85
652.808	10.15
652.841	-0.85
652.874	-0.85
652.907	-2.85
652.94	-4.85
652.973	-7.85
653.006	-14.85
653.039	-6.85
653.072	-4.85
653.105	-2.85
653.138	-8.85
653.171	2.15
653.204	-1.85
653.237	4.15
653.27	-6.85
653.303	16.15
653.336	9.15
653.368	2.15
653.401	3.15
653.434	-4.85
653.467	-15.85
653.5	-9.85
653.533	-6.85
653.566	9.15
653.599	-4.85
653.632	-5.85
653.665	0.15
653.698	-10.85
653.731	-11.85
653.764	14.15
653.797	14.15
653.83	-1.85
653.863	9.15
653.896	-8.85
653.929	8.15
653.961	13.15
653.994	3.15
654.027	-16.85
654.06	5.15
654.093	7.15
654.126	-7.85
654.159	-6.85
654.192	7.15
654.225	-2.85
654.258	-7.85
654.29	9.15
654.323	2.15
654.356	-10.85
654.389	3.15
654.422	-12.85
654.455	10.15
654.488	19.15
654.521	-2.85
654.553	-16.85
654.586	19.15
654.619	-5.85
654.652	5.15
654.685	4.15
654.718	12.15
654.751	4.15
654.783	-3.85
654.816	5.15
654.849	1.15
654.882	0.15
654.915	-16.85
654.948	4.15
654.98	-5.85
655.013	5.15
655.046	7.15
655.079	-17.85
655.112	-8.85
655.144	-14.85
655.177	18.15
655.21	19.15
655.243	14.15
655.276	7.15
655.308	3.15
655.341	1.15
655.374	15.15
655.407	-4.85
655.44	1.15
655.472	15.15
655.505	9.15
655.538	18.15
655.571	14.15
655.603	5.15
655.636	11.15
655.669	9.15
655.702	9.15
655.734	4.15
655.767	23.15
655.8	10.15
655.833	28.15
655.865	38.15
655.898	35.15
655.931	31.15
655.964	41.15
655.996	63.15
656.029	58.15
656.062	59.15
656.095	54.15
656.127	62.15
656.16	103.15
656.193	120.15
656.225	186.15
656.258	285.15
656.291	517.15
656.324	1126.15
656.356	3382.15
656.389	7487.15
656.422	6059.15
656.454	2066.15
656.487	683.15
656.52	271.15
656.552	124.15
656.585	77.15
656.618	62.15
656.65	43.15
656.683	11.15
656.716	21.15
656.748	15.15
656.781	5.15
656.814	-1.85
656.846	8.15
656.879	-1.85
656.912	6.15
656.944	-16.85
656.977	-7.85
657.01	9.15
657.042	5.15
657.075	0.15
657.108	-11.85
657.14	6.15
657.173	-2.85
657.205	10.15
657.238	1.15
657.271	-1.85
657.303	-8.85
657.336	10.15
657.369	10.15
657.401	-6.85
657.434	-1.85
657.466	9.15
657.499	-8.85
657.532	9.15
657.564	29.15
657.597	1.15
657.629	15.15
657.662	12.15
657.694	11.15
657.727	-0.85
657.76	27.15
657.792	-7.85
657.825	-5.85
657.857	7.15
657.89	-5.85
657.922	8.15
657.955	4.15
657.987	-3.85
658.02	13.15
658.053	7.15
658.085	16.15
658.118	4.15
658.15	1.15
658.183	17.15
658.215	-0.85
658.248	-5.85
658.28	-6.85
658.313	11.15
658.345	-2.85
658.378	-14.85
658.41	-4.85
658.443	3.15
658.475	-6.85
658.508	4.15
658.54	6.15
658.573	-16.85
658.605	15.15
658.638	-23.85
658.67	-6.85
658.703	0.15
658.735	-7.85
658.768	1.15
658.8	-1.85
658.833	22.15
658.865	-11.85
658.898	-10.85
658.93	-7.85
658.963	4.15
658.995	-2.85
659.028	3.15
659.06	5.15
659.092	-1.85
659.125	-5.85
659.157	19.15
659.19	-15.85
659.222	-5.85
659.255	-3.85
659.287	25.15
659.32	-0.85
659.352	12.15
659.384	2.15
659.417	-12.85
659.449	-4.85
659.482	0.15
659.514	-5.85
659.546	2.15
659.579	-19.85
659.611	-6.85
659.644	0.15
659.676	-19.85
659.708	1.15
659.741	5.15
659.773	8.15
659.806	8.15
659.838	-7.85
659.87	14.15
659.903	-21.85
659.935	10.15
659.967	-4.85
660	2.15
660.032	-9.85
660.065	23.15
660.097	1.15
660.129	-4.85
660.162	-0.85
660.194	5.15
660.226	-10.85
660.259	10.15
660.291	5.15
660.323	-11.85
660.356	1.15
660.388	-20.85
660.42	-10.85
660.453	-1.85
660.485	-4.85
660.517	-8.85
660.55	13.15
660.582	-5.85
660.614	10.15
660.647	-9.85
660.679	-10.85
660.711	-7.85
660.743	-17.85
660.776	-5.85
660.808	-16.85
660.84	-18.85
660.873	8.15
660.905	10.15
660.937	0.15
660.969	3.15
661.002	-8.85
661.034	21.15
661.066	15.15
661.099	14.15
661.131	27.15
661.163	6.15
661.195	2.15
661.228	24.15
661.26	4.15
661.292	-11.85
661.324	2.15
661.357	-3.85
661.389	6.15
661.421	7.15
661.453	-9.85
661.485	4.15
661.518	5.15
661.55	-13.85
661.582	-0.85
661.614	0.15
661.647	19.15
661.679	9.15
661.711	3.15
661.743	2.15
661.775	-7.85
661.808	22.15
661.84	-16.85
661.872	-4.85
661.904	10.15
661.936	4.15
661.969	-8.85
662.001	-4.85
662.033	-2.85
662.065	4.15
662.097	-10.85
662.129	-0.85
662.162	-10.85
662.194	2.15
662.226	-9.85
662.258	0.15
662.29	-17.85
662.322	-16.85
662.355	-23.85
662.387	18.15
662.419	6.15
662.451	18.15
662.483	2.15
662.515	15.15
662.547	5.15
662.58	-0.85
662.612	-3.85
662.644	-30.85
662.676	1.15
662.708	12.15
662.74	-13.85
662.772	6.15
662.804	-1.85
662.836	-1.85
662.869	6.15
662.901	0.15
662.933	4.15
662.965	17.15
662.997	13.15
663.029	-3.85
663.061	-3.85
663.093	-17.85
663.125	14.15
663.157	10.15
663.189	-8.85
663.221	3.15
663.254	12.15
663.286	-6.85
663.318	0.15
663.35	-18.85
663.382	4.15
663.414	10.15
663.446	12.15
663.478	-2.85
663.51	19.15
663.542	-11.85
663.574	-0.85
663.606	-7.85
663.638	-13.85
663.67	-16.85
663.702	-8.85
663.734	-18.85
663.766	3.15
663.798	-12.85
663.83	7.15
663.862	5.15
663.894	-9.85
663.926	-6.85
663.958	11.15
663.99	12.15
664.022	-4.85
664.054	0.15
664.086	-6.85
664.118	-15.85
664.15	-4.85
664.182	-1.85
664.214	-4.85
664.246	19.15
664.278	-4.85
664.31	10.15
664.342	-9.85
664.374	-0.85
664.406	-6.85
664.438	12.15
664.47	9.15
664.502	-9.85
664.534	-1.85
664.566	-17.85
664.598	10.15
664.63	-8.85
664.662	-0.85
664.693	-13.85
664.725	-13.85
664.757	-1.85
664.789	-11.85
664.821	1.15
664.853	7.15
664.885	-8.85
664.917	-0.85
664.949	22.15
664.981	16.15
665.013	5.15
665.045	-1.85
665.076	2.15
665.108	-1.85
665.14	-2.85
665.172	7.15
665.204	-10.85
665.236	-8.85
665.268	12.15
665.3	-4.85
665.331	-10.85
665.363	11.15
665.395	-9.85
665.427	-8.85
665.459	1.15
665.491	3.15
665.523	8.15
665.555	-6.85
665.586	7.15
665.618	5.15
665.65	-16.85
665.682	-1.85
665.714	-0.85
665.746	-9.85
665.777	-2.85
665.809	10.15
665.841	4.15
665.873	-5.85
665.905	-4.85
665.937	9.15
665.968	9.15
666	6.15
666.032	16.15
666.064	-12.85
666.096	-6.85
666.127	10.15
666.159	7.15
666.191	17.15
666.223	-5.85
666.255	-0.85
666.286	14.15
666.318	2.15
666.35	16.15
666.382	-1.85
666.413	-21.85
666.445	-16.85
666.477	-9.85
666.509	-8.85
666.54	9.15
666.572	3.15
666.604	-3.85
666.636	2.15
666.667	19.15
666.699	18.15
666.731	6.15
666.763	0.15
666.794	-7.85
666.826	5.15
666.858	3.15
666.89	16.15
666.921	7.15
666.953	6.15
666.985	20.15
667.017	14.15
667.048	7.15
667.08	2.15
667.112	1.15
667.143	-11.85
667.175	0.15
667.207	-4.85
667.238	10.15
667.27	5.15
667.302	3.15
667.334	0.15
667.365	21.15
667.397	1.15
667.429	-5.85
667.46	16.15
667.492	5.15
667.524	-11.85
667.555	-10.85
667.587	-1.85
667.619	-5.85
667.65	-1.85
667.682	18.15
667.714	-1.85
667.745	7.15
667.777	2.15
667.808	8.15
667.84	12.15
667.872	8.15
667.903	17.15
667.935	-1.85
667.967	3.15
667.998	5.15
668.03	-5.85
668.061	-8.85
668.093	-7.85
668.125	-14.85
668.156	5.15
668.188	-4.85
668.22	2.15
668.251	16.15
668.283	9.15
668.314	9.15
668.346	4.15
668.377	0.15
668.409	12.15
668.441	1.15
668.472	2.15
668.504	5.15
668.535	-1.85
668.567	10.15
668.599	-16.85
668.63	-2.85
668.662	-7.85
668.693	23.15
668.725	6.15
668.756	18.15
668.788	-0.85
668.819	-5.85
668.851	0.15
668.882	5.15
668.914	1.15
668.946	2.15
668.977	4.15
669.009	-0.85
669.04	-5.85
669.072	5.15
669.103	5.15
669.135	-6.85
669.166	-3.85
669.198	13.15
669.229	11.15
669.261	-0.85
669.292	17.15
669.324	9.15
669.355	3.15
669.387	-16.85
669.418	7.15
669.45	-5.85
669.481	3.15
669.513	1.15
669.544	-1.85
669.576	10.15
669.607	27.15
669.639	9.15
669.67	-17.85
669.701	10.15
669.733	-12.85
669.764	-13.85
669.796	-1.85
669.827	-11.85
669.859	-8.85
669.89	8.15
669.922	2.15
669.953	6.15
669.985	2.15
670.016	-8.85
670.047	-7.85
670.079	1.15
670.11	2.15
670.142	17.15
670.173	6.15
670.204	9.15
670.236	10.15
670.267	-5.85
670.299	10.15
670.33	3.15
670.362	0.15
670.393	-9.85
670.424	4.15
670.456	-3.85
670.487	4.15
670.518	3.15
670.55	-18.85
670.581	-16.85
670.613	-8.85
670.644	7.15
670.675	-9.85
670.707	-2.85
670.738	-0.85
670.769	1.15
670.801	1.15
670.832	-6.85
670.864	-13.85
670.895	1.15
670.926	-7.85
670.958	-4.85
670.989	-4.85
671.02	-2.85
671.052	4.15
671.083	-7.85
671.114	-17.85
671.146	-3.85
671.177	-5.85
671.208	-3.85
671.24	-7.85
671.271	14.15
671.302	10.15
671.333	-11.85
671.365	-17.85
671.396	7.15
671.427	4.15
671.459	-6.85
671.49	2.15
671.521	-1.85
671.553	3.15
671.584	6.15
671.615	-0.85
671.646	2.15
671.678	3.15
671.709	1.15
671.74	-1.85
671.771	-9.85
671.803	-1.85
671.834	11.15
671.865	13.15
671.896	8.15
671.928	3.15
671.959	-7.85
671.99	-14.85
672.021	-3.85
672.053	-20.85
672.084	17.15
672.115	4.15
672.146	5.15
672.178	-17.85
672.209	-10.85
672.24	-7.85
672.271	25.15
672.303	-3.85
672.334	-1.85
672.365	-9.85
672.396	14.15
672.427	-1.85
672.459	-3.85
672.49	16.15
672.521	5.15
672.552	4.15
672.583	-2.85
672.615	-16.85
672.646	-0.85
672.677	-4.85
672.708	-5.85
672.739	-1.85
672.77	1.15
672.802	-6.85
672.833	-4.85
672.864	-6.85
672.895	-24.85
672.926	-5.85
672.957	-1.85
672.989	0.15
673.02	7.15
673.051	-5.85
673.082	-0.85
673.113	6.15
673.144	16.15
673.175	-5.85
673.206	-13.85
673.238	-8.85
673.269	-20.85
673.3	-2.85
673.331	22.15
673.362	2.15
673.393	0.15
673.424	0.15
673.455	11.15
673.487	-0.85
673.518	-0.85
673.549	-5.85
673.58	-10.85
673.611	-6.85
673.642	-7.85
673.673	-5.85
673.704	3.15
673.735	-0.85
673.766	-7.85
673.797	0.15
673.828	1.15
673.86	-6.85
673.891	-13.85
673.922	-13.85
673.953	-5.85
673.984	11.15
674.015	5.15
674.046	-9.85
674.077	-0.85
674.108	-2.85
674.139	4.15
674.17	-3.85
674.201	-20.85
674.232	-2.85
674.263	-9.85
674.294	-10.85
674.325	-12.85
674.356	-8.85
674.387	6.15
674.418	-9.85
674.449	-16.85
674.48	-16.85
674.511	-20.85
674.542	3.15
674.573	-6.85
674.604	6.15
674.635	14.15
674.666	13.15
674.697	-3.85
674.728	3.15
674.759	7.15
674.79	-6.85
674.821	-10.85
674.852	-4.85
674.883	0.15
674.914	-3.85
674.945	1.15
674.976	-6.85
675.007	0.15
675.038	-16.85
675.069	-22.85
675.1	5.15
675.131	5.15
675.162	-12.85
675.193	-3.85
675.224	-15.85
675.254	2.15
675.285	-0.85
675.316	3.15
675.347	2.15
675.378	-24.85
675.409	5.15
675.44	21.15
675.471	20.15
675.502	-2.85
675.533	-8.85
675.564	-1.85
675.595	-1.85
675.625	6.15
675.656	19.15
675.687	0.15
675.718	-33.85
675.749	-22.85
675.78	3.15
675.811	-4.85
675.842	1.15
675.873	0.15
675.903	-2.85
675.934	11.15
675.965	-6.85
675.996	2.15
676.027	-9.85
676.058	-9.85
676.089	-13.85
676.119	-5.85
676.15	-8.85
676.181	-14.85
676.212	-14.85
676.243	11.15
676.274	-1.85
676.304	9.15
676.335	-5.85
676.366	5.15
676.397	-7.85
676.428	-4.85
676.459	10.15
676.489	8.15
676.52	3.15
676.551	-20.85
676.582	-9.85
676.613	9.15
676.643	0.15
676.674	14.15
676.705	-13.85
676.736	-10.85
676.767	21.15
676.797	8.15
676.828	-8.85
676.859	-13.85
676.89	4.15
676.92	-2.85
676.951	-1.85
676.982	1.15
677.013	-16.85
677.044	6.15
677.074	16.15
677.105	-9.85
677.136	0.15
677.167	0.15
677.197	21.15
677.228	-11.85
677.259	1.15
677.289	-3.85
677.32	-7.85
677.351	-0.85
677.382	5.15
677.412	-14.85
677.443	-5.85
677.474	-12.85
677.505	-10.85
677.535	7.15
677.566	-7.85
677.597	-17.85
677.627	-5.85
677.658	-8.85
677.689	-4.85
677.72	-7.85
677.75	1.15
677.781	2.15
677.812	-8.85
677.842	2.15
677.873	-5.85
677.904	-4.85
677.934	-10.85
677.965	-7.85
677.996	-17.85
678.026	-6.85
678.057	1.15
678.088	-0.85
678.118	4.15
678.149	-15.85
678.18	-0.85
678.21	0.15
678.241	0.15
678.272	0.15
678.302	0.15
678.333	16.15
678.363	13.15
678.394	6.15
678.425	-6.85
678.455	2.15
678.486	13.15
678.517	-5.85
678.547	-1.85
678.578	-0.85
678.608	-7.85
678.639	-5.85
678.67	-2.85
678.7	3.15
678.731	-15.85
678.761	6.15
678.792	0.15
678.823	-4.85
678.853	1.15
678.884	-15.85
678.914	-0.85
678.945	3.15
678.975	10.15
679.006	1.15
679.037	-11.85
679.067	12.15
679.098	5.15
679.128	1.15
679.159	-9.85
679.189	11.15
679.22	-18.85
679.25	2.15
679.281	3.15
679.312	2.15
679.342	20.15
679.373	26.15
679.403	-7.85
679.434	3.15
679.464	-7.85
679.495	-1.85
679.525	8.15
679.556	-7.85
679.586	-7.85
679.617	8.15
679.647	0.15
679.678	1.15
679.708	13.15
679.739	-12.85
679.769	-6.85
679.8	0.15
679.83	-14.85
679.861	-6.85
679.891	-18.85
679.922	-16.85
679.952	-9.85
679.983	-1.85
680.013	0.15
680.044	-3.85
680.074	11.15
680.105	5.15
680.135	-5.85
680.165	0.15
680.196	2.15
680.226	1.15
680.257	19.15
680.287	10.15
680.318	-7.85
680.348	-7.85
680.379	-1.85
680.409	-0.85
680.439	-18.85
680.47	-12.85
680.5	8.15
680.531	14.15
680.561	10.15
680.592	0.15
680.622	3.15
680.652	-3.85
680.683	21.15
680.713	4.15
680.744	-9.85
680.774	3.15
680.804	8.15
680.835	-9.85
680.865	-25.85
680.896	12.15
680.926	0.15
680.956	3.15
680.987	-16.85
681.017	-9.85
681.047	3.15
681.078	-4.85
681.108	-7.85
681.139	-4.85
681.169	-2.85
681.199	-4.85
681.23	5.15
681.26	-2.85
681.29	17.15
681.321	-6.85
681.351	16.15
681.381	-0.85
681.412	15.15
681.442	-7.85
681.472	5.15
681.503	-7.85
681.533	8.15
681.563	8.15
681.594	-8.85
681.624	-15.85
681.654	-21.85
681.685	-0.85
681.715	-0.85
681.745	-12.85
681.775	-14.85
681.806	-0.85
681.836	3.15
681.866	-6.85
681.897	-1.85
681.927	-5.85
681.957	-22.85
681.987	23.15
682.018	-11.85
682.048	-5.85
682.078	7.15
682.109	2.15
682.139	-2.85
682.169	-14.85
682.199	-5.85
682.23	-19.85
682.26	10.15
682.29	-3.85
682.32	-9.85
682.351	-3.85
682.381	8.15
682.411	-13.85
682.441	-7.85
682.472	-7.85
682.502	-19.85
682.532	-10.85
682.562	3.15
682.592	-0.85
682.623	-1.85
682.653	6.15
682.683	-4.85
682.713	-13.85
682.743	-5.85
682.774	-8.85
682.804	-6.85
682.834	7.15
682.864	-5.85
682.894	3.15
682.925	-9.85
682.955	-23.85
682.985	-6.85
683.015	-3.85
683.045	11.15
683.076	-13.85
683.106	-0.85
683.136	-3.85
683.166	-8.85
683.196	-6.85
683.226	-3.85
683.257	-6.85
683.287	-0.85
683.317	-6.85
683.347	-21.85
683.377	-13.85
683.407	10.15
683.437	7.15
683.468	-9.85
683.498	1.15
683.528	2.15
683.558	9.15
683.588	6.15
683.618	-13.85
683.648	-17.85
683.678	3.15
683.708	5.15
683.739	-9.85
683.769	-2.85
683.799	-1.85
683.829	0.15
683.859	1.15
683.889	1.15
683.919	7.15
683.949	1.15
683.979	3.15
684.009	1.15
684.039	-3.85
684.07	-11.85
684.1	9.15
684.13	0.15
684.16	-22.85
684.19	0.15
684.22	-4.85
684.25	13.15
684.28	-8.85
684.31	8.15
684.34	7.15
684.37	1.15
684.4	-10.85
684.43	2.15
684.46	3.15
684.49	0.15
684.52	0.15
684.55	11.15
684.58	8.15
684.61	-3.85
684.64	3.15
684.67	-1.85
684.7	-5.85
684.73	2.15
684.76	-0.85
684.79	8.15
684.82	-3.85
684.85	-1.85
684.88	-7.85
684.91	-1.85
684.94	-11.85
684.97	-8.85
685	2.15
685.03	-22.85
685.06	5.15
685.09	-3.85
685.12	6.15
685.15	-14.85
685.18	9.15
685.21	6.15
685.24	1.15
685.27	3.15
685.3	0.15
685.33	1.15
685.36	5.15
685.39	-7.85
685.42	-8.85
685.45	-2.85
685.48	10.15
685.51	-5.85
685.54	4.15
685.569	10.15
685.599	6.15
685.629	3.15
685.659	-4.85
685.689	-2.85
685.719	1.15
685.749	-12.85
685.779	1.15
685.809	2.15
685.839	6.15
685.869	-2.85
685.898	4.15
685.928	10.15
685.958	9.15
685.988	3.15
686.018	5.15
686.048	6.15
686.078	2.15
686.108	27.15
686.137	0.15
686.167	3.15
686.197	-14.85
686.227	12.15
686.257	30.15
686.287	7.15
686.317	4.15
686.346	4.15
686.376	-12.85
686.406	-12.85
686.436	-2.85
686.466	-11.85
686.496	1.15
686.525	8.15
686.555	3.15
686.585	11.15
686.615	21.15
686.645	8.15
686.675	-6.85
686.704	5.15
686.734	-0.85
686.764	-11.85
686.794	-8.85
686.824	-5.85
686.853	7.15
686.883	8.15
686.913	10.15
686.943	4.15
686.973	-20.85
687.002	-1.85
687.032	3.15
687.062	11.15
687.092	21.15
687.121	-9.85
687.151	6.15
687.181	0.15
687.211	16.15
687.24	8.15
687.27	-3.85
687.3	0.15
687.33	22.15
687.359	-14.85
687.389	0.15
687.419	2.15
687.449	15.15
687.478	-6.85
687.508	6.15
687.538	20.15
687.568	11.15
687.597	-21.85
687.627	1.15
687.657	-10.85
687.686	-1.85
687.716	11.15
687.746	-0.85
687.776	-6.85
687.805	1.15
687.835	-13.85
687.865	10.15
687.894	2.15
687.924	3.15
687.954	-1.85
687.983	-5.85
688.013	-4.85
688.043	20.15
688.072	4.15
688.102	21.15
688.132	0.15
688.161	-6.85
688.191	-4.85
688.221	21.15
688.25	-2.85
688.28	-1.85
688.31	2.15
688.339	7.15
688.369	-5.85
688.399	-2.85
688.428	-9.85
688.458	6.15
688.488	-2.85
688.517	-3.85
688.547	10.15
688.576	21.15
688.606	9.15
688.636	-10.85
688.665	-0.85
688.695	5.15
688.725	8.15
688.754	4.15
688.784	0.15
688.813	-4.85
688.843	-13.85
688.873	-1.85
688.902	-9.85
688.932	0.15
688.961	1.15
688.991	20.15
689.02	11.15
689.05	-13.85
689.08	10.15
689.109	7.15
689.139	-4.85
689.168	-5.85
689.198	0.15
689.227	-7.85
689.257	-4.85
689.287	0.15
689.316	-5.85
689.346	-20.85
689.375	-6.85
689.405	2.15
689.434	2.15
689.464	2.15
689.493	-4.85
689.523	-7.85
689.552	-10.85
689.582	2.15
689.611	1.15
689.641	1.15
689.67	2.15
689.7	9.15
689.73	13.15
689.759	18.15
689.789	3.15
689.818	3.15
689.848	-5.85
689.877	4.15
689.906	-3.85
689.936	-9.85
689.965	-2.85
689.995	8.15
690.024	9.15
690.054	-4.85
690.083	-8.85
690.113	3.15
690.142	2.15
690.172	-1.85
690.201	6.15
690.231	-5.85
690.26	5.15
690.29	-6.85
690.319	11.15
690.348	4.15
690.378	9.15
690.407	1.15
690.437	5.15
690.466	1.15
690.496	-0.85
690.525	10.15
690.555	-6.85
690.584	-3.85
690.613	2.15
690.643	5.15
690.672	3.15
690.702	21.15
690.731	-11.85
690.76	-0.85
690.79	-3.85
690.819	-11.85
690.849	15.15
690.878	6.15
690.907	1.15
690.937	14.15
690.966	9.15
690.996	7.15
691.025	-3.85
691.054	6.15
691.084	0.15
691.113	-2.85
691.142	8.15
691.172	7.15
691.201	11.15
691.23	8.15
691.26	8.15
691.289	-6.85
691.319	7.15
691.348	2.15
691.377	23.15
691.407	14.15
691.436	15.15
691.465	3.15
691.495	-3.85
691.524	1.15
691.553	-5.85
691.583	-10.85
691.612	9.15
691.641	-10.85
691.67	1.15
691.7	5.15
691.729	-11.85
691.758	-9.85
691.788	-2.85
691.817	-11.85
691.846	-11.85
691.876	-11.85
691.905	2.15
691.934	3.15
691.963	10.15
691.993	9.15
692.022	-0.85
692.051	-7.85
692.081	10.15
692.11	14.15
692.139	1.15
692.168	-0.85
692.198	37.15
692.227	17.15
692.256	-5.85
692.285	-0.85
692.315	-5.85
692.344	2.15
692.373	11.15
692.402	-2.85
692.432	-1.85
692.461	0.15
692.49	1.15
692.519	16.15
692.548	15.15
692.578	-1.85
692.607	-1.85
692.636	-5.85
692.665	0.15
692.694	0.15
692.724	6.15
692.753	18.15
692.782	16.15
692.811	-2.85
692.84	4.15
692.87	19.15
692.899	-5.85
692.928	-10.85
692.957	3.15
692.986	9.15
693.016	14.15
693.045	24.15
693.074	9.15
693.103	-9.85
693.132	14.15
693.161	18.15
693.191	-6.85
693.22	-7.85
693.249	5.15
693.278	0.15
693.307	4.15
693.336	-7.85
693.365	-4.85
693.395	-4.85
693.424	8.15
693.453	19.15
693.482	-1.85
693.511	18.15
693.54	2.15
693.569	-18.85
693.598	-14.85
693.628	25.15
693.657	20.15
693.686	16.15
693.715	6.15
693.744	24.15
693.773	32.15
693.802	-7.85
693.831	21.15
693.86	23.15
693.889	6.15
693.919	10.15
693.948	-1.85
693.977	4.15
694.006	-10.85
694.035	-4.85
694.064	2.15
694.093	-4.85
694.122	-9.85
694.151	2.15
694.18	-2.85
694.209	26.15
694.238	-4.85
694.267	12.15
694.296	-6.85
694.325	0.15
694.354	11.15
694.383	-4.85
694.412	-8.85
694.441	-8.85
694.471	-1.85
694.5	7.15
694.529	10.15
694.558	26.15
694.587	13.15
694.616	4.15
694.645	11.15
694.674	20.15
694.703	9.15
694.732	10.15
694.761	11.15
694.79	16.15
694.819	-6.85
694.848	-2.85
694.877	17.15
694.906	0.15
694.935	-15.85
694.963	13.15
694.992	-2.85
695.021	3.15
695.05	6.15
695.079	-0.85
695.108	-13.85
695.137	7.15
695.166	9.15
695.195	1.15
695.224	19.15
695.253	5.15
695.282	2.15
695.311	13.15
695.34	4.15
695.369	2.15
695.398	1.15
695.427	25.15
695.456	1.15
695.485	5.15
695.513	4.15
695.542	-8.85
695.571	-11.85
695.6	27.15
695.629	20.15
695.658	1.15
695.687	6.15
695.716	8.15
695.745	1.15
695.774	-0.85
695.802	-1.85
695.831	17.15
695.86	20.15
695.889	3.15
695.918	4.15
695.947	-1.85
695.976	5.15
696.005	3.15
696.033	-2.85
696.062	0.15
696.091	1.15
696.12	-4.85
696.149	4.15
696.178	0.15
696.207	4.15
696.235	-12.85
696.264	3.15
696.293	0.15
696.322	18.15
696.351	10.15
696.38	-6.85
696.408	6.15
696.437	5.15
696.466	18.15
696.495	13.15
696.524	8.15
696.553	0.15
696.581	7.15
696.61	-4.85
696.639	10.15
696.668	11.15
696.697	-0.85
696.725	-6.85
696.754	-2.85
696.783	3.15
696.812	3.15
696.84	5.15
696.869	-1.85
696.898	8.15
696.927	2.15
696.956	24.15
696.984	-12.85
697.013	-0.85
697.042	9.15
697.071	-0.85
697.099	18.15
697.128	9.15
697.157	3.15
697.186	-5.85
697.214	0.15
697.243	-6.85
697.272	2.15
697.301	6.15
697.329	3.15
697.358	-10.85
697.387	25.15
697.415	12.15
697.444	9.15
697.473	3.15
697.502	-0.85
697.53	15.15
697.559	3.15
697.588	-0.85
697.616	-2.85
697.645	-8.85
697.674	11.15
697.703	9.15
697.731	25.15
697.76	11.15
697.789	3.15
697.817	-2.85
697.846	11.15
697.875	4.15
697.903	17.15
697.932	1.15
697.961	0.15
697.989	9.15
698.018	2.15
698.047	6.15
698.075	4.15
698.104	-1.85
698.133	-6.85
698.161	2.15
698.19	-0.85
698.218	-12.85
698.247	20.15
698.276	1.15
698.304	24.15
698.333	4.15
698.362	6.15
698.39	11.15
698.419	5.15
698.447	-1.85
698.476	-2.85
698.505	4.15
698.533	-1.85
698.562	-0.85
698.591	-5.85
698.619	-11.85
698.648	7.15
698.676	6.15
698.705	-3.85
698.733	1.15
698.762	10.15
698.791	1.15
698.819	8.15
698.848	5.15
698.876	30.15
698.905	3.15
698.933	-0.85
698.962	4.15
698.991	6.15
699.019	-0.85
699.048	2.15
699.076	-5.85
699.105	-18.85
699.133	-6.85
699.162	21.15
699.19	17.15
699.219	9.15
699.248	7.15
699.276	18.15
699.305	2.15
699.333	0.15
699.362	-3.85
699.39	5.15
699.419	4.15
699.447	16.15
699.476	5.15
699.504	-1.85
699.533	-1.85
699.561	-5.85
699.59	-4.85
699.618	-4.85
699.647	-2.85
699.675	14.15
699.704	2.15
699.732	-10.85
699.761	-1.85
699.789	3.15
699.818	10.15
699.846	-5.85
699.874	-8.85
699.903	-17.85
699.931	-2.85
699.96	6.15
699.988	-6.85
700.017	-9.85
700.045	-6.85
700.074	1.15
700.102	-5.85
700.13	-1.85
700.159	13.15
700.187	-6.85
700.216	-0.85
700.244	7.15
700.273	0.15
700.301	20.15
700.329	27.15
700.358	18.15
700.386	3.15
700.415	-1.85
700.443	0.15
700.472	4.15
700.5	4.15
700.528	4.15
700.557	4.15
700.585	9.15
700.614	-1.85
700.642	10.15
700.67	29.15
700.699	8.15
700.727	-8.85
700.755	-5.85
700.784	1.15
700.812	5.15
700.841	5.15
700.869	4.15
700.897	-18.85
700.926	-19.85
700.954	12.15
700.982	8.15
701.011	0.15
701.039	9.15
701.067	5.15
701.096	8.15
701.124	-14.85
701.152	13.15
701.181	-2.85
701.209	-4.85
701.237	4.15
701.266	-5.85
701.294	-2.85
701.322	-3.85
701.351	14.15
701.379	9.15
701.407	-2.85
701.435	6.15
701.464	7.15
701.492	18.15
701.52	-6.85
701.549	6.15
701.577	2.15
701.605	-8.85
701.634	-0.85
701.662	7.15
701.69	-19.85
701.718	-5.85
701.747	16.15
701.775	11.15
701.803	-1.85
701.831	8.15
701.86	5.15
701.888	8.15
701.916	6.15
701.944	5.15
701.973	-0.85
702.001	-7.85
702.029	-7.85
702.057	-12.85
702.086	-4.85
702.114	-19.85
702.142	-4.85
702.17	-13.85
702.199	-6.85
702.227	3.15
702.255	-16.85
702.283	-4.85
702.311	4.15
702.34	5.15
702.368	1.15
702.396	10.15
702.424	-1.85
702.452	-8.85
702.481	6.15
702.509	0.15
702.537	-6.85
702.565	2.15
702.593	-12.85
702.621	7.15
702.65	-2.85
702.678	0.15
702.706	9.15
702.734	-4.85
702.762	5.15
702.79	-4.85
702.819	-1.85
702.847	13.15
702.875	1.15
702.903	15.15
702.931	-4.85
702.959	-4.85
702.988	13.15
703.016	-1.85
703.044	-9.85
703.072	-5.85
703.1	-8.85
703.128	-1.85
703.156	-17.85
703.184	-4.85
703.212	11.15
703.241	7.15
703.269	12.15
703.297	-5.85
703.325	-0.85
703.353	-5.85
703.381	-16.85
703.409	6.15
703.437	-6.85
703.465	6.15
703.493	-2.85
703.522	-4.85
703.55	7.15
703.578	-1.85
703.606	-5.85
703.634	-2.85
703.662	-8.85
703.69	-3.85
703.718	8.15
703.746	24.15
703.774	1.15
703.802	2.15
703.83	-0.85
703.858	13.15
703.886	16.15
703.914	-3.85
703.942	22.15
703.97	-0.85
703.998	-6.85
704.027	8.15
704.055	-0.85
704.083	-2.85
704.111	-11.85
704.139	-7.85
704.167	-0.85
704.195	9.15
704.223	-14.85
704.251	-10.85
704.279	-14.85
704.307	5.15
704.335	-13.85
704.363	-1.85
704.391	-16.85
704.419	-30.85
704.447	-9.85
704.475	-4.85
704.503	-4.85
704.531	22.15
704.558	-6.85
704.586	-0.85
704.614	2.15
704.642	-2.85
704.67	-9.85
704.698	-5.85
704.726	-9.85
704.754	-0.85
704.782	-6.85
704.81	-1.85
704.838	21.15
704.866	-2.85
704.894	-16.85
704.922	-14.85
704.95	-0.85
704.978	17.15
705.006	6.15
705.034	14.15
705.061	-10.85
705.089	-0.85
705.117	-6.85
705.145	-6.85
705.173	4.15
705.201	-7.85
705.229	-2.85
705.257	-3.85
705.285	-6.85
705.313	7.15
705.34	-2.85
705.368	-4.85
705.396	-4.85
705.424	5.15
705.452	-6.85
705.48	-17.85
705.508	-6.85
705.536	-0.85
705.563	-0.85
705.591	0.15
705.619	20.15
705.647	-6.85
705.675	-1.85
705.703	10.15
705.731	4.15
705.758	6.15
705.786	-6.85
705.814	7.15
705.842	8.15
705.87	-2.85
705.898	-1.85
705.925	-2.85
705.953	4.15
705.981	3.15
706.009	5.15
706.037	-2.85
706.065	0.15
706.092	-4.85
706.12	-0.85
706.148	-5.85
706.176	-1.85
706.204	4.15
706.231	-0.85
706.259	-3.85
706.287	-11.85
706.315	-13.85
706.342	-12.85
706.37	-2.85
706.398	5.15
706.426	-4.85
706.454	13.15
706.481	19.15
706.509	5.15
706.537	-2.85
706.565	-7.85
706.592	-0.85
706.62	-1.85
706.648	-5.85
706.676	-10.85
706.703	9.15
706.731	-1.85
706.759	-8.85
706.787	4.15
706.814	2.15
706.842	2.15
706.87	3.15
706.897	4.15
706.925	-2.85
706.953	3.15
706.981	11.15
707.008	5.15
707.036	-10.85
707.064	-9.85
707.091	-14.85
707.119	5.15
707.147	-12.85
707.174	-11.85
707.202	5.15
707.23	-8.85
707.258	-12.85
707.285	-23.85
707.313	-15.85
707.341	-20.85
707.368	-7.85
707.396	10.15
707.424	14.15
707.451	9.15
707.479	-4.85
707.507	-1.85
707.534	-2.85
707.562	3.15
707.59	-14.85
707.617	-10.85
707.645	-14.85
707.672	8.15
707.7	2.15
707.728	14.15
707.755	6.15
707.783	-13.85
707.811	-11.85
707.838	-4.85
707.866	6.15
707.893	-1.85
707.921	-13.85
707.949	9.15
707.976	12.15
708.004	-0.85
708.031	1.15
708.059	-9.85
708.087	-3.85
708.114	-10.85
708.142	-14.85
708.169	-11.85
708.197	-14.85
708.225	-1.85
708.252	-7.85
708.28	13.15
708.307	-15.85
708.335	-9.85
708.362	5.15
708.39	-14.85
708.418	9.15
708.445	-12.85
708.473	-12.85
708.5	0.15
708.528	-3.85
708.555	-9.85
708.583	-15.85
708.61	-8.85
708.638	6.15
708.665	-4.85
708.693	0.15
708.72	-12.85
708.748	-16.85
708.776	2.15
708.803	13.15
708.831	1.15
708.858	7.15
708.886	15.15
708.913	3.15
708.941	-20.85
708.968	4.15
708.996	2.15
709.023	11.15
709.051	-9.85
709.078	-7.85
709.105	-2.85
709.133	-6.85
709.16	10.15
709.188	-3.85
709.215	6.15
709.243	6.15
709.27	-5.85
709.298	-17.85
709.325	-10.85
709.353	-10.85
709.38	-0.85
709.408	6.15
709.435	-1.85
709.462	-11.85
709.49	8.15
709.517	6.15
709.545	5.15
709.572	-8.85
709.6	7.15
709.627	-5.85
709.655	-4.85
709.682	-2.85
709.709	10.15
709.737	5.15
709.764	-6.85
709.792	3.15
709.819	4.15
709.846	-2.85
709.874	3.15
709.901	5.15
709.929	18.15
709.956	-1.85
709.983	-10.85
710.011	-1.85
710.038	3.15
710.066	-5.85
710.093	5.15
710.12	-7.85
710.148	-6.85
710.175	-5.85
710.202	-8.85
710.23	4.15
710.257	-7.85
710.284	5.15
710.312	1.15
710.339	-5.85
710.366	-9.85
710.394	-18.85
710.421	1.15
710.448	-7.85
710.476	-11.85
710.503	-3.85
710.53	6.15
710.558	0.15
710.585	7.15
710.612	-6.85
710.64	-5.85
710.667	1.15
710.694	-0.85
710.722	-20.85
710.749	-13.85
710.776	2.15
710.804	17.15
710.831	-6.85
710.858	-9.85
710.885	-12.85
710.913	0.15
710.94	14.15
710.967	-4.85
710.995	3.15
711.022	-17.85
711.049	-3.85
711.076	6.15
711.104	2.15
711.131	-28.85
711.158	-5.85
711.185	-8.85
711.213	-21.85
711.24	2.15
711.267	5.15
711.294	5.15
711.322	-5.85
711.349	-5.85
711.376	-4.85
711.403	1.15
711.431	-10.85
711.458	-4.85
711.485	-8.85
711.512	3.15
711.54	-4.85
711.567	-12.85
711.594	-1.85
711.621	-1.85
711.648	2.15
711.676	16.15
711.703	3.15
711.73	-8.85
711.757	2.15
711.784	-16.85
711.812	3.15
711.839	4.15
711.866	-6.85
711.893	-2.85
711.92	12.15
711.947	2.15
711.975	12.15
712.002	10.15
712.029	0.15
712.056	7.15
712.083	8.15
712.11	-27.85
712.138	0.15
712.165	11.15
712.192	-5.85
712.219	-18.85
712.246	-16.85
712.273	6.15
712.3	-15.85
712.328	-1.85
712.355	-11.85
712.382	-14.85
712.409	19.15
712.436	-22.85
712.463	-5.85
712.49	14.15
712.517	23.15
712.544	-4.85
712.572	0.15
712.599	-6.85
712.626	1.15
712.653	-10.85
712.68	-17.85
712.707	2.15
712.734	22.15
712.761	1.15
712.788	-9.85
712.815	9.15
712.842	18.15
712.87	-7.85
712.897	1.15
712.924	-5.85
712.951	3.15
712.978	11.15
713.005	3.15
713.032	9.15
713.059	0.15
713.086	-5.85
713.113	-4.85
713.14	-4.85
713.167	2.15
713.194	11.15
713.221	-5.85
713.248	-10.85
713.275	-4.85
713.302	-14.85
713.329	-13.85
713.356	-1.85
713.383	3.15
713.41	11.15
713.437	-15.85
713.464	3.15
713.491	11.15
713.518	3.15
713.545	-2.85
713.572	-10.85
713.599	-5.85
713.626	6.15
713.653	24.15
713.68	-6.85
713.707	-10.85
713.734	-8.85
713.761	-5.85
713.788	-5.85
713.815	10.15
713.842	-8.85
713.869	1.15
713.896	-2.85
713.923	-4.85
713.95	-1.85
713.977	-8.85
714.004	3.15
714.031	-10.85
714.058	-14.85
714.085	-24.85
714.112	18.15
714.139	6.15
714.165	-4.85
714.192	-9.85
714.219	11.15
714.246	10.15
714.273	0.15
714.3	-4.85
714.327	16.15
714.354	7.15
714.381	-6.85
714.408	8.15
714.435	8.15
714.461	-3.85
714.488	-7.85
714.515	1.15
714.542	-11.85
714.569	-14.85
714.596	-5.85
714.623	-0.85
714.65	-18.85
714.677	4.15
714.703	-4.85
714.73	-0.85
714.757	3.15
714.784	-1.85
714.811	-2.85
714.838	-11.85
714.865	-13.85
714.891	11.15
714.918	-3.85
714.945	-20.85
714.972	4.15
714.999	26.15
715.026	-8.85
715.052	13.15
715.079	-9.85
715.106	-5.85
715.133	2.15
715.16	-2.85
715.187	3.15
715.213	7.15
715.24	-5.85
715.267	-11.85
715.294	-8.85
715.321	-2.85
715.347	-9.85
715.374	-14.85
715.401	-3.85
715.428	-6.85
715.455	-8.85
715.481	-1.85
715.508	19.15
715.535	11.15
715.562	23.15
715.588	-0.85
715.615	7.15
715.642	2.15
715.669	9.15
715.695	-4.85
715.722	-16.85
715.749	-10.85
715.776	11.15
715.802	5.15
715.829	-6.85
715.856	-12.85
715.883	-5.85
715.909	-9.85
715.936	0.15
715.963	9.15
715.99	7.15
716.016	7.15
716.043	2.15
716.07	-2.85
716.096	-2.85
716.123	2.15
716.15	5.15
716.177	-3.85
716.203	23.15
716.23	3.15
716.257	-11.85
716.283	23.15
716.31	0.15
716.337	-5.85
716.363	-4.85
716.39	-6.85
716.417	21.15
716.443	-2.85
716.47	11.15
716.497	18.15
716.523	5.15
716.55	8.15
716.577	14.15
716.603	-2.85
716.63	-4.85
716.657	17.15
716.683	-5.85
716.71	-7.85
716.737	-4.85
716.763	-4.85
716.79	9.15
716.817	9.15
716.843	9.15
716.87	-7.85
716.897	-18.85
716.923	14.15
716.95	-2.85
716.976	3.15
717.003	2.15
717.03	-1.85
717.056	-4.85
717.083	3.15
717.109	4.15
717.136	8.15
717.163	-17.85
717.189	-1.85
717.216	-4.85
717.242	1.15
717.269	-5.85
717.296	-3.85
717.322	2.15
717.349	7.15
717.375	-6.85
717.402	-25.85
717.428	-4.85
717.455	4.15
717.481	-6.85
717.508	-1.85
717.535	-6.85
717.561	2.15
717.588	5.15
717.614	-8.85
717.641	-2.85
717.667	2.15
717.694	-0.85
717.72	-2.85
717.747	-0.85
717.773	-6.85
717.8	10.15
717.826	8.15
717.853	8.15
717.88	-5.85
717.906	0.15
717.933	19.15
717.959	9.15
717.986	6.15
718.012	6.15
718.039	-3.85
718.065	5.15
718.092	6.15
718.118	-2.85
718.144	2.15
718.171	26.15
718.197	21.15
718.224	2.15
718.25	-5.85
718.277	15.15
718.303	17.15
718.33	-0.85
718.356	-0.85
718.383	-19.85
718.409	-4.85
718.436	-1.85
718.462	-5.85
718.489	3.15
718.515	6.15
718.541	8.15
718.568	1.15
718.594	1.15
718.621	2.15
718.647	-12.85
718.674	3.15
718.7	2.15
718.726	-11.85
718.753	5.15
718.779	11.15
718.806	-11.85
718.832	-11.85
718.858	-9.85
718.885	3.15
718.911	-6.85
718.938	7.15
718.964	5.15
718.99	2.15
719.017	2.15
719.043	2.15
719.07	9.15
719.096	-1.85
719.122	12.15
719.149	15.15
719.175	18.15
719.201	14.15
719.228	-12.85
719.254	-4.85
719.281	-13.85
719.307	-11.85
719.333	1.15
719.36	27.15
719.386	-6.85
719.412	15.15
719.439	-8.85
719.465	7.15
719.491	-4.85
719.518	16.15
719.544	8.15
719.57	6.15
719.597	-6.85
719.623	0.15
719.649	-0.85
719.675	-17.85
719.702	-1.85
719.728	18.15
719.754	0.15
719.781	-1.85
719.807	3.15
719.833	0.15
719.86	2.15
719.886	9.15
719.912	6.15
719.938	14.15
719.965	6.15
719.991	2.15
720.017	9.15
720.044	-5.85
720.07	-7.85
720.096	4.15
720.122	-2.85
720.149	9.15
720.175	22.15
720.201	7.15
720.227	-0.85
720.254	-2.85
720.28	-10.85
720.306	-1.85
720.332	-2.85
720.359	13.15
720.385	-0.85
720.411	-0.85
720.437	4.15
720.463	-8.85
720.49	4.15
720.516	-5.85
720.542	-3.85
720.568	-1.85
720.595	-0.85
720.621	2.15
720.647	-2.85
720.673	-0.85
720.699	-0.85
720.725	2.15
720.752	10.15
720.778	8.15
720.804	-8.85
720.83	5.15
720.856	-5.85
720.883	1.15
720.909	2.15
720.935	-9.85
720.961	2.15
720.987	-1.85
721.013	-17.85
721.04	-7.85
721.066	-14.85
721.092	-1.85
721.118	6.15
721.144	2.15
721.17	-8.85
721.196	1.15
721.223	-11.85
721.249	0.15
721.275	19.15
721.301	7.15
721.327	12.15
721.353	9.15
721.379	-1.85
721.405	8.15
721.432	10.15
721.458	5.15
721.484	9.15
721.51	-8.85
721.536	5.15
721.562	5.15
721.588	13.15
721.614	9.15
721.64	1.15
721.666	-13.85
721.693	-1.85
721.719	-1.85
721.745	2.15
721.771	2.15
721.797	-6.85
721.823	7.15
721.849	11.15
721.875	14.15
721.901	-2.85
721.927	-3.85
721.953	1.15
721.979	6.15
722.005	6.15
722.031	-0.85
722.057	-1.85
722.083	5.15
722.109	6.15
722.135	1.15
722.161	7.15
722.187	3.15
722.214	-1.85
722.24	-7.85
722.266	-14.85
722.292	14.15
722.318	10.15
722.344	-2.85
722.37	4.15
722.396	15.15
722.422	1.15
722.448	12.15
722.474	-9.85
722.5	-9.85
722.526	4.15
722.552	3.15
722.578	9.15
722.603	-1.85
722.629	-5.85
722.655	-1.85
722.681	-5.85
722.707	-6.85
722.733	-3.85
722.759	-13.85
722.785	-12.85
722.811	-7.85
722.837	5.15
722.863	-3.85
722.889	18.15
722.915	-5.85
722.941	2.15
722.967	8.15
722.993	7.15
723.019	-0.85
723.045	0.15
723.071	-7.85
723.097	-4.85
723.122	-7.85
723.148	-5.85
723.174	5.15
723.2	15.15
723.226	-7.85
723.252	-2.85
723.278	9.15
723.304	-2.85
723.33	-9.85
723.356	-4.85
723.381	-13.85
723.407	-6.85
723.433	6.15
723.459	1.15
723.485	-13.85
723.511	4.15
723.537	-7.85
723.563	-13.85
723.588	0.15
723.614	8.15
723.64	0.15
723.666	0.15
723.692	16.15
723.718	5.15
723.744	0.15
723.769	-15.85
723.795	-8.85
723.821	1.15
723.847	-6.85
723.873	-5.85
723.899	-3.85
723.924	-6.85
723.95	-10.85
723.976	-9.85
724.002	-7.85
724.028	-4.85
724.053	8.15
724.079	-1.85
724.105	-2.85
724.131	-0.85
724.157	-18.85
724.182	10.15
724.208	-2.85
724.234	-7.85
724.26	-11.85
724.286	9.15
724.311	-3.85
724.337	-5.85
724.363	-5.85
724.389	-7.85
724.415	3.15
724.44	21.15
724.466	2.15
724.492	1.15
724.518	0.15
724.543	5.15
724.569	19.15
724.595	6.15
724.621	-8.85
724.646	-13.85
724.672	-9.85
724.698	-11.85
724.723	-8.85
724.749	-5.85
724.775	3.15
724.801	15.15
724.826	-7.85
724.852	-8.85
724.878	4.15
724.904	-0.85
724.929	3.15
724.955	-2.85
724.981	0.15
725.006	7.15
725.032	5.15
725.058	13.15
725.083	-13.85
725.109	-12.85
725.135	-0.85
725.161	11.15
725.186	-3.85
725.212	15.15
725.238	10.15
725.263	-5.85
725.289	-22.85
725.315	-2.85
725.34	-2.85
725.366	25.15
725.392	-13.85
725.417	-9.85
725.443	5.15
725.468	5.15
725.494	12.15
725.52	15.15
725.545	-9.85
725.571	-0.85
725.597	3.15
725.622	0.15
725.648	3.15
725.674	4.15
725.699	-2.85
725.725	-5.85
725.75	30.15
725.776	0.15
725.802	8.15
725.827	9.15
725.853	12.15
725.878	5.15
725.904	-4.85
725.93	-5.85
725.955	-7.85
725.981	-8.85
726.006	-11.85
726.032	8.15
726.057	-9.85
726.083	-10.85
726.109	-14.85
726.134	-11.85
726.16	7.15
726.185	-1.85
726.211	-9.85
726.236	-6.85
726.262	-6.85
726.288	-8.85
726.313	-7.85
726.339	2.15
726.364	3.15
726.39	-6.85
726.415	9.15
726.441	8.15
726.466	-3.85
726.492	2.15
726.517	4.15
726.543	-2.85
726.568	-11.85
726.594	-16.85
726.619	-4.85
726.645	-6.85
726.67	-5.85
726.696	-6.85
726.721	-6.85
726.747	-10.85
726.772	-5.85
726.798	-16.85
726.823	3.15
726.849	0.15
726.874	14.15
726.9	22.15
726.925	24.15
726.951	-10.85
726.976	9.15
727.002	1.15
727.027	12.15
727.053	10.15
727.078	5.15
727.104	5.15
727.129	-7.85
727.155	-15.85
727.18	-1.85
727.205	0.15
727.231	-4.85
727.256	-5.85
727.282	-3.85
727.307	6.15
727.333	-4.85
727.358	0.15
727.383	-8.85
727.409	-16.85
727.434	-8.85
727.46	-6.85
727.485	-4.85
727.511	12.15
727.536	-17.85
727.561	-10.85
727.587	4.15
727.612	-1.85
727.637	-8.85
727.663	-15.85
727.688	9.15
727.714	-12.85
727.739	-2.85
727.764	-1.85
727.79	-0.85
727.815	3.15
727.841	11.15
727.866	1.15
727.891	-6.85
727.917	-8.85
727.942	-12.85
727.967	7.15
727.993	-12.85
728.018	-12.85
728.043	-9.85
728.069	8.15
728.094	19.15
728.119	-0.85
728.145	-6.85
728.17	-1.85
728.195	2.15
728.221	15.15
728.246	4.15
728.271	-5.85
728.297	15.15
728.322	-0.85
728.347	0.15
728.373	-4.85
728.398	7.15
728.423	0.15
728.448	4.15
728.474	3.15
728.499	0.15
728.524	-17.85
728.55	-3.85
728.575	0.15
728.6	8.15
728.625	7.15
728.651	6.15
728.676	4.15
728.701	5.15
728.727	0.15
728.752	-9.85
728.777	-8.85
728.802	-5.85
728.828	5.15
728.853	0.15
728.878	-11.85
728.903	-4.85
728.929	-15.85
728.954	-8.85
728.979	10.15
729.004	-0.85
729.03	-11.85
729.055	-1.85
729.08	-4.85
729.105	1.15
729.13	1.15
729.156	10.15
729.181	-2.85
729.206	-17.85
729.231	-17.85
729.256	8.15
729.282	-2.85
729.307	-10.85
729.332	-22.85
729.357	-11.85
729.382	-8.85
729.408	0.15
729.433	2.15
729.458	-4.85
729.483	1.15
729.508	20.15
729.533	14.15
729.559	1.15
729.584	-5.85
729.609	-2.85
729.634	23.15
729.659	9.15
729.684	-12.85
729.71	21.15
729.735	14.15
729.76	-3.85
729.785	4.15
729.81	14.15
729.835	-6.85
729.86	-14.85
729.886	-1.85
729.911	2.15
729.936	-5.85
729.961	-1.85
729.986	-12.85
730.011	-2.85
730.036	-7.85
730.061	-2.85
730.086	9.15
730.112	-15.85
730.137	6.15
730.162	-1.85
730.187	-1.85
730.212	3.15
730.237	-6.85
730.262	-6.85
730.287	-5.85
730.312	10.15
730.337	-5.85
730.362	13.15
730.387	-1.85
730.413	-4.85
730.438	17.15
730.463	-1.85
730.488	-10.85
730.513	-1.85
730.538	1.15
730.563	13.15
730.588	2.15
730.613	1.15
730.638	-6.85
730.663	-2.85
730.688	12.15
730.713	19.15
730.738	-21.85
730.763	-5.85
730.788	-2.85
730.813	10.15
730.838	-20.85
730.863	-18.85
730.888	-6.85
730.913	-13.85
730.938	-22.85
730.963	-1.85
730.988	2.15
731.013	10.15
731.038	2.15
731.063	-9.85
731.088	-0.85
731.113	-6.85
731.138	-18.85
731.163	-17.85
731.188	-12.85
731.213	-10.85
731.238	-7.85
731.263	15.15
731.288	-6.85
731.313	20.15
731.338	2.15
731.363	-4.85
731.388	-5.85
731.413	2.15
731.438	12.15
731.463	13.15
731.487	3.15
731.512	-18.85
731.537	-8.85
731.562	2.15
731.587	-1.85
731.612	-6.85
731.637	-7.85
731.662	6.15
731.687	-1.85
731.712	-8.85
731.737	1.15
731.762	-2.85
731.786	-5.85
731.811	-0.85
731.836	6.15
731.861	6.15
731.886	-21.85
731.911	0.15
731.936	12.15
731.961	-6.85
731.986	-12.85
732.01	5.15
732.035	6.15
732.06	12.15
732.085	-9.85
732.11	-13.85
732.135	-17.85
732.16	10.15
732.184	5.15
732.209	-9.85
732.234	7.15
732.259	2.15
732.284	14.15
732.309	-8.85
732.334	-8.85
732.358	-17.85
732.383	-9.85
732.408	-2.85
732.433	-5.85
732.458	-10.85
732.482	0.15
732.507	-15.85
732.532	-10.85
732.557	-0.85
732.582	2.15
732.607	0.15
732.631	-25.85
732.656	-6.85
732.681	0.15
732.706	2.15
732.73	11.15
732.755	-8.85
732.78	-4.85
732.805	-2.85
732.83	-14.85
732.854	-9.85
732.879	13.15
732.904	-5.85
732.929	-1.85
732.953	0.15
732.978	2.15
733.003	-8.85
733.028	-10.85
733.052	5.15
733.077	0.15
733.102	2.15
733.127	15.15
733.151	5.15
733.176	11.15
733.201	-1.85
733.226	-5.85
733.25	1.15
733.275	-5.85
733.3	-1.85
733.324	10.15
733.349	-2.85
733.374	-9.85
733.399	3.15
733.423	12.15
733.448	-5.85
733.473	-6.85
733.497	4.15
733.522	5.15
733.547	16.15
733.571	20.15
733.596	-6.85
733.621	7.15
733.646	-10.85
733.67	-7.85
733.695	-8.85
733.72	14.15
733.744	1.15
733.769	9.15
733.794	14.15
733.818	7.15
733.843	-10.85
733.867	-1.85
733.892	-10.85
733.917	-6.85
733.941	0.15
733.966	-6.85
733.991	-13.85
734.015	6.15
734.04	-6.85
734.065	8.15
734.089	17.15
734.114	-6.85
734.138	29.15
734.163	6.15
734.188	7.15
734.212	10.15
734.237	8.15
734.261	13.15
734.286	8.15
734.311	-1.85
734.335	7.15
734.36	3.15
734.384	9.15
734.409	7.15
734.434	-14.85
734.458	1.15
734.483	-1.85
734.507	-11.85
734.532	6.15
734.556	-11.85
734.581	-10.85
734.606	-13.85
734.63	-5.85
734.655	-2.85
734.679	8.15
734.704	-0.85
734.728	-9.85
734.753	9.15
734.777	-8.85
734.802	-5.85
734.826	7.15
734.851	5.15
734.876	8.15
734.9	12.15
734.925	4.15
734.949	2.15
734.974	-8.85
734.998	30.15
735.023	-6.85
735.047	-24.85
735.072	-1.85
735.096	-5.85
735.121	9.15
735.145	6.15
735.17	-6.85
735.194	-7.85
735.219	-6.85
735.243	-0.85
735.268	15.15
735.292	-10.85
735.317	10.15
735.341	10.15
735.365	-7.85
735.39	9.15
735.414	13.15
735.439	4.15
735.463	2.15
735.488	9.15
735.512	-1.85
735.537	-10.85
735.561	-5.85
735.586	-0.85
735.61	-6.85
735.634	-4.85
735.659	1.15
735.683	24.15
735.708	-8.85
735.732	-5.85
735.757	-2.85
735.781	-0.85
735.805	5.15
735.83	1.15
735.854	-18.85
735.879	-16.85
735.903	1.15
735.927	-4.85
735.952	13.15
735.976	2.15
736.001	-3.85
736.025	-13.85
736.049	-7.85
736.074	3.15
736.098	9.15
736.123	1.15
736.147	-2.85
736.171	-10.85
736.196	20.15
736.22	-8.85
736.244	15.15
736.269	-4.85
736.293	-1.85
736.317	3.15
736.342	3.15
736.366	-17.85
736.39	-1.85
736.415	0.15
736.439	4.15
736.463	6.15
736.488	14.15
736.512	-1.85
736.536	8.15
736.561	15.15
736.585	-9.85
736.609	0.15
736.634	0.15
736.658	-0.85
736.682	-11.85
736.707	-14.85
736.731	-17.85
736.755	-1.85
736.78	11.15
736.804	24.15
736.828	32.15
736.852	-3.85
736.877	-0.85
736.901	-7.85
736.925	-0.85
736.949	23.15
736.974	6.15
736.998	6.15
737.022	-1.85
737.047	-1.85
737.071	-5.85
737.095	-9.85
737.119	22.15
737.144	4.15
737.168	-1.85
737.192	-7.85
737.216	6.15
737.241	-3.85
737.265	6.15
737.289	-1.85
737.313	-6.85
737.337	-2.85
737.362	5.15
737.386	6.15
737.41	-10.85
737.434	-6.85
737.459	-7.85
737.483	-9.85
737.507	7.15
737.531	28.15
737.555	-0.85
737.58	-7.85
737.604	-2.85
737.628	-11.85
737.652	-17.85
737.676	1.15
737.701	2.15
737.725	-1.85
737.749	3.15
737.773	9.15
737.797	-10.85
737.821	0.15
737.846	16.15
737.87	20.15
737.894	-2.85
737.918	-7.85
737.942	-5.85
737.966	9.15
737.99	3.15
738.015	5.15
738.039	3.15
738.063	0.15
738.087	6.15
738.111	-6.85
738.135	6.15
738.159	-1.85
738.184	-8.85
738.208	0.15
738.232	9.15
738.256	16.15
738.28	5.15
738.304	8.15
738.328	-7.85
738.352	0.15
738.376	1.15
738.4	3.15
738.425	-1.85
738.449	-7.85
738.473	-0.85
738.497	-6.85
738.521	3.15
738.545	-1.85
738.569	14.15
738.593	14.15
738.617	12.15
738.641	-11.85
738.665	-7.85
738.689	18.15
738.713	0.15
738.737	-0.85
738.762	15.15
738.786	8.15
738.81	-3.85
738.834	20.15
738.858	4.15
738.882	-0.85
738.906	-12.85
738.93	-2.85
738.954	-12.85
738.978	10.15
739.002	5.15
739.026	0.15
739.05	0.15
739.074	-0.85
739.098	24.15
739.122	11.15
739.146	10.15
739.17	5.15
739.194	16.15
739.218	1.15
739.242	-10.85
739.266	-0.85
739.29	0.15
739.314	8.15
739.338	-3.85
739.362	-1.85
739.386	0.15
739.41	-8.85
739.434	-2.85
739.458	10.15
739.482	20.15
739.506	8.15
739.53	10.15
739.554	6.15
739.577	3.15
739.601	2.15
739.625	2.15
739.649	-10.85
739.673	-9.85
739.697	11.15
739.721	-3.85
739.745	12.15
739.769	2.15
739.793	4.15
739.817	7.15
739.841	2.15
739.865	8.15
739.889	-12.85
739.912	4.15
739.936	-10.85
739.96	13.15
739.984	10.15
740.008	11.15
740.032	-5.85
740.056	5.15
740.08	-3.85
740.104	-9.85
740.127	5.15
740.151	13.15
740.175	33.15
740.199	26.15
740.223	55.15
740.247	14.15
740.271	12.15
740.295	-6.85
740.318	-18.85
740.342	-1.85
740.366	5.15
740.39	-2.85
740.414	-4.85
740.438	-0.85
740.461	9.15
740.485	17.15
740.509	6.15
740.533	14.15
740.557	5.15
740.581	-3.85
740.604	-12.85
740.628	-5.85
740.652	4.15
740.676	-2.85
740.7	10.15
740.723	1.15
740.747	6.15
740.771	-4.85
740.795	-1.85
740.819	17.15
740.842	-0.85
740.866	3.15
740.89	-4.85
740.914	3.15
740.938	-0.85
740.961	20.15
740.985	22.15
741.009	-0.85
741.033	7.15
741.056	-17.85
741.08	-5.85
741.104	-6.85
741.128	-13.85
741.151	-2.85
741.175	3.15
741.199	-10.85
741.223	8.15
741.246	-4.85
741.27	2.15
741.294	-1.85
741.318	6.15
741.341	7.15
741.365	-7.85
741.389	3.15
741.413	18.15
741.436	13.15
741.46	-0.85
741.484	16.15
741.507	13.15
741.531	23.15
741.555	11.15
741.579	7.15
741.602	-2.85
741.626	-1.85
741.65	3.15
741.673	5.15
741.697	-4.85
741.721	-8.85
741.744	-13.85
741.768	-2.85
741.792	-6.85
741.815	-10.85
741.839	-1.85
741.863	16.15
741.886	10.15
741.91	4.15
741.934	22.15
741.957	-17.85
741.981	4.15
742.005	-9.85
742.028	5.15
742.052	-0.85
742.075	7.15
742.099	10.15
742.123	0.15
742.146	15.15
742.17	17.15
742.194	-1.85
742.217	-9.85
742.241	-2.85
742.264	0.15
742.288	14.15
742.312	10.15
742.335	5.15
742.359	5.15
742.382	8.15
742.406	13.15
742.43	-9.85
742.453	6.15
742.477	-7.85
742.5	-7.85
742.524	-10.85
742.548	-13.85
742.571	5.15
742.595	-15.85
742.618	-13.85
742.642	-9.85
742.665	-1.85
742.689	0.15
742.712	7.15
742.736	3.15
742.76	2.15
742.783	0.15
742.807	16.15
742.83	3.15
742.854	-11.85
742.877	-1.85
742.901	-9.85
742.924	5.15
742.948	-5.85
742.971	-8.85
742.995	0.15
743.018	-4.85
743.042	4.15
743.065	0.15
743.089	-1.85
743.112	1.15
743.136	-11.85
743.159	-13.85
743.183	-2.85
743.206	3.15
743.23	5.15
743.253	-0.85
743.277	9.15
743.3	-5.85
743.324	-1.85
743.347	-3.85
743.371	9.15
743.394	13.15
743.418	22.15
743.441	-0.85
743.465	17.15
743.488	0.15
743.512	-4.85
743.535	-2.85
743.558	-16.85
743.582	-0.85
743.605	17.15
743.629	16.15
743.652	1.15
743.676	4.15
743.699	3.15
743.723	6.15
743.746	16.15
743.769	0.15
743.793	0.15
743.816	-0.85
743.84	4.15
743.863	-4.85
743.886	8.15
743.91	12.15
743.933	14.15
743.957	12.15
743.98	-8.85
744.003	1.15
744.027	-2.85
744.05	2.15
744.074	-0.85
744.097	-18.85
744.12	-15.85
744.144	-16.85
744.167	11.15
744.19	5.15
744.214	4.15
744.237	-5.85
744.26	13.15
744.284	1.15
744.307	-12.85
744.331	-1.85
744.354	-13.85
744.377	4.15
744.401	5.15
744.424	5.15
744.447	-5.85
744.471	-14.85
