Data from HighRes_H2_15_09_11_07_2024_HR4C61891__141__15-11-10-501.txt Node

Date: Thu Nov 07 15:11:10 EST 2024
User: crc00042
Spectrometer: HR4C6189
Trigger mode: 4
Integration Time (sec): 1.000000E-1
Scans to average: 1
Electric dark correction enabled: true
Nonlinearity correction enabled: false
Boxcar width: 0
XAxis mode: Wavelengths
Number of Pixels in Spectrum: 3648
>>>>>Begin Spectral Data<<<<<
639.567	-14.23
639.602	-14.23
639.636	-14.23
639.67	-45.23
639.704	-17.23
639.738	1.77
639.773	-5.23
639.807	-19.23
639.841	-0.23
639.875	5.77
639.909	18.77
639.943	-12.23
639.978	7.77
640.012	4.77
640.046	13.77
640.08	3.77
640.114	-3.23
640.148	-16.23
640.182	-3.23
640.217	5.77
640.251	21.77
640.285	0.77
640.319	-10.23
640.353	-4.23
640.387	10.77
640.421	-5.23
640.455	-11.23
640.49	5.77
640.524	-16.23
640.558	3.77
640.592	-1.23
640.626	-12.23
640.66	-16.23
640.694	-16.23
640.728	22.77
640.762	-1.23
640.796	12.77
640.83	21.77
640.865	-9.23
640.899	6.77
640.933	-5.23
640.967	-7.23
641.001	6.77
641.035	10.77
641.069	3.77
641.103	-12.23
641.137	-6.23
641.171	-6.23
641.205	8.77
641.239	-0.23
641.273	10.77
641.307	6.77
641.341	-7.23
641.375	-3.23
641.409	-6.23
641.443	10.77
641.477	8.77
641.511	5.77
641.545	2.77
641.579	15.77
641.614	4.77
641.648	-2.23
641.682	-21.23
641.716	5.77
641.75	21.77
641.784	6.77
641.818	-0.23
641.852	2.77
641.886	8.77
641.919	21.77
641.953	-4.23
641.987	-11.23
642.021	-4.23
642.055	-2.23
642.089	0.77
642.123	-12.23
642.157	3.77
642.191	-4.23
642.225	19.77
642.259	0.77
642.293	12.77
642.327	7.77
642.361	-2.23
642.395	15.77
642.429	21.77
642.463	0.77
642.497	16.77
642.531	-4.23
642.565	-11.23
642.599	4.77
642.633	9.77
642.666	29.77
642.7	17.77
642.734	8.77
642.768	-15.23
642.802	-8.23
642.836	10.77
642.87	-15.23
642.904	7.77
642.938	18.77
642.972	-16.23
643.005	-11.23
643.039	5.77
643.073	3.77
643.107	-2.23
643.141	-12.23
643.175	5.77
643.209	4.77
643.243	-4.23
643.276	8.77
643.31	-5.23
643.344	-8.23
643.378	-15.23
643.412	14.77
643.446	-4.23
643.48	-7.23
643.513	5.77
643.547	-2.23
643.581	-2.23
643.615	10.77
643.649	-0.23
643.683	4.77
643.716	12.77
643.75	4.77
643.784	6.77
643.818	6.77
643.852	-3.23
643.886	-8.23
643.919	13.77
643.953	4.77
643.987	-3.23
644.021	14.77
644.055	20.77
644.088	4.77
644.122	1.77
644.156	1.77
644.19	5.77
644.224	5.77
644.257	-6.23
644.291	20.77
644.325	9.77
644.359	0.77
644.392	7.77
644.426	15.77
644.46	13.77
644.494	16.77
644.527	1.77
644.561	-8.23
644.595	2.77
644.629	5.77
644.662	-20.23
644.696	5.77
644.73	-4.23
644.764	-1.23
644.797	-5.23
644.831	1.77
644.865	10.77
644.899	-0.23
644.932	28.77
644.966	7.77
645	12.77
645.033	15.77
645.067	-3.23
645.101	1.77
645.135	-7.23
645.168	-9.23
645.202	3.77
645.236	-5.23
645.269	20.77
645.303	3.77
645.337	-3.23
645.37	1.77
645.404	-15.23
645.438	6.77
645.471	-4.23
645.505	1.77
645.539	5.77
645.572	1.77
645.606	-6.23
645.64	4.77
645.673	16.77
645.707	17.77
645.741	-3.23
645.774	-13.23
645.808	-6.23
645.842	-18.23
645.875	0.77
645.909	18.77
645.943	7.77
645.976	5.77
646.01	8.77
646.043	19.77
646.077	12.77
646.111	-7.23
646.144	10.77
646.178	22.77
646.212	-10.23
646.245	2.77
646.279	16.77
646.312	9.77
646.346	27.77
646.38	6.77
646.413	15.77
646.447	5.77
646.48	2.77
646.514	4.77
646.547	1.77
646.581	-12.23
646.615	3.77
646.648	-12.23
646.682	-14.23
646.715	-12.23
646.749	6.77
646.782	5.77
646.816	4.77
646.85	2.77
646.883	-8.23
646.917	13.77
646.95	8.77
646.984	17.77
647.017	4.77
647.051	3.77
647.084	10.77
647.118	2.77
647.151	3.77
647.185	21.77
647.218	-2.23
647.252	4.77
647.285	-6.23
647.319	-16.23
647.353	1.77
647.386	16.77
647.42	4.77
647.453	1.77
647.487	3.77
647.52	-3.23
647.553	-4.23
647.587	-9.23
647.62	3.77
647.654	9.77
647.687	7.77
647.721	-9.23
647.754	-1.23
647.788	-13.23
647.821	-12.23
647.855	2.77
647.888	-2.23
647.922	11.77
647.955	9.77
647.989	26.77
648.022	5.77
648.055	8.77
648.089	-12.23
648.122	18.77
648.156	11.77
648.189	4.77
648.223	18.77
648.256	27.77
648.29	11.77
648.323	1.77
648.356	14.77
648.39	17.77
648.423	11.77
648.457	8.77
648.49	8.77
648.523	6.77
648.557	0.77
648.59	10.77
648.624	15.77
648.657	8.77
648.69	21.77
648.724	20.77
648.757	32.77
648.791	11.77
648.824	9.77
648.857	29.77
648.891	2.77
648.924	-9.23
648.957	8.77
648.991	-0.23
649.024	18.77
649.057	3.77
649.091	9.77
649.124	16.77
649.158	4.77
649.191	27.77
649.224	7.77
649.258	14.77
649.291	15.77
649.324	-1.23
649.358	-11.23
649.391	13.77
649.424	-0.23
649.458	5.77
649.491	9.77
649.524	11.77
649.557	-3.23
649.591	-14.23
649.624	15.77
649.657	-3.23
649.691	7.77
649.724	6.77
649.757	4.77
649.791	4.77
649.824	19.77
649.857	6.77
649.89	2.77
649.924	-1.23
649.957	-5.23
649.99	-24.23
650.023	-6.23
650.057	-13.23
650.09	5.77
650.123	-5.23
650.157	10.77
650.19	19.77
650.223	-5.23
650.256	-14.23
650.29	-0.23
650.323	-11.23
650.356	20.77
650.389	-14.23
650.423	-4.23
650.456	4.77
650.489	16.77
650.522	20.77
650.555	5.77
650.589	16.77
650.622	16.77
650.655	17.77
650.688	-3.23
650.721	-3.23
650.755	-10.23
650.788	-0.23
650.821	2.77
650.854	9.77
650.887	9.77
650.921	4.77
650.954	4.77
650.987	5.77
651.02	-3.23
651.053	0.77
651.087	-5.23
651.12	12.77
651.153	12.77
651.186	-11.23
651.219	-19.23
651.252	26.77
651.286	4.77
651.319	-3.23
651.352	-12.23
651.385	12.77
651.418	14.77
651.451	6.77
651.484	1.77
651.518	-10.23
651.551	31.77
651.584	-2.23
651.617	10.77
651.65	-17.23
651.683	12.77
651.716	2.77
651.749	-1.23
651.783	15.77
651.816	25.77
651.849	15.77
651.882	3.77
651.915	4.77
651.948	6.77
651.981	0.77
652.014	-6.23
652.047	-12.23
652.08	-7.23
652.114	10.77
652.147	-6.23
652.18	-1.23
652.213	36.77
652.246	3.77
652.279	5.77
652.312	21.77
652.345	-8.23
652.378	6.77
652.411	18.77
652.444	7.77
652.477	11.77
652.51	-2.23
652.543	-3.23
652.576	16.77
652.609	-3.23
652.642	5.77
652.675	8.77
652.709	-6.23
652.742	8.77
652.775	7.77
652.808	-2.23
652.841	7.77
652.874	-4.23
652.907	0.77
652.94	7.77
652.973	-8.23
653.006	2.77
653.039	11.77
653.072	18.77
653.105	7.77
653.138	-2.23
653.171	-15.23
653.204	-7.23
653.237	-5.23
653.27	-9.23
653.303	-6.23
653.336	2.77
653.368	4.77
653.401	7.77
653.434	-8.23
653.467	1.77
653.5	-13.23
653.533	-8.23
653.566	5.77
653.599	3.77
653.632	19.77
653.665	-1.23
653.698	-12.23
653.731	-3.23
653.764	5.77
653.797	2.77
653.83	13.77
653.863	6.77
653.896	5.77
653.929	-8.23
653.961	0.77
653.994	2.77
654.027	-13.23
654.06	6.77
654.093	12.77
654.126	-1.23
654.159	-17.23
654.192	10.77
654.225	-2.23
654.258	-1.23
654.29	9.77
654.323	3.77
654.356	-0.23
654.389	-4.23
654.422	4.77
654.455	2.77
654.488	9.77
654.521	-3.23
654.553	-7.23
654.586	17.77
654.619	1.77
654.652	-10.23
654.685	-0.23
654.718	13.77
654.751	10.77
654.783	-4.23
654.816	13.77
654.849	9.77
654.882	-11.23
654.915	-13.23
654.948	6.77
654.98	-1.23
655.013	18.77
655.046	2.77
655.079	-9.23
655.112	3.77
655.144	-2.23
655.177	3.77
655.21	11.77
655.243	18.77
655.276	4.77
655.308	-9.23
655.341	2.77
655.374	7.77
655.407	-5.23
655.44	-3.23
655.472	2.77
655.505	3.77
655.538	0.77
655.571	1.77
655.603	-2.23
655.636	2.77
655.669	26.77
655.702	17.77
655.734	12.77
655.767	19.77
655.8	14.77
655.833	20.77
655.865	34.77
655.898	11.77
655.931	20.77
655.964	27.77
655.996	55.77
656.029	56.77
656.062	44.77
656.095	68.77
656.127	65.77
656.16	107.77
656.193	124.77
656.225	169.77
656.258	272.77
656.291	513.77
656.324	1128.77
656.356	3360.77
656.389	7587.77
656.422	6116.77
656.454	2056.77
656.487	670.77
656.52	259.77
656.552	134.77
656.585	79.77
656.618	52.77
656.65	55.77
656.683	29.77
656.716	20.77
656.748	11.77
656.781	-4.23
656.814	4.77
656.846	2.77
656.879	-4.23
656.912	2.77
656.944	-27.23
656.977	-23.23
657.01	-9.23
657.042	10.77
657.075	7.77
657.108	-4.23
657.14	12.77
657.173	13.77
657.205	18.77
657.238	12.77
657.271	16.77
657.303	-0.23
657.336	-5.23
657.369	-4.23
657.401	-2.23
657.434	-1.23
657.466	-5.23
657.499	4.77
657.532	-4.23
657.564	6.77
657.597	2.77
657.629	4.77
657.662	1.77
657.694	11.77
657.727	-19.23
657.76	20.77
657.792	2.77
657.825	12.77
657.857	2.77
657.89	2.77
657.922	1.77
657.955	3.77
657.987	-7.23
658.02	13.77
658.053	11.77
658.085	11.77
658.118	0.77
658.15	1.77
658.183	7.77
658.215	-8.23
658.248	-2.23
658.28	-1.23
658.313	-1.23
658.345	2.77
658.378	-2.23
658.41	-3.23
658.443	5.77
658.475	2.77
658.508	4.77
658.54	-3.23
658.573	2.77
658.605	-2.23
658.638	-2.23
658.67	1.77
658.703	-8.23
658.735	1.77
658.768	2.77
658.8	0.77
658.833	12.77
658.865	-10.23
658.898	-3.23
658.93	-0.23
658.963	-5.23
658.995	-17.23
659.028	-11.23
659.06	-0.23
659.092	3.77
659.125	9.77
659.157	21.77
659.19	-4.23
659.222	-15.23
659.255	-4.23
659.287	-14.23
659.32	4.77
659.352	0.77
659.384	-9.23
659.417	2.77
659.449	13.77
659.482	8.77
659.514	-3.23
659.546	-6.23
659.579	-17.23
659.611	5.77
659.644	-6.23
659.676	-3.23
659.708	-4.23
659.741	-15.23
659.773	7.77
659.806	7.77
659.838	12.77
659.87	5.77
659.903	-7.23
659.935	1.77
659.967	10.77
660	-1.23
660.032	-20.23
660.065	16.77
660.097	2.77
660.129	-15.23
660.162	-12.23
660.194	14.77
660.226	24.77
660.259	5.77
660.291	-14.23
660.323	4.77
660.356	1.77
660.388	9.77
660.42	-9.23
660.453	7.77
660.485	15.77
660.517	18.77
660.55	8.77
660.582	-3.23
660.614	0.77
660.647	3.77
660.679	-15.23
660.711	5.77
660.743	-4.23
660.776	6.77
660.808	-14.23
660.84	6.77
660.873	-4.23
660.905	-8.23
660.937	3.77
660.969	-2.23
661.002	-1.23
661.034	17.77
661.066	1.77
661.099	10.77
661.131	16.77
661.163	8.77
661.195	3.77
661.228	12.77
661.26	0.77
661.292	-5.23
661.324	8.77
661.357	-3.23
661.389	-8.23
661.421	10.77
661.453	1.77
661.485	24.77
661.518	18.77
661.55	-0.23
661.582	-20.23
661.614	-19.23
661.647	17.77
661.679	9.77
661.711	8.77
661.743	-1.23
661.775	-6.23
661.808	20.77
661.84	-5.23
661.872	5.77
661.904	9.77
661.936	10.77
661.969	-11.23
662.001	-7.23
662.033	14.77
662.065	-19.23
662.097	11.77
662.129	13.77
662.162	-7.23
662.194	4.77
662.226	-0.23
662.258	10.77
662.29	5.77
662.322	-14.23
662.355	-14.23
662.387	8.77
662.419	6.77
662.451	21.77
662.483	16.77
662.515	4.77
662.547	-15.23
662.58	-6.23
662.612	3.77
662.644	-9.23
662.676	13.77
662.708	22.77
662.74	8.77
662.772	20.77
662.804	5.77
662.836	-7.23
662.869	-0.23
662.901	22.77
662.933	-3.23
662.965	18.77
662.997	20.77
663.029	-8.23
663.061	-11.23
663.093	-7.23
663.125	12.77
663.157	5.77
663.189	11.77
663.221	10.77
663.254	-5.23
663.286	1.77
663.318	0.77
663.35	-5.23
663.382	-6.23
663.414	0.77
663.446	11.77
663.478	2.77
663.51	9.77
663.542	0.77
663.574	7.77
663.606	6.77
663.638	-1.23
663.67	-1.23
663.702	-8.23
663.734	11.77
663.766	15.77
663.798	4.77
663.83	-2.23
663.862	4.77
663.894	0.77
663.926	-3.23
663.958	9.77
663.99	7.77
664.022	-8.23
664.054	5.77
664.086	2.77
664.118	-10.23
664.15	-20.23
664.182	-9.23
664.214	-5.23
664.246	6.77
664.278	9.77
664.31	18.77
664.342	-2.23
664.374	2.77
664.406	-11.23
664.438	0.77
664.47	9.77
664.502	9.77
664.534	13.77
664.566	-2.23
664.598	8.77
664.63	-6.23
664.662	-11.23
664.693	-6.23
664.725	-3.23
664.757	-1.23
664.789	-6.23
664.821	-14.23
664.853	-4.23
664.885	-4.23
664.917	1.77
664.949	7.77
664.981	5.77
665.013	-7.23
665.045	-14.23
665.076	-0.23
665.108	-0.23
665.14	-9.23
665.172	5.77
665.204	-7.23
665.236	-2.23
665.268	18.77
665.3	-1.23
665.331	-8.23
665.363	-3.23
665.395	2.77
665.427	-7.23
665.459	-1.23
665.491	-10.23
665.523	7.77
665.555	-2.23
665.586	12.77
665.618	3.77
665.65	-4.23
665.682	6.77
665.714	10.77
665.746	-3.23
665.777	1.77
665.809	2.77
665.841	4.77
665.873	2.77
665.905	9.77
665.937	21.77
665.968	4.77
666	0.77
666.032	-10.23
666.064	-4.23
666.096	2.77
666.127	-7.23
666.159	-3.23
666.191	13.77
666.223	2.77
666.255	0.77
666.286	21.77
666.318	-2.23
666.35	9.77
666.382	-0.23
666.413	-2.23
666.445	-16.23
666.477	-2.23
666.509	-3.23
666.54	8.77
666.572	5.77
666.604	-4.23
666.636	-4.23
666.667	11.77
666.699	9.77
666.731	4.77
666.763	-1.23
666.794	-1.23
666.826	15.77
666.858	-13.23
666.89	5.77
666.921	-15.23
666.953	4.77
666.985	12.77
667.017	20.77
667.048	7.77
667.08	6.77
667.112	3.77
667.143	-15.23
667.175	-1.23
667.207	-6.23
667.238	12.77
667.27	6.77
667.302	-5.23
667.334	3.77
667.365	12.77
667.397	-1.23
667.429	-18.23
667.46	10.77
667.492	10.77
667.524	4.77
667.555	8.77
667.587	6.77
667.619	-8.23
667.65	-18.23
667.682	-7.23
667.714	4.77
667.745	-0.23
667.777	8.77
667.808	3.77
667.84	13.77
667.872	-4.23
667.903	17.77
667.935	0.77
667.967	0.77
667.998	1.77
668.03	-7.23
668.061	-0.23
668.093	-16.23
668.125	-5.23
668.156	-11.23
668.188	5.77
668.22	4.77
668.251	0.77
668.283	6.77
668.314	16.77
668.346	-0.23
668.377	2.77
668.409	-7.23
668.441	4.77
668.472	11.77
668.504	12.77
668.535	9.77
668.567	6.77
668.599	7.77
668.63	-5.23
668.662	8.77
668.693	16.77
668.725	7.77
668.756	23.77
668.788	6.77
668.819	8.77
668.851	4.77
668.882	3.77
668.914	0.77
668.946	3.77
668.977	-10.23
669.009	-23.23
669.04	-22.23
669.072	-4.23
669.103	2.77
669.135	9.77
669.166	12.77
669.198	-2.23
669.229	17.77
669.261	-2.23
669.292	0.77
669.324	1.77
669.355	6.77
669.387	-4.23
669.418	-0.23
669.45	-5.23
669.481	9.77
669.513	15.77
669.544	4.77
669.576	5.77
669.607	22.77
669.639	8.77
669.67	-2.23
669.701	3.77
669.733	-10.23
669.764	-4.23
669.796	10.77
669.827	13.77
669.859	4.77
669.89	8.77
669.922	26.77
669.953	7.77
669.985	-4.23
670.016	19.77
670.047	10.77
670.079	4.77
670.11	3.77
670.142	15.77
670.173	11.77
670.204	1.77
670.236	1.77
670.267	-11.23
670.299	-0.23
670.33	5.77
670.362	11.77
670.393	-5.23
670.424	14.77
670.456	-5.23
670.487	-5.23
670.518	3.77
670.55	4.77
670.581	-1.23
670.613	-4.23
670.644	-11.23
670.675	-13.23
670.707	-2.23
670.738	-11.23
670.769	-10.23
670.801	-12.23
670.832	-2.23
670.864	-10.23
670.895	5.77
670.926	0.77
670.958	-13.23
670.989	8.77
671.02	0.77
671.052	-7.23
671.083	-6.23
671.114	-3.23
671.146	12.77
671.177	3.77
671.208	-6.23
671.24	5.77
671.271	2.77
671.302	7.77
671.333	-12.23
671.365	-1.23
671.396	5.77
671.427	-6.23
671.459	3.77
671.49	17.77
671.521	10.77
671.553	-2.23
671.584	1.77
671.615	-23.23
671.646	0.77
671.678	7.77
671.709	3.77
671.74	-11.23
671.771	4.77
671.803	4.77
671.834	-2.23
671.865	-6.23
671.896	1.77
671.928	-2.23
671.959	-6.23
671.99	0.77
672.021	-0.23
672.053	-11.23
672.084	-1.23
672.115	14.77
672.146	-10.23
672.178	-18.23
672.209	-7.23
672.24	8.77
672.271	26.77
672.303	10.77
672.334	6.77
672.365	-8.23
672.396	-1.23
672.427	9.77
672.459	0.77
672.49	21.77
672.521	10.77
672.552	5.77
672.583	4.77
672.615	9.77
672.646	16.77
672.677	-3.23
672.708	5.77
672.739	-11.23
672.77	1.77
672.802	9.77
672.833	23.77
672.864	6.77
672.895	-15.23
672.926	-5.23
672.957	-10.23
672.989	12.77
673.02	8.77
673.051	-9.23
673.082	22.77
673.113	1.77
673.144	-0.23
673.175	5.77
673.206	-5.23
673.238	11.77
673.269	15.77
673.3	1.77
673.331	2.77
673.362	3.77
673.393	1.77
673.424	8.77
673.455	4.77
673.487	-6.23
673.518	9.77
673.549	12.77
673.58	-1.23
673.611	4.77
673.642	-9.23
673.673	-17.23
673.704	-15.23
673.735	-9.23
673.766	0.77
673.797	6.77
673.828	-4.23
673.86	1.77
673.891	10.77
673.922	2.77
673.953	-3.23
673.984	-0.23
674.015	-6.23
674.046	-2.23
674.077	-9.23
674.108	3.77
674.139	-4.23
674.17	-9.23
674.201	-19.23
674.232	-15.23
674.263	-1.23
674.294	6.77
674.325	-25.23
674.356	4.77
674.387	21.77
674.418	-2.23
674.449	-3.23
674.48	-6.23
674.511	-3.23
674.542	8.77
674.573	-12.23
674.604	22.77
674.635	5.77
674.666	12.77
674.697	4.77
674.728	14.77
674.759	21.77
674.79	-8.23
674.821	-27.23
674.852	-6.23
674.883	14.77
674.914	-2.23
674.945	0.77
674.976	-3.23
675.007	-0.23
675.038	-4.23
675.069	-13.23
675.1	-12.23
675.131	1.77
675.162	-16.23
675.193	-12.23
675.224	-15.23
675.254	3.77
675.285	4.77
675.316	10.77
675.347	10.77
675.378	-6.23
675.409	-1.23
675.44	-2.23
675.471	2.77
675.502	-0.23
675.533	0.77
675.564	-4.23
675.595	-16.23
675.625	4.77
675.656	13.77
675.687	11.77
675.718	-23.23
675.749	17.77
675.78	1.77
675.811	-21.23
675.842	4.77
675.873	8.77
675.903	0.77
675.934	1.77
675.965	-8.23
675.996	3.77
676.027	-6.23
676.058	0.77
676.089	-15.23
676.119	10.77
676.15	-1.23
676.181	-8.23
676.212	-20.23
676.243	0.77
676.274	-3.23
676.304	10.77
676.335	-2.23
676.366	10.77
676.397	1.77
676.428	-0.23
676.459	16.77
676.489	20.77
676.52	-1.23
676.551	9.77
676.582	-6.23
676.613	-1.23
676.643	-11.23
676.674	9.77
676.705	29.77
676.736	24.77
676.767	23.77
676.797	4.77
676.828	3.77
676.859	-13.23
676.89	4.77
676.92	6.77
676.951	0.77
676.982	19.77
677.013	-2.23
677.044	16.77
677.074	-6.23
677.105	-10.23
677.136	-2.23
677.167	1.77
677.197	14.77
677.228	-0.23
677.259	-18.23
677.289	-11.23
677.32	-19.23
677.351	-3.23
677.382	2.77
677.412	-0.23
677.443	16.77
677.474	0.77
677.505	-22.23
677.535	3.77
677.566	-5.23
677.597	-13.23
677.627	-15.23
677.658	-6.23
677.689	2.77
677.72	-1.23
677.75	5.77
677.781	3.77
677.812	4.77
677.842	10.77
677.873	-6.23
677.904	4.77
677.934	1.77
677.965	-4.23
677.996	1.77
678.026	12.77
678.057	-10.23
678.088	-7.23
678.118	-3.23
678.149	-8.23
678.18	-5.23
678.21	4.77
678.241	15.77
678.272	5.77
678.302	-2.23
678.333	3.77
678.363	-10.23
678.394	4.77
678.425	-1.23
678.455	0.77
678.486	7.77
678.517	-2.23
678.547	-2.23
678.578	-11.23
678.608	-11.23
678.639	-1.23
678.67	1.77
678.7	-14.23
678.731	-1.23
678.761	-5.23
678.792	5.77
678.823	8.77
678.853	-4.23
678.884	-5.23
678.914	9.77
678.945	0.77
678.975	3.77
679.006	12.77
679.037	-12.23
679.067	13.77
679.098	-13.23
679.128	2.77
679.159	-4.23
679.189	2.77
679.22	-1.23
679.25	-5.23
679.281	-6.23
679.312	-4.23
679.342	2.77
679.373	25.77
679.403	0.77
679.434	-4.23
679.464	10.77
679.495	4.77
679.525	-1.23
679.556	-2.23
679.586	22.77
679.617	3.77
679.647	0.77
679.678	0.77
679.708	6.77
679.739	6.77
679.769	-10.23
679.8	-3.23
679.83	3.77
679.861	11.77
679.891	-3.23
679.922	-6.23
679.952	8.77
679.983	15.77
680.013	5.77
680.044	-6.23
680.074	3.77
680.105	0.77
680.135	-0.23
680.165	6.77
680.196	7.77
680.226	1.77
680.257	0.77
680.287	-8.23
680.318	-4.23
680.348	4.77
680.379	9.77
680.409	-7.23
680.439	3.77
680.47	-4.23
680.5	1.77
680.531	-2.23
680.561	-3.23
680.592	2.77
680.622	16.77
680.652	1.77
680.683	13.77
680.713	0.77
680.744	2.77
680.774	-11.23
680.804	1.77
680.835	-3.23
680.865	6.77
680.896	21.77
680.926	15.77
680.956	3.77
680.987	7.77
681.017	1.77
681.047	10.77
681.078	-4.23
681.108	-4.23
681.139	1.77
681.169	9.77
681.199	5.77
681.23	1.77
681.26	5.77
681.29	8.77
681.321	-18.23
681.351	-1.23
681.381	9.77
681.412	16.77
681.442	1.77
681.472	5.77
681.503	-6.23
681.533	-6.23
681.563	2.77
681.594	-4.23
681.624	4.77
681.654	1.77
681.685	-5.23
681.715	0.77
681.745	-6.23
681.775	-5.23
681.806	-2.23
681.836	-2.23
681.866	2.77
681.897	4.77
681.927	-11.23
681.957	-15.23
681.987	3.77
682.018	-0.23
682.048	1.77
682.078	-0.23
682.109	4.77
682.139	14.77
682.169	9.77
682.199	13.77
682.23	-5.23
682.26	3.77
682.29	-0.23
682.32	5.77
682.351	-2.23
682.381	4.77
682.411	7.77
682.441	-8.23
682.472	2.77
682.502	-4.23
682.532	-1.23
682.562	2.77
682.592	13.77
682.623	-0.23
682.653	-6.23
682.683	-8.23
682.713	1.77
682.743	-6.23
682.774	2.77
682.804	17.77
682.834	12.77
682.864	-10.23
682.894	-2.23
682.925	-4.23
682.955	-5.23
682.985	2.77
683.015	6.77
683.045	13.77
683.076	-12.23
683.106	11.77
683.136	-2.23
683.166	-9.23
683.196	-10.23
683.226	-2.23
683.257	-8.23
683.287	11.77
683.317	-6.23
683.347	-4.23
683.377	5.77
683.407	5.77
683.437	18.77
683.468	16.77
683.498	9.77
683.528	-5.23
683.558	-0.23
683.588	-1.23
683.618	-14.23
683.648	-11.23
683.678	-0.23
683.708	6.77
683.739	-5.23
683.769	-16.23
683.799	-6.23
683.829	11.77
683.859	-2.23
683.889	6.77
683.919	2.77
683.949	-4.23
683.979	-0.23
684.009	-2.23
684.039	-24.23
684.07	1.77
684.1	8.77
684.13	7.77
684.16	3.77
684.19	-7.23
684.22	6.77
684.25	-0.23
684.28	-13.23
684.31	14.77
684.34	17.77
684.37	8.77
684.4	5.77
684.43	0.77
684.46	4.77
684.49	17.77
684.52	12.77
684.55	1.77
684.58	25.77
684.61	3.77
684.64	17.77
684.67	-2.23
684.7	-4.23
684.73	14.77
684.76	4.77
684.79	14.77
684.82	-20.23
684.85	-8.23
684.88	0.77
684.91	0.77
684.94	2.77
684.97	5.77
685	-6.23
685.03	-1.23
685.06	-3.23
685.09	-2.23
685.12	10.77
685.15	-0.23
685.18	8.77
685.21	5.77
685.24	23.77
685.27	8.77
685.3	-7.23
685.33	16.77
685.36	9.77
685.39	-6.23
685.42	-13.23
685.45	-7.23
685.48	6.77
685.51	7.77
685.54	10.77
685.569	19.77
685.599	20.77
685.629	3.77
685.659	5.77
685.689	5.77
685.719	10.77
685.749	-27.23
685.779	14.77
685.809	12.77
685.839	7.77
685.869	6.77
685.898	19.77
685.928	-6.23
685.958	-1.23
685.988	8.77
686.018	-9.23
686.048	9.77
686.078	16.77
686.108	13.77
686.137	12.77
686.167	15.77
686.197	-12.23
686.227	-19.23
686.257	24.77
686.287	17.77
686.317	-0.23
686.346	-6.23
686.376	0.77
686.406	8.77
686.436	9.77
686.466	-6.23
686.496	-2.23
686.525	4.77
686.555	-5.23
686.585	6.77
686.615	-3.23
686.645	19.77
686.675	9.77
686.704	7.77
686.734	5.77
686.764	-7.23
686.794	9.77
686.824	-5.23
686.853	6.77
686.883	16.77
686.913	6.77
686.943	7.77
686.973	1.77
687.002	-2.23
687.032	9.77
687.062	-2.23
687.092	18.77
687.121	4.77
687.151	7.77
687.181	0.77
687.211	12.77
687.24	4.77
687.27	2.77
687.3	-0.23
687.33	1.77
687.359	-11.23
687.389	-5.23
687.419	16.77
687.449	2.77
687.478	1.77
687.508	7.77
687.538	14.77
687.568	10.77
687.597	-3.23
687.627	-6.23
687.657	3.77
687.686	-1.23
687.716	-0.23
687.746	-10.23
687.776	-14.23
687.805	7.77
687.835	6.77
687.865	26.77
687.894	19.77
687.924	1.77
687.954	-2.23
687.983	-0.23
688.013	20.77
688.043	7.77
688.072	7.77
688.102	17.77
688.132	6.77
688.161	0.77
688.191	-4.23
688.221	29.77
688.25	1.77
688.28	0.77
688.31	-6.23
688.339	1.77
688.369	5.77
688.399	-6.23
688.428	7.77
688.458	12.77
688.488	9.77
688.517	8.77
688.547	1.77
688.576	40.77
688.606	18.77
688.636	-9.23
688.665	12.77
688.695	-4.23
688.725	12.77
688.754	13.77
688.784	1.77
688.813	14.77
688.843	2.77
688.873	0.77
688.902	-4.23
688.932	-0.23
688.961	0.77
688.991	5.77
689.02	-0.23
689.05	-1.23
689.08	20.77
689.109	13.77
689.139	-3.23
689.168	0.77
689.198	-5.23
689.227	-14.23
689.257	0.77
689.287	11.77
689.316	9.77
689.346	-10.23
689.375	-7.23
689.405	12.77
689.434	1.77
689.464	-0.23
689.493	-2.23
689.523	-3.23
689.552	11.77
689.582	9.77
689.611	6.77
689.641	11.77
689.67	14.77
689.7	1.77
689.73	8.77
689.759	-3.23
689.789	20.77
689.818	-9.23
689.848	6.77
689.877	16.77
689.906	-8.23
689.936	-14.23
689.965	-12.23
689.995	14.77
690.024	12.77
690.054	10.77
690.083	-0.23
690.113	-4.23
690.142	9.77
690.172	3.77
690.201	0.77
690.231	0.77
690.26	16.77
690.29	5.77
690.319	13.77
690.348	1.77
690.378	1.77
690.407	16.77
690.437	-3.23
690.466	17.77
690.496	6.77
690.525	8.77
690.555	2.77
690.584	-1.23
690.613	-0.23
690.643	4.77
690.672	16.77
690.702	0.77
690.731	-0.23
690.76	5.77
690.79	-2.23
690.819	-18.23
690.849	-3.23
690.878	-0.23
690.907	-7.23
690.937	5.77
690.966	3.77
690.996	9.77
691.025	5.77
691.054	-1.23
691.084	-4.23
691.113	3.77
691.142	2.77
691.172	1.77
691.201	10.77
691.23	4.77
691.26	13.77
691.289	7.77
691.319	-8.23
691.348	-12.23
691.377	16.77
691.407	17.77
691.436	17.77
691.465	16.77
691.495	14.77
691.524	-21.23
691.553	-1.23
691.583	6.77
691.612	10.77
691.641	8.77
691.67	7.77
691.7	19.77
691.729	-11.23
691.758	-2.23
691.788	-0.23
691.817	-3.23
691.846	-6.23
691.876	0.77
691.905	6.77
691.934	7.77
691.963	27.77
691.993	15.77
692.022	-7.23
692.051	4.77
692.081	-1.23
692.11	23.77
692.139	17.77
692.168	1.77
692.198	11.77
692.227	6.77
692.256	-14.23
692.285	-6.23
692.315	11.77
692.344	13.77
692.373	4.77
692.402	-11.23
692.432	-12.23
692.461	-3.23
692.49	-13.23
692.519	-2.23
692.548	6.77
692.578	9.77
692.607	-7.23
692.636	5.77
692.665	25.77
692.694	0.77
692.724	15.77
692.753	8.77
692.782	10.77
692.811	4.77
692.84	9.77
692.87	15.77
692.899	-11.23
692.928	-4.23
692.957	23.77
692.986	7.77
693.016	3.77
693.045	5.77
693.074	2.77
693.103	-16.23
693.132	7.77
693.161	16.77
693.191	2.77
693.22	-8.23
693.249	7.77
693.278	-0.23
693.307	5.77
693.336	-10.23
693.365	-22.23
693.395	-7.23
693.424	-10.23
693.453	7.77
693.482	0.77
693.511	19.77
693.54	9.77
693.569	7.77
693.598	7.77
693.628	6.77
693.657	11.77
693.686	15.77
693.715	21.77
693.744	12.77
693.773	10.77
693.802	3.77
693.831	-12.23
693.86	11.77
693.889	6.77
693.919	15.77
693.948	10.77
693.977	-0.23
694.006	7.77
694.035	7.77
694.064	0.77
694.093	2.77
694.122	0.77
694.151	-15.23
694.18	2.77
694.209	8.77
694.238	11.77
694.267	31.77
694.296	9.77
694.325	0.77
694.354	4.77
694.383	1.77
694.412	-4.23
694.441	4.77
694.471	10.77
694.5	0.77
694.529	0.77
694.558	7.77
694.587	20.77
694.616	-2.23
694.645	-14.23
694.674	5.77
694.703	2.77
694.732	-7.23
694.761	9.77
694.79	10.77
694.819	-7.23
694.848	0.77
694.877	10.77
694.906	23.77
694.935	10.77
694.963	25.77
694.992	8.77
695.021	21.77
695.05	12.77
695.079	14.77
695.108	10.77
695.137	15.77
695.166	15.77
695.195	-6.23
695.224	5.77
695.253	-6.23
695.282	1.77
695.311	20.77
695.34	-6.23
695.369	2.77
695.398	6.77
695.427	9.77
695.456	-0.23
695.485	6.77
695.513	3.77
695.542	0.77
695.571	-4.23
695.6	9.77
695.629	7.77
695.658	17.77
695.687	-3.23
695.716	7.77
695.745	44.77
695.774	-3.23
695.802	-6.23
695.831	7.77
695.86	16.77
695.889	39.77
695.918	18.77
695.947	2.77
695.976	-10.23
696.005	17.77
696.033	2.77
696.062	27.77
696.091	4.77
696.12	20.77
696.149	29.77
696.178	-1.23
696.207	-2.23
696.235	0.77
696.264	21.77
696.293	-0.23
696.322	8.77
696.351	4.77
696.38	8.77
696.408	10.77
696.437	-6.23
696.466	8.77
696.495	4.77
696.524	14.77
696.553	16.77
696.581	14.77
696.61	-3.23
696.639	-3.23
696.668	6.77
696.697	-8.23
696.725	11.77
696.754	1.77
696.783	-0.23
696.812	-7.23
696.84	2.77
696.869	-0.23
696.898	-14.23
696.927	-0.23
696.956	20.77
696.984	-6.23
697.013	-4.23
697.042	2.77
697.071	15.77
697.099	10.77
697.128	13.77
697.157	12.77
697.186	8.77
697.214	4.77
697.243	-9.23
697.272	4.77
697.301	11.77
697.329	13.77
697.358	8.77
697.387	24.77
697.415	12.77
697.444	0.77
697.473	-3.23
697.502	-0.23
697.53	10.77
697.559	-15.23
697.588	-0.23
697.616	-1.23
697.645	5.77
697.674	20.77
697.703	7.77
697.731	18.77
697.76	8.77
697.789	6.77
697.817	6.77
697.846	6.77
697.875	17.77
697.903	12.77
697.932	9.77
697.961	-4.23
697.989	7.77
698.018	1.77
698.047	10.77
698.075	20.77
698.104	18.77
698.133	3.77
698.161	-9.23
698.19	0.77
698.218	4.77
698.247	9.77
698.276	8.77
698.304	15.77
698.333	10.77
698.362	9.77
698.39	6.77
698.419	7.77
698.447	3.77
698.476	-3.23
698.505	20.77
698.533	17.77
698.562	7.77
698.591	-6.23
698.619	-8.23
698.648	8.77
698.676	5.77
698.705	1.77
698.733	-2.23
698.762	-9.23
698.791	7.77
698.819	-4.23
698.848	11.77
698.876	7.77
698.905	-14.23
698.933	-0.23
698.962	13.77
698.991	6.77
699.019	14.77
699.048	9.77
699.076	0.77
699.105	-6.23
699.133	-30.23
699.162	-3.23
699.19	16.77
699.219	11.77
699.248	9.77
699.276	-0.23
699.305	-1.23
699.333	16.77
699.362	-12.23
699.39	0.77
699.419	-13.23
699.447	13.77
699.476	-0.23
699.504	-5.23
699.533	1.77
699.561	-16.23
699.59	-1.23
699.618	-16.23
699.647	4.77
699.675	6.77
699.704	15.77
699.732	3.77
699.761	4.77
699.789	8.77
699.818	0.77
699.846	12.77
699.874	-3.23
699.903	-6.23
699.931	-8.23
699.96	15.77
699.988	3.77
700.017	7.77
700.045	-10.23
700.074	-6.23
700.102	3.77
700.13	-9.23
700.159	8.77
700.187	1.77
700.216	-1.23
700.244	-2.23
700.273	15.77
700.301	11.77
700.329	16.77
700.358	4.77
700.386	-2.23
700.415	10.77
700.443	8.77
700.472	-10.23
700.5	9.77
700.528	17.77
700.557	-0.23
700.585	-3.23
700.614	-0.23
700.642	4.77
700.67	27.77
700.699	15.77
700.727	-7.23
700.755	-0.23
700.784	9.77
700.812	10.77
700.841	5.77
700.869	8.77
700.897	-5.23
700.926	-13.23
700.954	8.77
700.982	3.77
701.011	-2.23
701.039	13.77
701.067	-4.23
701.096	-0.23
701.124	-7.23
701.152	9.77
701.181	-8.23
701.209	-12.23
701.237	-4.23
701.266	-8.23
701.294	-9.23
701.322	-1.23
701.351	13.77
701.379	9.77
701.407	0.77
701.435	7.77
701.464	14.77
701.492	18.77
701.52	10.77
701.549	7.77
701.577	-3.23
701.605	-6.23
701.634	-5.23
701.662	20.77
701.69	-3.23
701.718	-13.23
701.747	13.77
701.775	9.77
701.803	0.77
701.831	8.77
701.86	5.77
701.888	5.77
701.916	-10.23
701.944	-10.23
701.973	-5.23
702.001	-13.23
702.029	-6.23
702.057	-16.23
702.086	-6.23
702.114	-15.23
702.142	-8.23
702.17	-8.23
702.199	-1.23
702.227	5.77
702.255	-5.23
702.283	2.77
702.311	12.77
702.34	-0.23
702.368	-2.23
702.396	8.77
702.424	16.77
702.452	-4.23
702.481	4.77
702.509	2.77
702.537	19.77
702.565	0.77
702.593	-4.23
702.621	-6.23
702.65	8.77
702.678	-0.23
702.706	-2.23
702.734	-11.23
702.762	1.77
702.79	3.77
702.819	5.77
702.847	8.77
702.875	3.77
702.903	16.77
702.931	-3.23
702.959	3.77
702.988	6.77
703.016	-14.23
703.044	-6.23
703.072	-26.23
703.1	-7.23
703.128	2.77
703.156	4.77
703.184	4.77
703.212	19.77
703.241	14.77
703.269	12.77
703.297	6.77
703.325	4.77
703.353	-24.23
703.381	3.77
703.409	5.77
703.437	2.77
703.465	8.77
703.493	-8.23
703.522	4.77
703.55	8.77
703.578	14.77
703.606	0.77
703.634	10.77
703.662	-1.23
703.69	8.77
703.718	0.77
703.746	13.77
703.774	-12.23
703.802	8.77
703.83	2.77
703.858	8.77
703.886	6.77
703.914	-0.23
703.942	22.77
703.97	4.77
703.998	0.77
704.027	20.77
704.055	17.77
704.083	-9.23
704.111	-19.23
704.139	-14.23
704.167	-8.23
704.195	-0.23
704.223	-2.23
704.251	0.77
704.279	8.77
704.307	4.77
704.335	3.77
704.363	11.77
704.391	-15.23
704.419	-4.23
704.447	-4.23
704.475	0.77
704.503	1.77
704.531	13.77
704.558	0.77
704.586	9.77
704.614	9.77
704.642	8.77
704.67	6.77
704.698	5.77
704.726	-4.23
704.754	-4.23
704.782	-3.23
704.81	0.77
704.838	23.77
704.866	17.77
704.894	-8.23
704.922	-10.23
704.95	-8.23
704.978	-11.23
705.006	11.77
705.034	13.77
705.061	0.77
705.089	-1.23
705.117	-13.23
705.145	-9.23
705.173	-1.23
705.201	4.77
705.229	15.77
705.257	-3.23
705.285	2.77
705.313	7.77
705.34	-3.23
705.368	-8.23
705.396	10.77
705.424	13.77
705.452	3.77
705.48	6.77
705.508	-9.23
705.536	3.77
705.563	0.77
705.591	14.77
705.619	4.77
705.647	-11.23
705.675	-0.23
705.703	-4.23
705.731	-2.23
705.758	7.77
705.786	0.77
705.814	11.77
705.842	13.77
705.87	3.77
705.898	9.77
705.925	-5.23
705.953	-2.23
705.981	-4.23
706.009	10.77
706.037	11.77
706.065	-0.23
706.092	-10.23
706.12	-4.23
706.148	-7.23
706.176	-10.23
706.204	14.77
706.231	6.77
706.259	-10.23
706.287	-3.23
706.315	-12.23
706.342	-7.23
706.37	4.77
706.398	-2.23
706.426	2.77
706.454	-3.23
706.481	5.77
706.509	9.77
706.537	-8.23
706.565	-1.23
706.592	6.77
706.62	4.77
706.648	3.77
706.676	-14.23
706.703	-11.23
706.731	6.77
706.759	-11.23
706.787	1.77
706.814	8.77
706.842	-0.23
706.87	-4.23
706.897	7.77
706.925	-11.23
706.953	19.77
706.981	13.77
707.008	2.77
707.036	-17.23
707.064	-12.23
707.091	-3.23
707.119	4.77
707.147	-3.23
707.174	-9.23
707.202	12.77
707.23	0.77
707.258	-5.23
707.285	-13.23
707.313	7.77
707.341	-15.23
707.368	-10.23
707.396	-3.23
707.424	8.77
707.451	-2.23
707.479	2.77
707.507	-0.23
707.534	0.77
707.562	20.77
707.59	0.77
707.617	10.77
707.645	-3.23
707.672	5.77
707.7	4.77
707.728	10.77
707.755	-1.23
707.783	-2.23
707.811	11.77
707.838	2.77
707.866	11.77
707.893	-8.23
707.921	-6.23
707.949	7.77
707.976	-9.23
708.004	-4.23
708.031	-4.23
708.059	-8.23
708.087	0.77
708.114	-8.23
708.142	-8.23
708.169	0.77
708.197	-7.23
708.225	2.77
708.252	-20.23
708.28	4.77
708.307	-9.23
708.335	-12.23
708.362	2.77
708.39	-10.23
708.418	-8.23
708.445	-3.23
708.473	-8.23
708.5	-5.23
708.528	1.77
708.555	-2.23
708.583	3.77
708.61	-10.23
708.638	4.77
708.665	0.77
708.693	-0.23
708.72	-16.23
708.748	-5.23
708.776	12.77
708.803	9.77
708.831	12.77
708.858	1.77
708.886	14.77
708.913	11.77
708.941	-0.23
708.968	11.77
708.996	2.77
709.023	24.77
709.051	10.77
709.078	-4.23
709.105	2.77
709.133	-3.23
709.16	-4.23
709.188	6.77
709.215	22.77
709.243	0.77
709.27	-7.23
709.298	-3.23
709.325	4.77
709.353	-8.23
709.38	-4.23
709.408	-0.23
709.435	5.77
709.462	-0.23
709.49	4.77
709.517	-3.23
709.545	2.77
709.572	-0.23
709.6	-5.23
709.627	-1.23
709.655	-11.23
709.682	-9.23
709.709	-16.23
709.737	-1.23
709.764	-6.23
709.792	11.77
709.819	4.77
709.846	-0.23
709.874	12.77
709.901	9.77
709.929	17.77
709.956	16.77
709.983	-8.23
710.011	-8.23
710.038	-11.23
710.066	7.77
710.093	9.77
710.12	1.77
710.148	-2.23
710.175	-0.23
710.202	-5.23
710.23	13.77
710.257	-12.23
710.284	10.77
710.312	1.77
710.339	9.77
710.366	-4.23
710.394	-3.23
710.421	1.77
710.448	1.77
710.476	-19.23
710.503	-0.23
710.53	13.77
710.558	21.77
710.585	13.77
710.612	-3.23
710.64	3.77
710.667	-8.23
710.694	-6.23
710.722	-2.23
710.749	-1.23
710.776	-6.23
710.804	16.77
710.831	27.77
710.858	-9.23
710.885	-2.23
710.913	-1.23
710.94	21.77
710.967	-3.23
710.995	-4.23
711.022	1.77
711.049	-5.23
711.076	-13.23
711.104	-2.23
711.131	-5.23
711.158	-4.23
711.185	3.77
711.213	-3.23
711.24	-3.23
711.267	-7.23
711.294	-5.23
711.322	13.77
711.349	-11.23
711.376	-12.23
711.403	4.77
711.431	-8.23
711.458	0.77
711.485	-3.23
711.512	11.77
711.54	-7.23
711.567	7.77
711.594	2.77
711.621	-6.23
711.648	6.77
711.676	9.77
711.703	25.77
711.73	-13.23
711.757	3.77
711.784	6.77
711.812	22.77
711.839	3.77
711.866	-1.23
711.893	-15.23
711.92	2.77
711.947	3.77
711.975	-2.23
712.002	-11.23
712.029	9.77
712.056	-3.23
712.083	15.77
712.11	13.77
712.138	-0.23
712.165	10.77
712.192	2.77
712.219	5.77
712.246	-8.23
712.273	-5.23
712.3	-8.23
712.328	-1.23
712.355	6.77
712.382	-27.23
712.409	7.77
712.436	-11.23
712.463	4.77
712.49	11.77
712.517	-10.23
712.544	0.77
712.572	5.77
712.599	-26.23
712.626	-2.23
712.653	7.77
712.68	8.77
712.707	-7.23
712.734	4.77
712.761	-13.23
712.788	10.77
712.815	10.77
712.842	3.77
712.87	-12.23
712.897	-18.23
712.924	-16.23
712.951	14.77
712.978	24.77
713.005	26.77
713.032	10.77
713.059	-0.23
713.086	1.77
713.113	-5.23
713.14	-16.23
713.167	-2.23
713.194	7.77
713.221	-4.23
713.248	7.77
713.275	-7.23
713.302	-2.23
713.329	-0.23
713.356	16.77
713.383	4.77
713.41	0.77
713.437	-12.23
713.464	-3.23
713.491	22.77
713.518	12.77
713.545	-5.23
713.572	-9.23
713.599	8.77
713.626	-13.23
713.653	8.77
713.68	0.77
713.707	5.77
713.734	0.77
713.761	4.77
713.788	-4.23
713.815	-1.23
713.842	-6.23
713.869	-0.23
713.896	-0.23
713.923	-1.23
713.95	2.77
713.977	-4.23
714.004	12.77
714.031	-2.23
714.058	8.77
714.085	-0.23
714.112	15.77
714.139	-0.23
714.165	2.77
714.192	-7.23
714.219	5.77
714.246	-0.23
714.273	9.77
714.3	1.77
714.327	0.77
714.354	9.77
714.381	-10.23
714.408	12.77
714.435	3.77
714.461	-2.23
714.488	13.77
714.515	0.77
714.542	-3.23
714.569	-14.23
714.596	-14.23
714.623	-11.23
714.65	-12.23
714.677	12.77
714.703	4.77
714.73	2.77
714.757	9.77
714.784	-7.23
714.811	-4.23
714.838	7.77
714.865	-0.23
714.891	1.77
714.918	0.77
714.945	-1.23
714.972	1.77
714.999	20.77
715.026	-7.23
715.052	2.77
715.079	-5.23
715.106	2.77
715.133	0.77
715.16	5.77
715.187	9.77
715.213	10.77
715.24	-0.23
715.267	-15.23
715.294	-5.23
715.321	-1.23
715.347	1.77
715.374	-0.23
715.401	19.77
715.428	1.77
715.455	4.77
715.481	-8.23
715.508	-0.23
715.535	-4.23
715.562	29.77
715.588	12.77
715.615	-6.23
715.642	-1.23
715.669	2.77
715.695	5.77
715.722	11.77
715.749	-14.23
715.776	9.77
715.802	-0.23
715.829	-5.23
715.856	-3.23
715.883	26.77
715.909	-12.23
715.936	0.77
715.963	12.77
715.99	-12.23
716.016	11.77
716.043	9.77
716.07	1.77
716.096	-2.23
716.123	5.77
716.15	1.77
716.177	19.77
716.203	13.77
716.23	7.77
716.257	15.77
716.283	22.77
716.31	-7.23
716.337	0.77
716.363	-0.23
716.39	8.77
716.417	25.77
716.443	13.77
716.47	20.77
716.497	4.77
716.523	18.77
716.55	8.77
716.577	12.77
716.603	-9.23
716.63	-7.23
716.657	4.77
716.683	-4.23
716.71	-4.23
716.737	4.77
716.763	-1.23
716.79	-0.23
716.817	2.77
716.843	-3.23
716.87	-0.23
716.897	11.77
716.923	25.77
716.95	-12.23
716.976	-2.23
717.003	-1.23
717.03	-9.23
717.056	5.77
717.083	11.77
717.109	9.77
717.136	6.77
717.163	-7.23
717.189	-2.23
717.216	10.77
717.242	-3.23
717.269	1.77
717.296	0.77
717.322	17.77
717.349	14.77
717.375	16.77
717.402	-0.23
717.428	7.77
717.455	6.77
717.481	0.77
717.508	-3.23
717.535	-0.23
717.561	2.77
717.588	-2.23
717.614	9.77
717.641	3.77
717.667	11.77
717.694	12.77
717.72	-13.23
717.747	8.77
717.773	11.77
717.8	12.77
717.826	0.77
717.853	1.77
717.88	7.77
717.906	-6.23
717.933	6.77
717.959	-6.23
717.986	3.77
718.012	9.77
718.039	11.77
718.065	16.77
718.092	11.77
718.118	-11.23
718.144	-19.23
718.171	15.77
718.197	10.77
718.224	-14.23
718.25	-0.23
718.277	5.77
718.303	9.77
718.33	7.77
718.356	-12.23
718.383	-2.23
718.409	-0.23
718.436	-11.23
718.462	-6.23
718.489	-3.23
718.515	2.77
718.541	9.77
718.568	0.77
718.594	11.77
718.621	-14.23
718.647	6.77
718.674	15.77
718.7	0.77
718.726	1.77
718.753	-2.23
718.779	12.77
718.806	-12.23
718.832	-4.23
718.858	-1.23
718.885	-7.23
718.911	-2.23
718.938	15.77
718.964	-15.23
718.99	-1.23
719.017	-4.23
719.043	13.77
719.07	10.77
719.096	-11.23
719.122	3.77
719.149	-3.23
719.175	4.77
719.201	2.77
719.228	3.77
719.254	3.77
719.281	-0.23
719.307	4.77
719.333	4.77
719.36	12.77
719.386	-0.23
719.412	-0.23
719.439	-14.23
719.465	-0.23
719.491	-21.23
719.518	8.77
719.544	10.77
719.57	17.77
719.597	8.77
719.623	-4.23
719.649	8.77
719.675	0.77
719.702	5.77
719.728	0.77
719.754	7.77
719.781	-2.23
719.807	1.77
719.833	0.77
719.86	-2.23
719.886	4.77
719.912	1.77
719.938	-4.23
719.965	5.77
719.991	13.77
720.017	8.77
720.044	-8.23
720.07	1.77
720.096	8.77
720.122	4.77
720.149	5.77
720.175	4.77
720.201	8.77
720.227	16.77
720.254	-1.23
720.28	-3.23
720.306	-9.23
720.332	-14.23
720.359	-20.23
720.385	0.77
720.411	3.77
720.437	11.77
720.463	-4.23
720.49	23.77
720.516	19.77
720.542	-15.23
720.568	-12.23
720.595	3.77
720.621	1.77
720.647	1.77
720.673	10.77
720.699	-7.23
720.725	-0.23
720.752	-4.23
720.778	4.77
720.804	11.77
720.83	9.77
720.856	-3.23
720.883	-0.23
720.909	-6.23
720.935	6.77
720.961	7.77
720.987	7.77
721.013	-4.23
721.04	-5.23
721.066	4.77
721.092	13.77
721.118	0.77
721.144	1.77
721.17	11.77
721.196	0.77
721.223	-0.23
721.249	7.77
721.275	21.77
721.301	-4.23
721.327	8.77
721.353	5.77
721.379	5.77
721.405	14.77
721.432	12.77
721.458	-12.23
721.484	3.77
721.51	-13.23
721.536	8.77
721.562	-0.23
721.588	2.77
721.614	-6.23
721.64	-16.23
721.666	-1.23
721.693	0.77
721.719	-4.23
721.745	-0.23
721.771	-2.23
721.797	-6.23
721.823	-4.23
721.849	13.77
721.875	7.77
721.901	9.77
721.927	5.77
721.953	3.77
721.979	18.77
722.005	12.77
722.031	-7.23
722.057	3.77
722.083	6.77
722.109	7.77
722.135	16.77
722.161	19.77
722.187	1.77
722.214	4.77
722.24	-5.23
722.266	-11.23
722.292	11.77
722.318	23.77
722.344	19.77
722.37	13.77
722.396	14.77
722.422	0.77
722.448	4.77
722.474	-3.23
722.5	17.77
722.526	3.77
722.552	9.77
722.578	7.77
722.603	4.77
722.629	-1.23
722.655	3.77
722.681	-2.23
722.707	5.77
722.733	-6.23
722.759	4.77
722.785	-4.23
722.811	-3.23
722.837	8.77
722.863	-2.23
722.889	23.77
722.915	13.77
722.941	-2.23
722.967	-1.23
722.993	21.77
723.019	-3.23
723.045	11.77
723.071	-1.23
723.097	3.77
723.122	2.77
723.148	-16.23
723.174	-5.23
723.2	3.77
723.226	-8.23
723.252	-7.23
723.278	-18.23
723.304	5.77
723.33	6.77
723.356	-8.23
723.381	-6.23
723.407	-11.23
723.433	8.77
723.459	-4.23
723.485	-3.23
723.511	21.77
723.537	2.77
723.563	5.77
723.588	1.77
723.614	12.77
723.64	6.77
723.666	-0.23
723.692	12.77
723.718	-5.23
723.744	7.77
723.769	-0.23
723.795	-4.23
723.821	-3.23
723.847	-12.23
723.873	18.77
723.899	12.77
723.924	-5.23
723.95	-3.23
723.976	-12.23
724.002	11.77
724.028	1.77
724.053	0.77
724.079	-7.23
724.105	0.77
724.131	5.77
724.157	-4.23
724.182	6.77
724.208	10.77
724.234	5.77
724.26	-3.23
724.286	7.77
724.311	5.77
724.337	0.77
724.363	-4.23
724.389	0.77
724.415	-4.23
724.44	19.77
724.466	-2.23
724.492	-12.23
724.518	8.77
724.543	-0.23
724.569	9.77
724.595	4.77
724.621	-10.23
724.646	4.77
724.672	-4.23
724.698	-8.23
724.723	-6.23
724.749	3.77
724.775	1.77
724.801	1.77
724.826	3.77
724.852	-6.23
724.878	10.77
724.904	-25.23
724.929	4.77
724.955	0.77
724.981	-0.23
725.006	-0.23
725.032	2.77
725.058	7.77
725.083	-4.23
725.109	11.77
725.135	12.77
725.161	4.77
725.186	0.77
725.212	3.77
725.238	12.77
725.263	5.77
725.289	-9.23
725.315	-11.23
725.34	-4.23
725.366	0.77
725.392	0.77
725.417	-3.23
725.443	-19.23
725.468	6.77
725.494	9.77
725.52	17.77
725.545	1.77
725.571	0.77
725.597	10.77
725.622	-0.23
725.648	5.77
725.674	1.77
725.699	-5.23
725.725	-8.23
725.75	14.77
725.776	-6.23
725.802	-2.23
725.827	-0.23
725.853	15.77
725.878	10.77
725.904	-0.23
725.93	-3.23
725.955	-9.23
725.981	-13.23
726.006	1.77
726.032	7.77
726.057	-4.23
726.083	-4.23
726.109	-3.23
726.134	-2.23
726.16	3.77
726.185	-5.23
726.211	-2.23
726.236	15.77
726.262	8.77
726.288	12.77
726.313	15.77
726.339	8.77
726.364	4.77
726.39	9.77
726.415	4.77
726.441	-5.23
726.466	-6.23
726.492	7.77
726.517	3.77
726.543	-7.23
726.568	-0.23
726.594	-2.23
726.619	8.77
726.645	8.77
726.67	-2.23
726.696	2.77
726.721	-0.23
726.747	-14.23
726.772	-11.23
726.798	-14.23
726.823	14.77
726.849	5.77
726.874	4.77
726.9	13.77
726.925	8.77
726.951	-5.23
726.976	8.77
727.002	0.77
727.027	8.77
727.053	13.77
727.078	13.77
727.104	4.77
727.129	-13.23
727.155	-2.23
727.18	-7.23
727.205	-0.23
727.231	-8.23
727.256	-2.23
727.282	-7.23
727.307	15.77
727.333	12.77
727.358	-7.23
727.383	-14.23
727.409	-11.23
727.434	1.77
727.46	-5.23
727.485	-4.23
727.511	-2.23
727.536	-17.23
727.561	3.77
727.587	-9.23
727.612	-10.23
727.637	7.77
727.663	-19.23
727.688	11.77
727.714	7.77
727.739	-1.23
727.764	-14.23
727.79	-6.23
727.815	1.77
727.841	5.77
727.866	2.77
727.891	-2.23
727.917	-11.23
727.942	-4.23
727.967	-14.23
727.993	-3.23
728.018	-5.23
728.043	7.77
728.069	2.77
728.094	10.77
728.119	-4.23
728.145	20.77
728.17	9.77
728.195	3.77
728.221	14.77
728.246	-14.23
728.271	-10.23
728.297	-6.23
728.322	-1.23
728.347	10.77
728.373	-4.23
728.398	11.77
728.423	-6.23
728.448	5.77
728.474	4.77
728.499	-5.23
728.524	1.77
728.55	-14.23
728.575	-6.23
728.6	7.77
728.625	-5.23
728.651	-2.23
728.676	-6.23
728.701	-3.23
728.727	-3.23
728.752	-10.23
728.777	-2.23
728.802	14.77
728.828	6.77
728.853	9.77
728.878	-15.23
728.903	-5.23
728.929	-14.23
728.954	0.77
728.979	-3.23
729.004	-4.23
729.03	-3.23
729.055	19.77
729.08	-5.23
729.105	-10.23
729.13	35.77
729.156	-0.23
729.181	-6.23
729.206	-11.23
729.231	-9.23
729.256	6.77
729.282	12.77
729.307	-8.23
729.332	-10.23
729.357	-16.23
729.382	-20.23
729.408	-11.23
729.433	-11.23
729.458	10.77
729.483	5.77
729.508	19.77
729.533	3.77
729.559	-6.23
729.584	-16.23
729.609	-3.23
729.634	0.77
729.659	-10.23
729.684	-11.23
729.71	7.77
729.735	-7.23
729.76	-3.23
729.785	-12.23
729.81	6.77
729.835	-8.23
729.86	-12.23
729.886	0.77
729.911	-4.23
729.936	-7.23
729.961	15.77
729.986	-12.23
730.011	-3.23
730.036	2.77
730.061	6.77
730.086	-3.23
730.112	-8.23
730.137	4.77
730.162	-9.23
730.187	-3.23
730.212	-5.23
730.237	-7.23
730.262	7.77
730.287	1.77
730.312	10.77
730.337	2.77
730.362	18.77
730.387	1.77
730.413	3.77
730.438	-6.23
730.463	-2.23
730.488	0.77
730.513	-16.23
730.538	0.77
730.563	14.77
730.588	1.77
730.613	24.77
730.638	-4.23
730.663	-13.23
730.688	19.77
730.713	-8.23
730.738	-2.23
730.763	-6.23
730.788	-14.23
730.813	19.77
730.838	-0.23
730.863	7.77
730.888	-2.23
730.913	-20.23
730.938	-7.23
730.963	-0.23
730.988	4.77
731.013	11.77
731.038	-13.23
731.063	-9.23
731.088	4.77
731.113	-1.23
731.138	-3.23
731.163	0.77
731.188	-10.23
731.213	8.77
731.238	27.77
731.263	-0.23
731.288	3.77
731.313	17.77
731.338	1.77
731.363	-3.23
731.388	-13.23
731.413	0.77
731.438	13.77
731.463	3.77
731.487	9.77
731.512	-2.23
731.537	-14.23
731.562	3.77
731.587	15.77
731.612	-12.23
731.637	-7.23
731.662	-5.23
731.687	-12.23
731.712	-20.23
731.737	-7.23
731.762	-1.23
731.786	-3.23
731.811	-14.23
731.836	4.77
731.861	-2.23
731.886	-4.23
731.911	7.77
731.936	7.77
731.961	-4.23
731.986	-13.23
732.01	13.77
732.035	-6.23
732.06	9.77
732.085	1.77
732.11	0.77
732.135	-13.23
732.16	-9.23
732.184	-8.23
732.209	-6.23
732.234	-0.23
732.259	-15.23
732.284	2.77
732.309	3.77
732.334	-2.23
732.358	-5.23
732.383	-15.23
732.408	-1.23
732.433	-3.23
732.458	6.77
732.482	7.77
732.507	-4.23
732.532	-15.23
732.557	1.77
732.582	3.77
732.607	-6.23
732.631	4.77
732.656	-0.23
732.681	4.77
732.706	-2.23
732.73	-4.23
732.755	-6.23
732.78	-2.23
732.805	11.77
732.83	-0.23
732.854	-2.23
732.879	8.77
732.904	-10.23
732.929	-12.23
732.953	16.77
732.978	-6.23
733.003	-5.23
733.028	-18.23
733.052	-0.23
733.077	0.77
733.102	1.77
733.127	-21.23
733.151	0.77
733.176	8.77
733.201	-10.23
733.226	-16.23
733.25	-4.23
733.275	7.77
733.3	3.77
733.324	1.77
733.349	-7.23
733.374	5.77
733.399	-1.23
733.423	-11.23
733.448	-3.23
733.473	3.77
733.497	-7.23
733.522	-2.23
733.547	0.77
733.571	15.77
733.596	-3.23
733.621	7.77
733.646	9.77
733.67	4.77
733.695	-0.23
733.72	17.77
733.744	3.77
733.769	-11.23
733.794	16.77
733.818	9.77
733.843	-14.23
733.867	-0.23
733.892	6.77
733.917	-2.23
733.941	1.77
733.966	-0.23
733.991	4.77
734.015	6.77
734.04	0.77
734.065	14.77
734.089	6.77
734.114	-7.23
734.138	10.77
734.163	-5.23
734.188	-3.23
734.212	5.77
734.237	4.77
734.261	9.77
734.286	-0.23
734.311	0.77
734.335	1.77
734.36	-4.23
734.384	7.77
734.409	3.77
734.434	-7.23
734.458	4.77
734.483	-2.23
734.507	-4.23
734.532	-6.23
734.556	-3.23
734.581	-6.23
734.606	-1.23
734.63	-7.23
734.655	3.77
734.679	-7.23
734.704	0.77
734.728	-6.23
734.753	-6.23
734.777	0.77
734.802	6.77
734.826	11.77
734.851	3.77
734.876	23.77
734.9	18.77
734.925	10.77
734.949	-8.23
734.974	2.77
734.998	3.77
735.023	2.77
735.047	-8.23
735.072	7.77
735.096	-3.23
735.121	-1.23
735.145	-0.23
735.17	3.77
735.194	4.77
735.219	-11.23
735.243	-0.23
735.268	8.77
735.292	17.77
735.317	6.77
735.341	2.77
735.365	-15.23
735.39	-3.23
735.414	7.77
735.439	2.77
735.463	-2.23
735.488	-0.23
735.512	9.77
735.537	7.77
735.561	-3.23
735.586	8.77
735.61	-7.23
735.634	-0.23
735.659	-6.23
735.683	19.77
735.708	14.77
735.732	-0.23
735.757	4.77
735.781	19.77
735.805	6.77
735.83	-2.23
735.854	-13.23
735.879	0.77
735.903	-0.23
735.927	3.77
735.952	9.77
735.976	3.77
736.001	4.77
736.025	7.77
736.049	-9.23
736.074	-14.23
736.098	1.77
736.123	19.77
736.147	-0.23
736.171	11.77
736.196	7.77
736.22	-8.23
736.244	3.77
736.269	4.77
736.293	-2.23
736.317	0.77
736.342	-2.23
736.366	16.77
736.39	12.77
736.415	9.77
736.439	-8.23
736.463	1.77
736.488	13.77
736.512	12.77
736.536	0.77
736.561	24.77
736.585	-9.23
736.609	8.77
736.634	-6.23
736.658	-6.23
736.682	-0.23
736.707	-6.23
736.731	-7.23
736.755	-2.23
736.78	14.77
736.804	12.77
736.828	5.77
736.852	0.77
736.877	-2.23
736.901	16.77
736.925	8.77
736.949	-5.23
736.974	-13.23
736.998	-14.23
737.022	6.77
737.047	-2.23
737.071	-1.23
737.095	-0.23
737.119	22.77
737.144	21.77
737.168	-4.23
737.192	-4.23
737.216	17.77
737.241	7.77
737.265	1.77
737.289	-6.23
737.313	-18.23
737.337	12.77
737.362	4.77
737.386	-8.23
737.41	-2.23
737.434	12.77
737.459	2.77
737.483	2.77
737.507	1.77
737.531	19.77
737.555	9.77
737.58	8.77
737.604	-7.23
737.628	-15.23
737.652	-4.23
737.676	-7.23
737.701	2.77
737.725	0.77
737.749	6.77
737.773	-0.23
737.797	-9.23
737.821	5.77
737.846	-6.23
737.87	24.77
737.894	7.77
737.918	-10.23
737.942	-6.23
737.966	7.77
737.99	-4.23
738.015	-5.23
738.039	-0.23
738.063	2.77
738.087	16.77
738.111	2.77
738.135	3.77
738.159	2.77
738.184	23.77
738.208	20.77
738.232	16.77
738.256	34.77
738.28	13.77
738.304	11.77
738.328	-6.23
738.352	4.77
738.376	-2.23
738.4	14.77
738.425	9.77
738.449	-12.23
738.473	12.77
738.497	1.77
738.521	-5.23
738.545	-2.23
738.569	-5.23
738.593	0.77
738.617	6.77
738.641	15.77
738.665	19.77
738.689	13.77
738.713	-6.23
738.737	2.77
738.762	12.77
738.786	-0.23
738.81	-14.23
738.834	9.77
738.858	-19.23
738.882	10.77
738.906	8.77
738.93	4.77
738.954	-1.23
738.978	4.77
739.002	-8.23
739.026	17.77
739.05	16.77
739.074	6.77
739.098	7.77
739.122	21.77
739.146	5.77
739.17	14.77
739.194	17.77
739.218	-9.23
739.242	11.77
739.266	-0.23
739.29	13.77
739.314	15.77
739.338	8.77
739.362	-1.23
739.386	0.77
739.41	-0.23
739.434	-9.23
739.458	13.77
739.482	15.77
739.506	1.77
739.53	-3.23
739.554	6.77
739.577	-0.23
739.601	19.77
739.625	7.77
739.649	11.77
739.673	12.77
739.697	24.77
739.721	9.77
739.745	13.77
739.769	-8.23
739.793	1.77
739.817	2.77
739.841	-7.23
739.865	0.77
739.889	-10.23
739.912	11.77
739.936	-8.23
739.96	3.77
739.984	14.77
740.008	-6.23
740.032	-13.23
740.056	-4.23
740.08	8.77
740.104	5.77
740.127	13.77
740.151	4.77
740.175	17.77
740.199	4.77
740.223	51.77
740.247	17.77
740.271	17.77
740.295	-6.23
740.318	-9.23
740.342	-18.23
740.366	9.77
740.39	7.77
740.414	1.77
740.438	4.77
740.461	9.77
740.485	1.77
740.509	-29.23
740.533	10.77
740.557	1.77
740.581	0.77
740.604	-9.23
740.628	-8.23
740.652	-1.23
740.676	-10.23
740.7	13.77
740.723	7.77
740.747	-1.23
740.771	3.77
740.795	0.77
740.819	12.77
740.842	4.77
740.866	2.77
740.89	10.77
740.914	5.77
740.938	-10.23
740.961	11.77
740.985	-4.23
741.009	10.77
741.033	7.77
741.056	3.77
741.08	-3.23
741.104	-8.23
741.128	5.77
741.151	10.77
741.175	9.77
741.199	4.77
741.223	-2.23
741.246	0.77
741.27	12.77
741.294	4.77
741.318	-0.23
741.341	-11.23
741.365	15.77
741.389	4.77
741.413	13.77
741.436	11.77
741.46	12.77
741.484	20.77
741.507	8.77
741.531	32.77
741.555	16.77
741.579	-1.23
741.602	2.77
741.626	18.77
741.65	-0.23
741.673	-4.23
741.697	7.77
741.721	14.77
741.744	-20.23
741.768	-6.23
741.792	2.77
741.815	0.77
741.839	8.77
741.863	7.77
741.886	12.77
741.91	24.77
741.934	8.77
741.957	-9.23
741.981	15.77
742.005	-7.23
742.028	-5.23
742.052	-7.23
742.075	7.77
742.099	-3.23
742.123	1.77
742.146	0.77
742.17	4.77
742.194	-3.23
742.217	-2.23
742.241	2.77
742.264	3.77
742.288	16.77
742.312	3.77
742.335	-6.23
742.359	5.77
742.382	2.77
742.406	12.77
742.43	-14.23
742.453	-8.23
742.477	-7.23
742.5	6.77
742.524	-5.23
742.548	-13.23
742.571	-5.23
742.595	-1.23
742.618	-12.23
742.642	-0.23
742.665	3.77
742.689	-10.23
742.712	11.77
742.736	5.77
742.76	5.77
742.783	-2.23
742.807	16.77
742.83	16.77
742.854	-11.23
742.877	-0.23
742.901	0.77
742.924	4.77
742.948	7.77
742.971	8.77
742.995	-2.23
743.018	-1.23
743.042	-0.23
743.065	-9.23
743.089	-16.23
743.112	1.77
743.136	1.77
743.159	-2.23
743.183	-5.23
743.206	1.77
743.23	1.77
743.253	2.77
743.277	15.77
743.3	-3.23
743.324	-2.23
743.347	7.77
743.371	8.77
743.394	14.77
743.418	13.77
743.441	0.77
743.465	-5.23
743.488	-2.23
743.512	-11.23
743.535	7.77
743.558	-3.23
743.582	6.77
743.605	7.77
743.629	16.77
743.652	10.77
743.676	8.77
743.699	11.77
743.723	1.77
743.746	5.77
743.769	-3.23
743.793	20.77
743.816	-10.23
743.84	15.77
743.863	10.77
743.886	9.77
743.91	24.77
743.933	9.77
743.957	16.77
743.98	4.77
744.003	10.77
744.027	4.77
744.05	-5.23
744.074	8.77
744.097	-1.23
744.12	-1.23
744.144	-11.23
744.167	10.77
744.19	-5.23
744.214	-3.23
744.237	-6.23
744.26	16.77
744.284	11.77
744.307	-6.23
744.331	11.77
744.354	-0.23
744.377	-5.23
744.401	-0.23
744.424	4.77
744.447	-17.23
744.471	-12.23
