Data from HighRes_H2_15_09_11_07_2024_HR4C61891__71__15-11-03-502.txt Node

Date: Thu Nov 07 15:11:03 EST 2024
User: crc00042
Spectrometer: HR4C6189
Trigger mode: 4
Integration Time (sec): 1.000000E-1
Scans to average: 1
Electric dark correction enabled: true
Nonlinearity correction enabled: false
Boxcar width: 0
XAxis mode: Wavelengths
Number of Pixels in Spectrum: 3648
>>>>>Begin Spectral Data<<<<<
639.567	-38.54
639.602	-38.54
639.636	-38.54
639.67	-27.54
639.704	-30.54
639.738	0.46
639.773	2.46
639.807	-12.54
639.841	2.46
639.875	11.46
639.909	-15.54
639.943	4.46
639.978	7.46
640.012	6.46
640.046	1.46
640.08	-1.54
640.114	9.46
640.148	-16.54
640.182	-18.54
640.217	-1.54
640.251	6.46
640.285	0.46
640.319	-4.54
640.353	-0.54
640.387	1.46
640.421	-1.54
640.455	-7.54
640.49	-9.54
640.524	-11.54
640.558	10.46
640.592	-5.54
640.626	7.46
640.66	0.46
640.694	-7.54
640.728	-1.54
640.762	0.46
640.796	3.46
640.83	-0.54
640.865	-5.54
640.899	1.46
640.933	-6.54
640.967	-8.54
641.001	-4.54
641.035	18.46
641.069	-0.54
641.103	-8.54
641.137	2.46
641.171	-20.54
641.205	3.46
641.239	-1.54
641.273	15.46
641.307	14.46
641.341	10.46
641.375	3.46
641.409	13.46
641.443	-1.54
641.477	6.46
641.511	7.46
641.545	0.46
641.579	-7.54
641.614	8.46
641.648	2.46
641.682	-14.54
641.716	11.46
641.75	24.46
641.784	-14.54
641.818	-18.54
641.852	-3.54
641.886	-0.54
641.919	19.46
641.953	-4.54
641.987	-5.54
642.021	2.46
642.055	-3.54
642.089	-5.54
642.123	-11.54
642.157	-8.54
642.191	-4.54
642.225	4.46
642.259	1.46
642.293	0.46
642.327	9.46
642.361	-12.54
642.395	19.46
642.429	7.46
642.463	5.46
642.497	6.46
642.531	-8.54
642.565	-9.54
642.599	-2.54
642.633	-2.54
642.666	7.46
642.7	10.46
642.734	21.46
642.768	3.46
642.802	2.46
642.836	4.46
642.87	12.46
642.904	7.46
642.938	2.46
642.972	-0.54
643.005	-5.54
643.039	10.46
643.073	-11.54
643.107	-0.54
643.141	-0.54
643.175	0.46
643.209	0.46
643.243	4.46
643.276	15.46
643.31	-8.54
643.344	0.46
643.378	8.46
643.412	2.46
643.446	-0.54
643.48	-5.54
643.513	9.46
643.547	11.46
643.581	-9.54
643.615	13.46
643.649	15.46
643.683	10.46
643.716	4.46
643.75	10.46
643.784	-11.54
643.818	15.46
643.852	-6.54
643.886	0.46
643.919	0.46
643.953	1.46
643.987	4.46
644.021	6.46
644.055	6.46
644.088	5.46
644.122	-0.54
644.156	-1.54
644.19	3.46
644.224	6.46
644.257	12.46
644.291	19.46
644.325	7.46
644.359	14.46
644.392	15.46
644.426	8.46
644.46	3.46
644.494	-0.54
644.527	-5.54
644.561	3.46
644.595	2.46
644.629	1.46
644.662	4.46
644.696	10.46
644.73	-6.54
644.764	-1.54
644.797	10.46
644.831	-5.54
644.865	2.46
644.899	19.46
644.932	25.46
644.966	6.46
645	11.46
645.033	2.46
645.067	-13.54
645.101	-8.54
645.135	6.46
645.168	-17.54
645.202	-6.54
645.236	-9.54
645.269	10.46
645.303	-5.54
645.337	-17.54
645.37	-25.54
645.404	2.46
645.438	-2.54
645.471	-5.54
645.505	12.46
645.539	5.46
645.572	3.46
645.606	-0.54
645.64	9.46
645.673	14.46
645.707	18.46
645.741	11.46
645.774	9.46
645.808	14.46
645.842	-2.54
645.875	-1.54
645.909	6.46
645.943	-9.54
645.976	-3.54
646.01	9.46
646.043	10.46
646.077	15.46
646.111	16.46
646.144	6.46
646.178	8.46
646.212	-10.54
646.245	-5.54
646.279	-0.54
646.312	7.46
646.346	9.46
646.38	13.46
646.413	14.46
646.447	-9.54
646.48	-1.54
646.514	4.46
646.547	-6.54
646.581	11.46
646.615	9.46
646.648	-11.54
646.682	3.46
646.715	-6.54
646.749	0.46
646.782	1.46
646.816	-13.54
646.85	17.46
646.883	4.46
646.917	6.46
646.95	12.46
646.984	4.46
647.017	-2.54
647.051	12.46
647.084	2.46
647.118	-11.54
647.151	5.46
647.185	18.46
647.218	-2.54
647.252	12.46
647.285	2.46
647.319	-9.54
647.353	-1.54
647.386	14.46
647.42	-8.54
647.453	-6.54
647.487	13.46
647.52	7.46
647.553	11.46
647.587	7.46
647.62	-3.54
647.654	1.46
647.687	2.46
647.721	25.46
647.754	12.46
647.788	1.46
647.821	-8.54
647.855	10.46
647.888	6.46
647.922	7.46
647.955	2.46
647.989	1.46
648.022	5.46
648.055	8.46
648.089	10.46
648.122	5.46
648.156	-17.54
648.189	-17.54
648.223	2.46
648.256	7.46
648.29	0.46
648.323	-15.54
648.356	4.46
648.39	17.46
648.423	-5.54
648.457	3.46
648.49	7.46
648.523	0.46
648.557	0.46
648.59	-1.54
648.624	-2.54
648.657	5.46
648.69	15.46
648.724	17.46
648.757	8.46
648.791	14.46
648.824	12.46
648.857	23.46
648.891	0.46
648.924	-11.54
648.957	22.46
648.991	-10.54
649.024	10.46
649.057	-4.54
649.091	-0.54
649.124	15.46
649.158	12.46
649.191	18.46
649.224	-3.54
649.258	1.46
649.291	3.46
649.324	-8.54
649.358	-1.54
649.391	1.46
649.424	6.46
649.458	2.46
649.491	0.46
649.524	-0.54
649.557	-2.54
649.591	-31.54
649.624	11.46
649.657	-9.54
649.691	2.46
649.724	16.46
649.757	-12.54
649.791	-1.54
649.824	4.46
649.857	18.46
649.89	5.46
649.924	-10.54
649.957	-21.54
649.99	-13.54
650.023	5.46
650.057	-8.54
650.09	4.46
650.123	19.46
650.157	15.46
650.19	22.46
650.223	-6.54
650.256	-14.54
650.29	-16.54
650.323	0.46
650.356	14.46
650.389	-3.54
650.423	-16.54
650.456	11.46
650.489	2.46
650.522	9.46
650.555	18.46
650.589	8.46
650.622	4.46
650.655	26.46
650.688	14.46
650.721	1.46
650.755	-2.54
650.788	12.46
650.821	-2.54
650.854	-0.54
650.887	7.46
650.921	-0.54
650.954	-9.54
650.987	-8.54
651.02	-14.54
651.053	0.46
651.087	-16.54
651.12	13.46
651.153	-2.54
651.186	-10.54
651.219	-8.54
651.252	-0.54
651.286	11.46
651.319	0.46
651.352	4.46
651.385	-9.54
651.418	22.46
651.451	17.46
651.484	5.46
651.518	-12.54
651.551	10.46
651.584	-2.54
651.617	12.46
651.65	6.46
651.683	23.46
651.716	-6.54
651.749	2.46
651.783	-4.54
651.816	-3.54
651.849	16.46
651.882	-5.54
651.915	-10.54
651.948	-3.54
651.981	-9.54
652.014	1.46
652.047	-11.54
652.08	0.46
652.114	-2.54
652.147	8.46
652.18	22.46
652.213	20.46
652.246	-1.54
652.279	-2.54
652.312	2.46
652.345	-9.54
652.378	-4.54
652.411	6.46
652.444	6.46
652.477	18.46
652.51	-1.54
652.543	-5.54
652.576	2.46
652.609	3.46
652.642	6.46
652.675	4.46
652.709	-8.54
652.742	-1.54
652.775	6.46
652.808	15.46
652.841	1.46
652.874	9.46
652.907	10.46
652.94	-5.54
652.973	-24.54
653.006	-4.54
653.039	-1.54
653.072	8.46
653.105	3.46
653.138	-8.54
653.171	-3.54
653.204	4.46
653.237	-20.54
653.27	-5.54
653.303	0.46
653.336	4.46
653.368	-4.54
653.401	-8.54
653.434	-14.54
653.467	16.46
653.5	-11.54
653.533	-0.54
653.566	0.46
653.599	-11.54
653.632	-1.54
653.665	-8.54
653.698	-13.54
653.731	-1.54
653.764	9.46
653.797	-5.54
653.83	17.46
653.863	-4.54
653.896	5.46
653.929	-2.54
653.961	2.46
653.994	4.46
654.027	-6.54
654.06	8.46
654.093	1.46
654.126	-0.54
654.159	-9.54
654.192	-7.54
654.225	3.46
654.258	-4.54
654.29	1.46
654.323	0.46
654.356	-6.54
654.389	-0.54
654.422	-2.54
654.455	-12.54
654.488	-7.54
654.521	-5.54
654.553	-9.54
654.586	-0.54
654.619	-0.54
654.652	-1.54
654.685	18.46
654.718	17.46
654.751	6.46
654.783	6.46
654.816	22.46
654.849	17.46
654.882	-3.54
654.915	-17.54
654.948	-8.54
654.98	-7.54
655.013	1.46
655.046	-3.54
655.079	-10.54
655.112	-4.54
655.144	3.46
655.177	-0.54
655.21	9.46
655.243	-2.54
655.276	6.46
655.308	-5.54
655.341	-2.54
655.374	5.46
655.407	-6.54
655.44	-2.54
655.472	1.46
655.505	-13.54
655.538	-8.54
655.571	18.46
655.603	5.46
655.636	11.46
655.669	16.46
655.702	7.46
655.734	-10.54
655.767	17.46
655.8	21.46
655.833	11.46
655.865	39.46
655.898	23.46
655.931	26.46
655.964	33.46
655.996	56.46
656.029	54.46
656.062	47.46
656.095	80.46
656.127	74.46
656.16	89.46
656.193	123.46
656.225	180.46
656.258	280.46
656.291	493.46
656.324	1138.46
656.356	3405.46
656.389	7620.46
656.422	6096.46
656.454	2068.46
656.487	691.46
656.52	258.46
656.552	116.46
656.585	88.46
656.618	53.46
656.65	41.46
656.683	38.46
656.716	26.46
656.748	23.46
656.781	-0.54
656.814	-0.54
656.846	1.46
656.879	12.46
656.912	21.46
656.944	-4.54
656.977	1.46
657.01	-3.54
657.042	5.46
657.075	-0.54
657.108	-0.54
657.14	1.46
657.173	11.46
657.205	20.46
657.238	18.46
657.271	3.46
657.303	-1.54
657.336	4.46
657.369	-6.54
657.401	2.46
657.434	-8.54
657.466	-10.54
657.499	-3.54
657.532	-14.54
657.564	-4.54
657.597	-10.54
657.629	3.46
657.662	5.46
657.694	8.46
657.727	-4.54
657.76	-0.54
657.792	-7.54
657.825	-7.54
657.857	-5.54
657.89	-13.54
657.922	4.46
657.955	-8.54
657.987	-4.54
658.02	-1.54
658.053	20.46
658.085	5.46
658.118	5.46
658.15	3.46
658.183	5.46
658.215	-4.54
658.248	2.46
658.28	-4.54
658.313	35.46
658.345	7.46
658.378	5.46
658.41	-4.54
658.443	2.46
658.475	-11.54
658.508	-9.54
658.54	-20.54
658.573	-13.54
658.605	-18.54
658.638	7.46
658.67	1.46
658.703	13.46
658.735	2.46
658.768	-7.54
658.8	-3.54
658.833	20.46
658.865	19.46
658.898	3.46
658.93	-14.54
658.963	-16.54
658.995	-23.54
659.028	9.46
659.06	-0.54
659.092	-4.54
659.125	-18.54
659.157	-2.54
659.19	-4.54
659.222	4.46
659.255	0.46
659.287	-10.54
659.32	7.46
659.352	2.46
659.384	-8.54
659.417	-12.54
659.449	-8.54
659.482	0.46
659.514	-15.54
659.546	5.46
659.579	-5.54
659.611	-1.54
659.644	-4.54
659.676	-10.54
659.708	-13.54
659.741	-15.54
659.773	8.46
659.806	6.46
659.838	-6.54
659.87	-4.54
659.903	2.46
659.935	26.46
659.967	10.46
660	6.46
660.032	-11.54
660.065	-0.54
660.097	-1.54
660.129	-0.54
660.162	-25.54
660.194	7.46
660.226	-4.54
660.259	10.46
660.291	-5.54
660.323	-4.54
660.356	-7.54
660.388	-13.54
660.42	12.46
660.453	11.46
660.485	-6.54
660.517	-0.54
660.55	13.46
660.582	11.46
660.614	3.46
660.647	-0.54
660.679	-4.54
660.711	2.46
660.743	-14.54
660.776	-18.54
660.808	-23.54
660.84	-12.54
660.873	5.46
660.905	8.46
660.937	4.46
660.969	-8.54
661.002	-4.54
661.034	23.46
661.066	4.46
661.099	-6.54
661.131	11.46
661.163	-1.54
661.195	-13.54
661.228	12.46
661.26	-2.54
661.292	-4.54
661.324	4.46
661.357	7.46
661.389	22.46
661.421	7.46
661.453	-3.54
661.485	6.46
661.518	10.46
661.55	-5.54
661.582	-10.54
661.614	-1.54
661.647	0.46
661.679	20.46
661.711	11.46
661.743	-5.54
661.775	11.46
661.808	19.46
661.84	-18.54
661.872	-12.54
661.904	-10.54
661.936	-2.54
661.969	-11.54
662.001	-19.54
662.033	3.46
662.065	-4.54
662.097	0.46
662.129	-2.54
662.162	-18.54
662.194	-2.54
662.226	18.46
662.258	10.46
662.29	-0.54
662.322	-19.54
662.355	-17.54
662.387	17.46
662.419	1.46
662.451	5.46
662.483	-0.54
662.515	2.46
662.547	12.46
662.58	-0.54
662.612	-13.54
662.644	-24.54
662.676	6.46
662.708	-0.54
662.74	2.46
662.772	10.46
662.804	15.46
662.836	3.46
662.869	2.46
662.901	23.46
662.933	14.46
662.965	26.46
662.997	9.46
663.029	-20.54
663.061	-15.54
663.093	-8.54
663.125	12.46
663.157	7.46
663.189	1.46
663.221	7.46
663.254	10.46
663.286	-0.54
663.318	-1.54
663.35	10.46
663.382	-4.54
663.414	19.46
663.446	8.46
663.478	-6.54
663.51	28.46
663.542	-2.54
663.574	2.46
663.606	-0.54
663.638	-14.54
663.67	-1.54
663.702	-12.54
663.734	-1.54
663.766	11.46
663.798	-17.54
663.83	-2.54
663.862	-6.54
663.894	-1.54
663.926	4.46
663.958	7.46
663.99	-4.54
664.022	-1.54
664.054	21.46
664.086	-5.54
664.118	-13.54
664.15	-0.54
664.182	3.46
664.214	4.46
664.246	10.46
664.278	-1.54
664.31	10.46
664.342	9.46
664.374	7.46
664.406	7.46
664.438	3.46
664.47	8.46
664.502	10.46
664.534	-13.54
664.566	-5.54
664.598	9.46
664.63	-14.54
664.662	-9.54
664.693	-15.54
664.725	-13.54
664.757	-3.54
664.789	-7.54
664.821	1.46
664.853	4.46
664.885	4.46
664.917	-1.54
664.949	9.46
664.981	-3.54
665.013	5.46
665.045	-21.54
665.076	-6.54
665.108	10.46
665.14	17.46
665.172	4.46
665.204	-18.54
665.236	-1.54
665.268	1.46
665.3	-10.54
665.331	-18.54
665.363	2.46
665.395	-18.54
665.427	-6.54
665.459	-4.54
665.491	-12.54
665.523	1.46
665.555	4.46
665.586	-1.54
665.618	-13.54
665.65	-22.54
665.682	-11.54
665.714	2.46
665.746	-6.54
665.777	2.46
665.809	-4.54
665.841	13.46
665.873	5.46
665.905	11.46
665.937	7.46
665.968	10.46
666	-2.54
666.032	-5.54
666.064	6.46
666.096	1.46
666.127	6.46
666.159	12.46
666.191	11.46
666.223	13.46
666.255	-9.54
666.286	1.46
666.318	-1.54
666.35	11.46
666.382	-8.54
666.413	-28.54
666.445	-11.54
666.477	-12.54
666.509	-10.54
666.54	0.46
666.572	-9.54
666.604	11.46
666.636	-13.54
666.667	16.46
666.699	0.46
666.731	-9.54
666.763	-4.54
666.794	4.46
666.826	11.46
666.858	-2.54
666.89	9.46
666.921	4.46
666.953	6.46
666.985	5.46
667.017	10.46
667.048	15.46
667.08	3.46
667.112	-4.54
667.143	-15.54
667.175	1.46
667.207	6.46
667.238	2.46
667.27	9.46
667.302	5.46
667.334	-9.54
667.365	21.46
667.397	8.46
667.429	-0.54
667.46	13.46
667.492	6.46
667.524	5.46
667.555	-20.54
667.587	-14.54
667.619	-0.54
667.65	-10.54
667.682	3.46
667.714	0.46
667.745	7.46
667.777	5.46
667.808	10.46
667.84	6.46
667.872	2.46
667.903	25.46
667.935	6.46
667.967	-1.54
667.998	-18.54
668.03	-0.54
668.061	2.46
668.093	0.46
668.125	-8.54
668.156	-8.54
668.188	3.46
668.22	-3.54
668.251	27.46
668.283	15.46
668.314	-6.54
668.346	-3.54
668.377	7.46
668.409	-8.54
668.441	9.46
668.472	7.46
668.504	0.46
668.535	4.46
668.567	21.46
668.599	9.46
668.63	-3.54
668.662	-0.54
668.693	0.46
668.725	-4.54
668.756	12.46
668.788	-6.54
668.819	-0.54
668.851	-6.54
668.882	10.46
668.914	2.46
668.946	-15.54
668.977	-5.54
669.009	-8.54
669.04	-4.54
669.072	1.46
669.103	0.46
669.135	5.46
669.166	11.46
669.198	0.46
669.229	12.46
669.261	-4.54
669.292	-17.54
669.324	3.46
669.355	6.46
669.387	-5.54
669.418	15.46
669.45	-20.54
669.481	2.46
669.513	12.46
669.544	14.46
669.576	1.46
669.607	25.46
669.639	4.46
669.67	-9.54
669.701	5.46
669.733	-17.54
669.764	-5.54
669.796	-6.54
669.827	-11.54
669.859	-9.54
669.89	7.46
669.922	5.46
669.953	14.46
669.985	-12.54
670.016	9.46
670.047	12.46
670.079	-12.54
670.11	-2.54
670.142	-0.54
670.173	-7.54
670.204	10.46
670.236	8.46
670.267	-7.54
670.299	-10.54
670.33	2.46
670.362	21.46
670.393	-7.54
670.424	10.46
670.456	-13.54
670.487	2.46
670.518	4.46
670.55	6.46
670.581	0.46
670.613	1.46
670.644	-8.54
670.675	-5.54
670.707	0.46
670.738	-5.54
670.769	1.46
670.801	-11.54
670.832	4.46
670.864	2.46
670.895	14.46
670.926	-3.54
670.958	-11.54
670.989	5.46
671.02	6.46
671.052	7.46
671.083	-0.54
671.114	-0.54
671.146	11.46
671.177	-0.54
671.208	-5.54
671.24	-12.54
671.271	6.46
671.302	9.46
671.333	-4.54
671.365	-9.54
671.396	-14.54
671.427	2.46
671.459	-3.54
671.49	10.46
671.521	6.46
671.553	-5.54
671.584	4.46
671.615	-5.54
671.646	0.46
671.678	-3.54
671.709	-4.54
671.74	-21.54
671.771	-1.54
671.803	-1.54
671.834	-6.54
671.865	-7.54
671.896	2.46
671.928	5.46
671.959	8.46
671.99	2.46
672.021	-0.54
672.053	-2.54
672.084	12.46
672.115	9.46
672.146	18.46
672.178	-16.54
672.209	-13.54
672.24	2.46
672.271	26.46
672.303	0.46
672.334	-7.54
672.365	-9.54
672.396	14.46
672.427	-0.54
672.459	-0.54
672.49	18.46
672.521	5.46
672.552	-7.54
672.583	11.46
672.615	-0.54
672.646	13.46
672.677	-12.54
672.708	-15.54
672.739	-7.54
672.77	0.46
672.802	4.46
672.833	4.46
672.864	8.46
672.895	-3.54
672.926	-2.54
672.957	-12.54
672.989	-3.54
673.02	-2.54
673.051	1.46
673.082	7.46
673.113	-7.54
673.144	15.46
673.175	2.46
673.206	2.46
673.238	-0.54
673.269	-16.54
673.3	-20.54
673.331	5.46
673.362	-2.54
673.393	4.46
673.424	25.46
673.455	11.46
673.487	3.46
673.518	-0.54
673.549	-2.54
673.58	3.46
673.611	-3.54
673.642	-14.54
673.673	-24.54
673.704	16.46
673.735	-15.54
673.766	-1.54
673.797	-4.54
673.828	-1.54
673.86	11.46
673.891	3.46
673.922	-20.54
673.953	14.46
673.984	-1.54
674.015	-0.54
674.046	-7.54
674.077	-2.54
674.108	-9.54
674.139	0.46
674.17	-4.54
674.201	-7.54
674.232	5.46
674.263	-32.54
674.294	4.46
674.325	-1.54
674.356	3.46
674.387	8.46
674.418	-12.54
674.449	-9.54
674.48	-13.54
674.511	-4.54
674.542	5.46
674.573	-1.54
674.604	6.46
674.635	-9.54
674.666	-6.54
674.697	-13.54
674.728	-0.54
674.759	-18.54
674.79	-18.54
674.821	-10.54
674.852	-4.54
674.883	-16.54
674.914	3.46
674.945	-5.54
674.976	-7.54
675.007	1.46
675.038	-7.54
675.069	-6.54
675.1	-9.54
675.131	-4.54
675.162	-11.54
675.193	-8.54
675.224	-4.54
675.254	15.46
675.285	-0.54
675.316	10.46
675.347	3.46
675.378	-8.54
675.409	-14.54
675.44	21.46
675.471	-2.54
675.502	-17.54
675.533	-6.54
675.564	-7.54
675.595	-17.54
675.625	17.46
675.656	1.46
675.687	-4.54
675.718	-8.54
675.749	2.46
675.78	-0.54
675.811	-10.54
675.842	-8.54
675.873	-2.54
675.903	-1.54
675.934	-0.54
675.965	-0.54
675.996	-16.54
676.027	-12.54
676.058	-14.54
676.089	-15.54
676.119	2.46
676.15	-0.54
676.181	-0.54
676.212	3.46
676.243	10.46
676.274	2.46
676.304	30.46
676.335	1.46
676.366	-9.54
676.397	-3.54
676.428	-12.54
676.459	9.46
676.489	17.46
676.52	3.46
676.551	1.46
676.582	-5.54
676.613	1.46
676.643	1.46
676.674	-1.54
676.705	-27.54
676.736	-15.54
676.767	3.46
676.797	2.46
676.828	-7.54
676.859	1.46
676.89	3.46
676.92	3.46
676.951	-0.54
676.982	4.46
677.013	-0.54
677.044	7.46
677.074	-10.54
677.105	-3.54
677.136	16.46
677.167	10.46
677.197	13.46
677.228	18.46
677.259	-15.54
677.289	-1.54
677.32	-12.54
677.351	-12.54
677.382	-1.54
677.412	-20.54
677.443	2.46
677.474	-2.54
677.505	-12.54
677.535	2.46
677.566	-0.54
677.597	-8.54
677.627	-14.54
677.658	-0.54
677.689	-12.54
677.72	-8.54
677.75	2.46
677.781	4.46
677.812	6.46
677.842	8.46
677.873	3.46
677.904	0.46
677.934	5.46
677.965	-2.54
677.996	-16.54
678.026	-4.54
678.057	-7.54
678.088	-10.54
678.118	-8.54
678.149	-7.54
678.18	-7.54
678.21	1.46
678.241	9.46
678.272	-2.54
678.302	-5.54
678.333	1.46
678.363	3.46
678.394	0.46
678.425	0.46
678.455	12.46
678.486	3.46
678.517	-2.54
678.547	-1.54
678.578	8.46
678.608	-5.54
678.639	12.46
678.67	-0.54
678.7	-28.54
678.731	-10.54
678.761	-10.54
678.792	16.46
678.823	7.46
678.853	12.46
678.884	-15.54
678.914	4.46
678.945	-5.54
678.975	-8.54
679.006	2.46
679.037	-6.54
679.067	26.46
679.098	6.46
679.128	2.46
679.159	-6.54
679.189	6.46
679.22	-11.54
679.25	8.46
679.281	1.46
679.312	1.46
679.342	0.46
679.373	19.46
679.403	-0.54
679.434	13.46
679.464	-0.54
679.495	12.46
679.525	4.46
679.556	-5.54
679.586	11.46
679.617	-3.54
679.647	16.46
679.678	7.46
679.708	-0.54
679.739	-7.54
679.769	-10.54
679.8	-6.54
679.83	-9.54
679.861	5.46
679.891	-13.54
679.922	-4.54
679.952	7.46
679.983	7.46
680.013	6.46
680.044	-10.54
680.074	-9.54
680.105	16.46
680.135	17.46
680.165	13.46
680.196	8.46
680.226	1.46
680.257	1.46
680.287	-7.54
680.318	-6.54
680.348	-2.54
680.379	8.46
680.409	1.46
680.439	0.46
680.47	-0.54
680.5	-0.54
680.531	-0.54
680.561	3.46
680.592	10.46
680.622	20.46
680.652	0.46
680.683	1.46
680.713	-7.54
680.744	-0.54
680.774	-6.54
680.804	25.46
680.835	-3.54
680.865	-14.54
680.896	23.46
680.926	20.46
680.956	-1.54
680.987	-9.54
681.017	-0.54
681.047	21.46
681.078	-13.54
681.108	3.46
681.139	-11.54
681.169	-8.54
681.199	-15.54
681.23	-8.54
681.26	-3.54
681.29	-16.54
681.321	-16.54
681.351	-4.54
681.381	-6.54
681.412	6.46
681.442	5.46
681.472	27.46
681.503	10.46
681.533	4.46
681.563	-3.54
681.594	-7.54
681.624	1.46
681.654	-5.54
681.685	0.46
681.715	-4.54
681.745	1.46
681.775	-5.54
681.806	-1.54
681.836	11.46
681.866	-5.54
681.897	3.46
681.927	-5.54
681.957	-14.54
681.987	7.46
682.018	-0.54
682.048	0.46
682.078	-1.54
682.109	18.46
682.139	7.46
682.169	7.46
682.199	-4.54
682.23	-4.54
682.26	7.46
682.29	-5.54
682.32	1.46
682.351	-2.54
682.381	4.46
682.411	-5.54
682.441	-1.54
682.472	-8.54
682.502	1.46
682.532	-18.54
682.562	0.46
682.592	17.46
682.623	11.46
682.653	-6.54
682.683	-14.54
682.713	-1.54
682.743	-1.54
682.774	-9.54
682.804	1.46
682.834	7.46
682.864	-6.54
682.894	10.46
682.925	-10.54
682.955	-22.54
682.985	-10.54
683.015	1.46
683.045	3.46
683.076	2.46
683.106	8.46
683.136	6.46
683.166	-14.54
683.196	0.46
683.226	-4.54
683.257	-10.54
683.287	-4.54
683.317	-6.54
683.347	-6.54
683.377	4.46
683.407	5.46
683.437	4.46
683.468	11.46
683.498	-7.54
683.528	-16.54
683.558	0.46
683.588	-4.54
683.618	-16.54
683.648	-4.54
683.678	-1.54
683.708	11.46
683.739	-0.54
683.769	13.46
683.799	1.46
683.829	5.46
683.859	3.46
683.889	5.46
683.919	-22.54
683.949	6.46
683.979	-6.54
684.009	2.46
684.039	-14.54
684.07	5.46
684.1	7.46
684.13	1.46
684.16	10.46
684.19	-4.54
684.22	-8.54
684.25	3.46
684.28	-2.54
684.31	3.46
684.34	6.46
684.37	10.46
684.4	6.46
684.43	7.46
684.46	-5.54
684.49	-1.54
684.52	-2.54
684.55	19.46
684.58	-0.54
684.61	-2.54
684.64	14.46
684.67	12.46
684.7	2.46
684.73	2.46
684.76	9.46
684.79	2.46
684.82	-12.54
684.85	-8.54
684.88	7.46
684.91	-0.54
684.94	7.46
684.97	-6.54
685	1.46
685.03	-10.54
685.06	-9.54
685.09	4.46
685.12	8.46
685.15	-7.54
685.18	14.46
685.21	-0.54
685.24	8.46
685.27	17.46
685.3	-4.54
685.33	5.46
685.36	-9.54
685.39	7.46
685.42	-3.54
685.45	0.46
685.48	16.46
685.51	-1.54
685.54	9.46
685.569	2.46
685.599	2.46
685.629	-5.54
685.659	5.46
685.689	-2.54
685.719	-5.54
685.749	-23.54
685.779	-5.54
685.809	-9.54
685.839	0.46
685.869	17.46
685.898	14.46
685.928	13.46
685.958	-17.54
685.988	9.46
686.018	4.46
686.048	-5.54
686.078	-4.54
686.108	2.46
686.137	8.46
686.167	18.46
686.197	-6.54
686.227	-1.54
686.257	32.46
686.287	24.46
686.317	-0.54
686.346	2.46
686.376	-3.54
686.406	-5.54
686.436	18.46
686.466	-0.54
686.496	6.46
686.525	-7.54
686.555	2.46
686.585	5.46
686.615	32.46
686.645	17.46
686.675	6.46
686.704	-3.54
686.734	1.46
686.764	-8.54
686.794	6.46
686.824	-0.54
686.853	-0.54
686.883	1.46
686.913	21.46
686.943	-0.54
686.973	-2.54
687.002	3.46
687.032	9.46
687.062	10.46
687.092	11.46
687.121	-0.54
687.151	4.46
687.181	1.46
687.211	11.46
687.24	5.46
687.27	6.46
687.3	-12.54
687.33	-5.54
687.359	-15.54
687.389	-4.54
687.419	-6.54
687.449	-8.54
687.478	-2.54
687.508	10.46
687.538	1.46
687.568	-3.54
687.597	-1.54
687.627	-5.54
687.657	-8.54
687.686	2.46
687.716	32.46
687.746	-2.54
687.776	-8.54
687.805	-3.54
687.835	7.46
687.865	10.46
687.894	-9.54
687.924	-5.54
687.954	3.46
687.983	-2.54
688.013	7.46
688.043	6.46
688.072	0.46
688.102	17.46
688.132	-5.54
688.161	-5.54
688.191	-10.54
688.221	7.46
688.25	-10.54
688.28	8.46
688.31	-11.54
688.339	1.46
688.369	-17.54
688.399	-14.54
688.428	0.46
688.458	6.46
688.488	-4.54
688.517	0.46
688.547	-17.54
688.576	19.46
688.606	5.46
688.636	-9.54
688.665	3.46
688.695	6.46
688.725	14.46
688.754	8.46
688.784	-5.54
688.813	-2.54
688.843	-11.54
688.873	-6.54
688.902	4.46
688.932	-5.54
688.961	0.46
688.991	7.46
689.02	15.46
689.05	-12.54
689.08	4.46
689.109	-5.54
689.139	0.46
689.168	8.46
689.198	-0.54
689.227	-5.54
689.257	-5.54
689.287	6.46
689.316	-8.54
689.346	-17.54
689.375	-17.54
689.405	-1.54
689.434	-2.54
689.464	14.46
689.493	-17.54
689.523	-23.54
689.552	-4.54
689.582	7.46
689.611	1.46
689.641	5.46
689.67	1.46
689.7	-4.54
689.73	-5.54
689.759	-5.54
689.789	10.46
689.818	4.46
689.848	-6.54
689.877	-5.54
689.906	-2.54
689.936	7.46
689.965	7.46
689.995	8.46
690.024	24.46
690.054	4.46
690.083	6.46
690.113	1.46
690.142	-1.54
690.172	-6.54
690.201	-2.54
690.231	3.46
690.26	-0.54
690.29	-4.54
690.319	10.46
690.348	-14.54
690.378	-1.54
690.407	11.46
690.437	-8.54
690.466	-11.54
690.496	-11.54
690.525	3.46
690.555	-3.54
690.584	2.46
690.613	-4.54
690.643	6.46
690.672	-3.54
690.702	10.46
690.731	7.46
690.76	1.46
690.79	-12.54
690.819	-8.54
690.849	8.46
690.878	-9.54
690.907	-3.54
690.937	8.46
690.966	15.46
690.996	-10.54
691.025	-4.54
691.054	0.46
691.084	-1.54
691.113	13.46
691.142	-1.54
691.172	8.46
691.201	7.46
691.23	2.46
691.26	6.46
691.289	-13.54
691.319	-16.54
691.348	-6.54
691.377	12.46
691.407	14.46
691.436	3.46
691.465	19.46
691.495	-1.54
691.524	2.46
691.553	-3.54
691.583	-2.54
691.612	16.46
691.641	13.46
691.67	-4.54
691.7	-15.54
691.729	-6.54
691.758	-11.54
691.788	9.46
691.817	-1.54
691.846	1.46
691.876	3.46
691.905	-4.54
691.934	-6.54
691.963	0.46
691.993	10.46
692.022	1.46
692.051	-21.54
692.081	20.46
692.11	10.46
692.139	2.46
692.168	6.46
692.198	14.46
692.227	7.46
692.256	9.46
692.285	2.46
692.315	-4.54
692.344	-2.54
692.373	4.46
692.402	-10.54
692.432	-9.54
692.461	10.46
692.49	7.46
692.519	-2.54
692.548	8.46
692.578	13.46
692.607	-16.54
692.636	-2.54
692.665	6.46
692.694	-8.54
692.724	-10.54
692.753	-9.54
692.782	-4.54
692.811	-12.54
692.84	-4.54
692.87	7.46
692.899	-4.54
692.928	3.46
692.957	21.46
692.986	11.46
693.016	-12.54
693.045	-1.54
693.074	-11.54
693.103	-10.54
693.132	3.46
693.161	-1.54
693.191	-4.54
693.22	-6.54
693.249	-6.54
693.278	-1.54
693.307	4.46
693.336	1.46
693.365	-14.54
693.395	13.46
693.424	-6.54
693.453	8.46
693.482	-1.54
693.511	4.46
693.54	4.46
693.569	11.46
693.598	-11.54
693.628	-4.54
693.657	10.46
693.686	17.46
693.715	21.46
693.744	15.46
693.773	17.46
693.802	9.46
693.831	-12.54
693.86	1.46
693.889	-11.54
693.919	-0.54
693.948	4.46
693.977	10.46
694.006	-8.54
694.035	-2.54
694.064	-11.54
694.093	-3.54
694.122	-3.54
694.151	1.46
694.18	16.46
694.209	20.46
694.238	5.46
694.267	15.46
694.296	2.46
694.325	0.46
694.354	12.46
694.383	17.46
694.412	-1.54
694.441	0.46
694.471	15.46
694.5	-23.54
694.529	3.46
694.558	22.46
694.587	20.46
694.616	-2.54
694.645	1.46
694.674	17.46
694.703	8.46
694.732	4.46
694.761	11.46
694.79	5.46
694.819	-5.54
694.848	-4.54
694.877	17.46
694.906	21.46
694.935	-6.54
694.963	4.46
694.992	0.46
695.021	-11.54
695.05	-5.54
695.079	21.46
695.108	0.46
695.137	15.46
695.166	11.46
695.195	16.46
695.224	6.46
695.253	-2.54
695.282	1.46
695.311	12.46
695.34	-2.54
695.369	10.46
695.398	-8.54
695.427	22.46
695.456	-0.54
695.485	6.46
695.513	10.46
695.542	9.46
695.571	-4.54
695.6	10.46
695.629	3.46
695.658	11.46
695.687	-1.54
695.716	0.46
695.745	17.46
695.774	-13.54
695.802	-3.54
695.831	-3.54
695.86	18.46
695.889	15.46
695.918	-4.54
695.947	-2.54
695.976	2.46
696.005	-10.54
696.033	7.46
696.062	18.46
696.091	-0.54
696.12	5.46
696.149	0.46
696.178	7.46
696.207	10.46
696.235	-15.54
696.264	-4.54
696.293	10.46
696.322	13.46
696.351	14.46
696.38	-11.54
696.408	-0.54
696.437	-5.54
696.466	6.46
696.495	11.46
696.524	0.46
696.553	-0.54
696.581	-2.54
696.61	-2.54
696.639	-7.54
696.668	4.46
696.697	-2.54
696.725	17.46
696.754	6.46
696.783	-1.54
696.812	1.46
696.84	7.46
696.869	8.46
696.898	2.46
696.927	3.46
696.956	27.46
696.984	-6.54
697.013	14.46
697.042	2.46
697.071	12.46
697.099	8.46
697.128	5.46
697.157	5.46
697.186	3.46
697.214	-7.54
697.243	-10.54
697.272	3.46
697.301	-0.54
697.329	1.46
697.358	2.46
697.387	27.46
697.415	2.46
697.444	17.46
697.473	-8.54
697.502	-12.54
697.53	3.46
697.559	1.46
697.588	-0.54
697.616	-11.54
697.645	0.46
697.674	10.46
697.703	-8.54
697.731	4.46
697.76	3.46
697.789	-1.54
697.817	-13.54
697.846	8.46
697.875	-0.54
697.903	15.46
697.932	12.46
697.961	8.46
697.989	-0.54
698.018	-4.54
698.047	-0.54
698.075	11.46
698.104	-2.54
698.133	-4.54
698.161	-1.54
698.19	2.46
698.218	4.46
698.247	-9.54
698.276	-2.54
698.304	4.46
698.333	4.46
698.362	11.46
698.39	15.46
698.419	5.46
698.447	-11.54
698.476	-1.54
698.505	10.46
698.533	18.46
698.562	10.46
698.591	7.46
698.619	-10.54
698.648	11.46
698.676	-1.54
698.705	6.46
698.733	-17.54
698.762	8.46
698.791	-6.54
698.819	-8.54
698.848	-2.54
698.876	1.46
698.905	7.46
698.933	4.46
698.962	6.46
698.991	3.46
699.019	5.46
699.048	17.46
699.076	13.46
699.105	-10.54
699.133	-0.54
699.162	13.46
699.19	14.46
699.219	6.46
699.248	3.46
699.276	-8.54
699.305	-3.54
699.333	9.46
699.362	-1.54
699.39	7.46
699.419	-6.54
699.447	24.46
699.476	-5.54
699.504	-5.54
699.533	18.46
699.561	-10.54
699.59	1.46
699.618	3.46
699.647	-1.54
699.675	-17.54
699.704	6.46
699.732	-3.54
699.761	14.46
699.789	-7.54
699.818	19.46
699.846	-10.54
699.874	-6.54
699.903	-11.54
699.931	-1.54
699.96	1.46
699.988	1.46
700.017	-1.54
700.045	1.46
700.074	-8.54
700.102	-18.54
700.13	-1.54
700.159	7.46
700.187	3.46
700.216	-14.54
700.244	2.46
700.273	-12.54
700.301	-1.54
700.329	16.46
700.358	7.46
700.386	-0.54
700.415	-3.54
700.443	4.46
700.472	11.46
700.5	3.46
700.528	13.46
700.557	-2.54
700.585	-10.54
700.614	-11.54
700.642	11.46
700.67	23.46
700.699	12.46
700.727	-2.54
700.755	5.46
700.784	16.46
700.812	6.46
700.841	11.46
700.869	-4.54
700.897	-11.54
700.926	-8.54
700.954	-2.54
700.982	8.46
701.011	10.46
701.039	10.46
701.067	-4.54
701.096	-7.54
701.124	-20.54
701.152	-7.54
701.181	-15.54
701.209	-14.54
701.237	2.46
701.266	-2.54
701.294	-2.54
701.322	6.46
701.351	17.46
701.379	2.46
701.407	1.46
701.435	-12.54
701.464	6.46
701.492	13.46
701.52	-7.54
701.549	10.46
701.577	-4.54
701.605	2.46
701.634	0.46
701.662	13.46
701.69	-16.54
701.718	-3.54
701.747	-0.54
701.775	-7.54
701.803	-27.54
701.831	19.46
701.86	7.46
701.888	13.46
701.916	-4.54
701.944	4.46
701.973	-4.54
702.001	-0.54
702.029	-25.54
702.057	-21.54
702.086	-8.54
702.114	-5.54
702.142	-7.54
702.17	-20.54
702.199	-3.54
702.227	4.46
702.255	1.46
702.283	-4.54
702.311	-1.54
702.34	-12.54
702.368	-11.54
702.396	1.46
702.424	-16.54
702.452	-21.54
702.481	1.46
702.509	10.46
702.537	7.46
702.565	0.46
702.593	-35.54
702.621	10.46
702.65	9.46
702.678	20.46
702.706	10.46
702.734	-1.54
702.762	4.46
702.79	6.46
702.819	-2.54
702.847	-5.54
702.875	3.46
702.903	-0.54
702.931	-0.54
702.959	-5.54
702.988	-14.54
703.016	-14.54
703.044	-18.54
703.072	-4.54
703.1	10.46
703.128	11.46
703.156	13.46
703.184	10.46
703.212	9.46
703.241	18.46
703.269	1.46
703.297	-2.54
703.325	-1.54
703.353	-4.54
703.381	-13.54
703.409	2.46
703.437	-2.54
703.465	-4.54
703.493	-6.54
703.522	8.46
703.55	5.46
703.578	7.46
703.606	-5.54
703.634	-14.54
703.662	-10.54
703.69	-14.54
703.718	-5.54
703.746	17.46
703.774	-3.54
703.802	0.46
703.83	-5.54
703.858	3.46
703.886	0.46
703.914	-16.54
703.942	16.46
703.97	-4.54
703.998	-12.54
704.027	20.46
704.055	-2.54
704.083	-5.54
704.111	-9.54
704.139	-2.54
704.167	-12.54
704.195	9.46
704.223	1.46
704.251	-4.54
704.279	3.46
704.307	1.46
704.335	-15.54
704.363	0.46
704.391	3.46
704.419	-11.54
704.447	-10.54
704.475	1.46
704.503	-1.54
704.531	13.46
704.558	1.46
704.586	23.46
704.614	-0.54
704.642	-8.54
704.67	-22.54
704.698	-12.54
704.726	5.46
704.754	0.46
704.782	-8.54
704.81	0.46
704.838	19.46
704.866	9.46
704.894	-11.54
704.922	-5.54
704.95	-5.54
704.978	10.46
705.006	-6.54
705.034	1.46
705.061	-8.54
705.089	-7.54
705.117	-1.54
705.145	3.46
705.173	-12.54
705.201	-5.54
705.229	22.46
705.257	11.46
705.285	18.46
705.313	8.46
705.34	2.46
705.368	-11.54
705.396	-16.54
705.424	-12.54
705.452	-9.54
705.48	6.46
705.508	-2.54
705.536	-10.54
705.563	-13.54
705.591	17.46
705.619	-0.54
705.647	-24.54
705.675	0.46
705.703	4.46
705.731	-6.54
705.758	-6.54
705.786	-3.54
705.814	12.46
705.842	2.46
705.87	18.46
705.898	15.46
705.925	-0.54
705.953	7.46
705.981	-21.54
706.009	-10.54
706.037	18.46
706.065	-0.54
706.092	-1.54
706.12	15.46
706.148	-7.54
706.176	-15.54
706.204	12.46
706.231	7.46
706.259	-4.54
706.287	-10.54
706.315	8.46
706.342	2.46
706.37	8.46
706.398	-12.54
706.426	1.46
706.454	12.46
706.481	4.46
706.509	7.46
706.537	-2.54
706.565	-16.54
706.592	-10.54
706.62	-5.54
706.648	9.46
706.676	-7.54
706.703	14.46
706.731	-2.54
706.759	-6.54
706.787	-7.54
706.814	1.46
706.842	8.46
706.87	0.46
706.897	6.46
706.925	-2.54
706.953	14.46
706.981	9.46
707.008	-0.54
707.036	-3.54
707.064	0.46
707.091	-5.54
707.119	14.46
707.147	-8.54
707.174	-6.54
707.202	2.46
707.23	-12.54
707.258	-1.54
707.285	-7.54
707.313	-4.54
707.341	-16.54
707.368	-7.54
707.396	4.46
707.424	11.46
707.451	6.46
707.479	5.46
707.507	2.46
707.534	-17.54
707.562	-1.54
707.59	-12.54
707.617	-7.54
707.645	-2.54
707.672	10.46
707.7	2.46
707.728	7.46
707.755	-5.54
707.783	4.46
707.811	-6.54
707.838	-4.54
707.866	2.46
707.893	-2.54
707.921	-14.54
707.949	-2.54
707.976	-5.54
708.004	8.46
708.031	-2.54
708.059	-6.54
708.087	-1.54
708.114	-7.54
708.142	-7.54
708.169	-16.54
708.197	-21.54
708.225	7.46
708.252	-3.54
708.28	5.46
708.307	-4.54
708.335	0.46
708.362	-7.54
708.39	-6.54
708.418	6.46
708.445	-1.54
708.473	4.46
708.5	-8.54
708.528	18.46
708.555	-1.54
708.583	9.46
708.61	-6.54
708.638	12.46
708.665	-2.54
708.693	4.46
708.72	-6.54
708.748	3.46
708.776	7.46
708.803	12.46
708.831	1.46
708.858	-2.54
708.886	-13.54
708.913	5.46
708.941	7.46
708.968	11.46
708.996	-1.54
709.023	17.46
709.051	-4.54
709.078	-16.54
709.105	2.46
709.133	-2.54
709.16	2.46
709.188	10.46
709.215	20.46
709.243	-8.54
709.27	-10.54
709.298	5.46
709.325	-1.54
709.353	4.46
709.38	-10.54
709.408	-3.54
709.435	-8.54
709.462	-4.54
709.49	0.46
709.517	-17.54
709.545	-13.54
709.572	-3.54
709.6	-17.54
709.627	-7.54
709.655	-13.54
709.682	3.46
709.709	-14.54
709.737	-7.54
709.764	7.46
709.792	12.46
709.819	-3.54
709.846	-12.54
709.874	15.46
709.901	11.46
709.929	13.46
709.956	16.46
709.983	0.46
710.011	-1.54
710.038	-1.54
710.066	1.46
710.093	0.46
710.12	6.46
710.148	-3.54
710.175	-13.54
710.202	-22.54
710.23	0.46
710.257	10.46
710.284	7.46
710.312	-0.54
710.339	-6.54
710.366	1.46
710.394	1.46
710.421	-5.54
710.448	-16.54
710.476	-12.54
710.503	-2.54
710.53	15.46
710.558	6.46
710.585	7.46
710.612	-0.54
710.64	-7.54
710.667	-4.54
710.694	-9.54
710.722	2.46
710.749	1.46
710.776	-7.54
710.804	19.46
710.831	-7.54
710.858	17.46
710.885	-4.54
710.913	0.46
710.94	31.46
710.967	11.46
710.995	4.46
711.022	3.46
711.049	-7.54
711.076	-17.54
711.104	8.46
711.131	-8.54
711.158	-9.54
711.185	16.46
711.213	-4.54
711.24	-7.54
711.267	2.46
711.294	5.46
711.322	19.46
711.349	5.46
711.376	-3.54
711.403	3.46
711.431	2.46
711.458	-6.54
711.485	-18.54
711.512	8.46
711.54	-7.54
711.567	7.46
711.594	-7.54
711.621	-3.54
711.648	6.46
711.676	4.46
711.703	-1.54
711.73	-27.54
711.757	17.46
711.784	2.46
711.812	0.46
711.839	-4.54
711.866	-9.54
711.893	-5.54
711.92	24.46
711.947	5.46
711.975	7.46
712.002	1.46
712.029	3.46
712.056	15.46
712.083	4.46
712.11	-13.54
712.138	0.46
712.165	3.46
712.192	-5.54
712.219	-7.54
712.246	-3.54
712.273	-7.54
712.3	-15.54
712.328	4.46
712.355	-9.54
712.382	-7.54
712.409	20.46
712.436	1.46
712.463	-0.54
712.49	-6.54
712.517	-9.54
712.544	10.46
712.572	5.46
712.599	-4.54
712.626	3.46
712.653	-1.54
712.68	-9.54
712.707	2.46
712.734	4.46
712.761	-1.54
712.788	-18.54
712.815	4.46
712.842	14.46
712.87	10.46
712.897	-1.54
712.924	-12.54
712.951	4.46
712.978	14.46
713.005	7.46
713.032	28.46
713.059	-1.54
713.086	-5.54
713.113	-15.54
713.14	-6.54
713.167	2.46
713.194	4.46
713.221	-12.54
713.248	14.46
713.275	7.46
713.302	-5.54
713.329	-12.54
713.356	11.46
713.383	4.46
713.41	21.46
713.437	-2.54
713.464	-5.54
713.491	7.46
713.518	-5.54
713.545	-6.54
713.572	10.46
713.599	31.46
713.626	3.46
713.653	15.46
713.68	3.46
713.707	6.46
713.734	3.46
713.761	-12.54
713.788	-2.54
713.815	10.46
713.842	2.46
713.869	-0.54
713.896	-7.54
713.923	6.46
713.95	5.46
713.977	-2.54
714.004	-6.54
714.031	-2.54
714.058	-7.54
714.085	-2.54
714.112	-4.54
714.139	-6.54
714.165	-13.54
714.192	-2.54
714.219	1.46
714.246	-1.54
714.273	-1.54
714.3	-8.54
714.327	-2.54
714.354	2.46
714.381	-3.54
714.408	-12.54
714.435	-3.54
714.461	-4.54
714.488	-5.54
714.515	2.46
714.542	-8.54
714.569	-18.54
714.596	-9.54
714.623	-1.54
714.65	-17.54
714.677	7.46
714.703	-1.54
714.73	5.46
714.757	-2.54
714.784	1.46
714.811	-11.54
714.838	-1.54
714.865	-2.54
714.891	2.46
714.918	-9.54
714.945	-7.54
714.972	1.46
714.999	29.46
715.026	6.46
715.052	28.46
715.079	-23.54
715.106	-2.54
715.133	-12.54
715.16	-7.54
715.187	-1.54
715.213	17.46
715.24	-7.54
715.267	-8.54
715.294	-12.54
715.321	-8.54
715.347	-7.54
715.374	-4.54
715.401	-4.54
715.428	4.46
715.455	0.46
715.481	-10.54
715.508	3.46
715.535	-6.54
715.562	3.46
715.588	-11.54
715.615	-2.54
715.642	11.46
715.669	6.46
715.695	5.46
715.722	5.46
715.749	-3.54
715.776	6.46
715.802	-9.54
715.829	0.46
715.856	-4.54
715.883	-0.54
715.909	-14.54
715.936	4.46
715.963	-0.54
715.99	-11.54
716.016	-7.54
716.043	13.46
716.07	-12.54
716.096	-7.54
716.123	7.46
716.15	0.46
716.177	5.46
716.203	-3.54
716.23	1.46
716.257	10.46
716.283	29.46
716.31	-9.54
716.337	7.46
716.363	1.46
716.39	-5.54
716.417	1.46
716.443	-5.54
716.47	11.46
716.497	17.46
716.523	-0.54
716.55	18.46
716.577	22.46
716.603	-2.54
716.63	17.46
716.657	21.46
716.683	-3.54
716.71	-6.54
716.737	6.46
716.763	-1.54
716.79	9.46
716.817	-3.54
716.843	-5.54
716.87	-6.54
716.897	-2.54
716.923	20.46
716.95	0.46
716.976	4.46
717.003	-1.54
717.03	19.46
717.056	4.46
717.083	-8.54
717.109	-4.54
717.136	7.46
717.163	-2.54
717.189	-2.54
717.216	0.46
717.242	-13.54
717.269	-8.54
717.296	12.46
717.322	4.46
717.349	5.46
717.375	12.46
717.402	-1.54
717.428	-9.54
717.455	14.46
717.481	6.46
717.508	14.46
717.535	15.46
717.561	10.46
717.588	2.46
717.614	-1.54
717.641	-18.54
717.667	-11.54
717.694	2.46
717.72	14.46
717.747	10.46
717.773	-2.54
717.8	-5.54
717.826	-1.54
717.853	-2.54
717.88	7.46
717.906	8.46
717.933	2.46
717.959	-2.54
717.986	-2.54
718.012	6.46
718.039	6.46
718.065	20.46
718.092	11.46
718.118	-7.54
718.144	-8.54
718.171	23.46
718.197	11.46
718.224	-1.54
718.25	-0.54
718.277	-2.54
718.303	-1.54
718.33	6.46
718.356	-7.54
718.383	1.46
718.409	-5.54
718.436	-8.54
718.462	-10.54
718.489	-2.54
718.515	9.46
718.541	20.46
718.568	8.46
718.594	9.46
718.621	9.46
718.647	1.46
718.674	19.46
718.7	3.46
718.726	-1.54
718.753	5.46
718.779	14.46
718.806	-1.54
718.832	-4.54
718.858	3.46
718.885	5.46
718.911	6.46
718.938	-4.54
718.964	-25.54
718.99	1.46
719.017	-6.54
719.043	-2.54
719.07	10.46
719.096	-14.54
719.122	2.46
719.149	14.46
719.175	-0.54
719.201	9.46
719.228	9.46
719.254	0.46
719.281	-6.54
719.307	-0.54
719.333	1.46
719.36	3.46
719.386	5.46
719.412	7.46
719.439	-13.54
719.465	-5.54
719.491	-15.54
719.518	10.46
719.544	12.46
719.57	2.46
719.597	1.46
719.623	-5.54
719.649	-4.54
719.675	3.46
719.702	-2.54
719.728	21.46
719.754	-8.54
719.781	-3.54
719.807	-2.54
719.833	-1.54
719.86	4.46
719.886	-5.54
719.912	-10.54
719.938	0.46
719.965	-3.54
719.991	-0.54
720.017	11.46
720.044	-26.54
720.07	-17.54
720.096	-0.54
720.122	0.46
720.149	14.46
720.175	18.46
720.201	1.46
720.227	5.46
720.254	-2.54
720.28	11.46
720.306	-14.54
720.332	-1.54
720.359	-1.54
720.385	-6.54
720.411	6.46
720.437	13.46
720.463	-4.54
720.49	11.46
720.516	1.46
720.542	-0.54
720.568	13.46
720.595	6.46
720.621	-1.54
720.647	30.46
720.673	16.46
720.699	10.46
720.725	-2.54
720.752	10.46
720.778	7.46
720.804	15.46
720.83	14.46
720.856	0.46
720.883	-15.54
720.909	-2.54
720.935	-4.54
720.961	14.46
720.987	4.46
721.013	-4.54
721.04	-13.54
721.066	-5.54
721.092	-11.54
721.118	2.46
721.144	3.46
721.17	-7.54
721.196	2.46
721.223	-15.54
721.249	-12.54
721.275	22.46
721.301	1.46
721.327	2.46
721.353	11.46
721.379	1.46
721.405	9.46
721.432	15.46
721.458	-2.54
721.484	6.46
721.51	-20.54
721.536	13.46
721.562	1.46
721.588	0.46
721.614	-0.54
721.64	-9.54
721.666	-10.54
721.693	-7.54
721.719	-6.54
721.745	-1.54
721.771	-11.54
721.797	-2.54
721.823	-5.54
721.849	6.46
721.875	3.46
721.901	12.46
721.927	-1.54
721.953	-7.54
721.979	12.46
722.005	10.46
722.031	-8.54
722.057	-1.54
722.083	-3.54
722.109	2.46
722.135	2.46
722.161	7.46
722.187	-14.54
722.214	-4.54
722.24	-5.54
722.266	-4.54
722.292	9.46
722.318	14.46
722.344	-5.54
722.37	1.46
722.396	6.46
722.422	11.46
722.448	0.46
722.474	-11.54
722.5	5.46
722.526	8.46
722.552	0.46
722.578	1.46
722.603	8.46
722.629	-4.54
722.655	1.46
722.681	-5.54
722.707	-0.54
722.733	2.46
722.759	-11.54
722.785	8.46
722.811	9.46
722.837	0.46
722.863	-5.54
722.889	-2.54
722.915	5.46
722.941	12.46
722.967	-9.54
722.993	-7.54
723.019	8.46
723.045	1.46
723.071	9.46
723.097	3.46
723.122	5.46
723.148	-2.54
723.174	-7.54
723.2	6.46
723.226	-0.54
723.252	3.46
723.278	2.46
723.304	-0.54
723.33	-0.54
723.356	-12.54
723.381	-10.54
723.407	-17.54
723.433	1.46
723.459	-12.54
723.485	-15.54
723.511	-4.54
723.537	-6.54
723.563	-3.54
723.588	2.46
723.614	10.46
723.64	6.46
723.666	-7.54
723.692	14.46
723.718	18.46
723.744	10.46
723.769	-3.54
723.795	-18.54
723.821	-0.54
723.847	-9.54
723.873	1.46
723.899	-11.54
723.924	-4.54
723.95	0.46
723.976	-8.54
724.002	-0.54
724.028	6.46
724.053	-3.54
724.079	-9.54
724.105	-9.54
724.131	-6.54
724.157	-7.54
724.182	-2.54
724.208	-7.54
724.234	-2.54
724.26	-4.54
724.286	10.46
724.311	-9.54
724.337	-6.54
724.363	-13.54
724.389	-9.54
724.415	-0.54
724.44	10.46
724.466	2.46
724.492	1.46
724.518	20.46
724.543	3.46
724.569	-1.54
724.595	-0.54
724.621	-5.54
724.646	-8.54
724.672	-2.54
724.698	12.46
724.723	0.46
724.749	-0.54
724.775	20.46
724.801	11.46
724.826	3.46
724.852	-4.54
724.878	-16.54
724.904	-16.54
724.929	-5.54
724.955	-10.54
724.981	-2.54
725.006	2.46
725.032	-4.54
725.058	10.46
725.083	-17.54
725.109	-5.54
725.135	-6.54
725.161	-4.54
725.186	-0.54
725.212	-2.54
725.238	-3.54
725.263	-8.54
725.289	-2.54
725.315	-15.54
725.34	0.46
725.366	-2.54
725.392	-11.54
725.417	-3.54
725.443	-1.54
725.468	11.46
725.494	12.46
725.52	-4.54
725.545	2.46
725.571	7.46
725.597	-0.54
725.622	1.46
725.648	2.46
725.674	-1.54
725.699	6.46
725.725	7.46
725.75	27.46
725.776	-4.54
725.802	-0.54
725.827	11.46
725.853	-18.54
725.878	-8.54
725.904	-10.54
725.93	-0.54
725.955	-20.54
725.981	-10.54
726.006	-13.54
726.032	1.46
726.057	-6.54
726.083	1.46
726.109	-4.54
726.134	-10.54
726.16	-6.54
726.185	-4.54
726.211	4.46
726.236	2.46
726.262	4.46
726.288	-5.54
726.313	10.46
726.339	6.46
726.364	9.46
726.39	12.46
726.415	-7.54
726.441	-4.54
726.466	-11.54
726.492	-4.54
726.517	7.46
726.543	-8.54
726.568	-1.54
726.594	1.46
726.619	5.46
726.645	9.46
726.67	-4.54
726.696	-10.54
726.721	1.46
726.747	-1.54
726.772	-3.54
726.798	-4.54
726.823	-14.54
726.849	2.46
726.874	-1.54
726.9	9.46
726.925	5.46
726.951	2.46
726.976	18.46
727.002	-2.54
727.027	5.46
727.053	-1.54
727.078	-0.54
727.104	-1.54
727.129	-35.54
727.155	2.46
727.18	5.46
727.205	2.46
727.231	-6.54
727.256	-14.54
727.282	2.46
727.307	5.46
727.333	-4.54
727.358	-16.54
727.383	-18.54
727.409	-11.54
727.434	11.46
727.46	-11.54
727.485	-9.54
727.511	0.46
727.536	-10.54
727.561	-7.54
727.587	-16.54
727.612	-11.54
727.637	-8.54
727.663	-5.54
727.688	14.46
727.714	-9.54
727.739	-6.54
727.764	-7.54
727.79	-6.54
727.815	0.46
727.841	-2.54
727.866	-3.54
727.891	-18.54
727.917	-17.54
727.942	-1.54
727.967	-5.54
727.993	-35.54
728.018	-8.54
728.043	12.46
728.069	18.46
728.094	26.46
728.119	-1.54
728.145	26.46
728.17	6.46
728.195	3.46
728.221	11.46
728.246	-16.54
728.271	-30.54
728.297	-5.54
728.322	9.46
728.347	3.46
728.373	-6.54
728.398	15.46
728.423	-14.54
728.448	-5.54
728.474	-0.54
728.499	19.46
728.524	1.46
728.55	-7.54
728.575	-7.54
728.6	2.46
728.625	-15.54
728.651	-1.54
728.676	-5.54
728.701	0.46
728.727	2.46
728.752	-15.54
728.777	-8.54
728.802	6.46
728.828	-7.54
728.853	8.46
728.878	4.46
728.903	-9.54
728.929	-5.54
728.954	-16.54
728.979	1.46
729.004	-5.54
729.03	-4.54
729.055	8.46
729.08	-12.54
729.105	-6.54
729.13	16.46
729.156	12.46
729.181	-5.54
729.206	-14.54
729.231	-2.54
729.256	4.46
729.282	6.46
729.307	-13.54
729.332	-14.54
729.357	-4.54
729.382	3.46
729.408	-12.54
729.433	-1.54
729.458	-0.54
729.483	-1.54
729.508	5.46
729.533	2.46
729.559	2.46
729.584	-10.54
729.609	6.46
729.634	3.46
729.659	4.46
729.684	-10.54
729.71	12.46
729.735	13.46
729.76	0.46
729.785	0.46
729.81	10.46
729.835	-7.54
729.86	-10.54
729.886	-2.54
729.911	-2.54
729.936	0.46
729.961	4.46
729.986	-18.54
730.011	-1.54
730.036	6.46
730.061	4.46
730.086	-4.54
730.112	-9.54
730.137	-11.54
730.162	2.46
730.187	1.46
730.212	15.46
730.237	-19.54
730.262	-8.54
730.287	-25.54
730.312	-0.54
730.337	-11.54
730.362	19.46
730.387	-9.54
730.413	7.46
730.438	1.46
730.463	-0.54
730.488	-16.54
730.513	-2.54
730.538	-11.54
730.563	5.46
730.588	2.46
730.613	8.46
730.638	1.46
730.663	-18.54
730.688	11.46
730.713	-0.54
730.738	3.46
730.763	-0.54
730.788	-5.54
730.813	1.46
730.838	-8.54
730.863	-9.54
730.888	-8.54
730.913	-9.54
730.938	-5.54
730.963	-8.54
730.988	-2.54
731.013	-2.54
731.038	-15.54
731.063	-18.54
731.088	4.46
731.113	1.46
731.138	-5.54
731.163	4.46
731.188	-6.54
731.213	-10.54
731.238	1.46
731.263	-2.54
731.288	-11.54
731.313	8.46
731.338	-1.54
731.363	-4.54
731.388	-5.54
731.413	-9.54
731.438	-5.54
731.463	-1.54
731.487	-1.54
731.512	-2.54
731.537	5.46
731.562	-12.54
731.587	1.46
731.612	-9.54
731.637	-18.54
731.662	-7.54
731.687	-13.54
731.712	-21.54
731.737	4.46
731.762	-11.54
731.786	6.46
731.811	8.46
731.836	-1.54
731.861	-0.54
731.886	-8.54
731.911	0.46
731.936	5.46
731.961	-10.54
731.986	-7.54
732.01	6.46
732.035	-4.54
732.06	1.46
732.085	-2.54
732.11	7.46
732.135	-18.54
732.16	-12.54
732.184	-2.54
732.209	-6.54
732.234	11.46
732.259	-12.54
732.284	-8.54
732.309	-12.54
732.334	-10.54
732.358	-24.54
732.383	-24.54
732.408	-0.54
732.433	0.46
732.458	-8.54
732.482	10.46
732.507	-9.54
732.532	-4.54
732.557	10.46
732.582	-5.54
732.607	-4.54
732.631	-10.54
732.656	-4.54
732.681	-11.54
732.706	9.46
732.73	4.46
732.755	-5.54
732.78	4.46
732.805	-3.54
732.83	6.46
732.854	-4.54
732.879	9.46
732.904	4.46
732.929	-8.54
732.953	-7.54
732.978	-10.54
733.003	-10.54
733.028	-11.54
733.052	11.46
733.077	-6.54
733.102	16.46
733.127	1.46
733.151	2.46
733.176	9.46
733.201	-3.54
733.226	-0.54
733.25	-9.54
733.275	-1.54
733.3	-2.54
733.324	1.46
733.349	-2.54
733.374	6.46
733.399	-4.54
733.423	-7.54
733.448	-3.54
733.473	-4.54
733.497	0.46
733.522	-5.54
733.547	9.46
733.571	0.46
733.596	1.46
733.621	17.46
733.646	0.46
733.67	-8.54
733.695	-11.54
733.72	-0.54
733.744	-9.54
733.769	1.46
733.794	10.46
733.818	5.46
733.843	-12.54
733.867	-9.54
733.892	-2.54
733.917	-6.54
733.941	-5.54
733.966	3.46
733.991	-0.54
734.015	6.46
734.04	10.46
734.065	9.46
734.089	10.46
734.114	-0.54
734.138	1.46
734.163	5.46
734.188	-2.54
734.212	12.46
734.237	2.46
734.261	6.46
734.286	1.46
734.311	-1.54
734.335	-2.54
734.36	3.46
734.384	0.46
734.409	-4.54
734.434	-5.54
734.458	-2.54
734.483	-5.54
734.507	-7.54
734.532	-0.54
734.556	5.46
734.581	-13.54
734.606	-2.54
734.63	-21.54
734.655	8.46
734.679	0.46
734.704	-6.54
734.728	-7.54
734.753	0.46
734.777	-4.54
734.802	-16.54
734.826	0.46
734.851	-11.54
734.876	3.46
734.9	26.46
734.925	12.46
734.949	12.46
734.974	-0.54
734.998	14.46
735.023	-12.54
735.047	-25.54
735.072	16.46
735.096	3.46
735.121	-7.54
735.145	-10.54
735.17	-0.54
735.194	11.46
735.219	-10.54
735.243	-0.54
735.268	8.46
735.292	18.46
735.317	5.46
735.341	7.46
735.365	-10.54
735.39	6.46
735.414	4.46
735.439	-2.54
735.463	8.46
735.488	-0.54
735.512	-16.54
735.537	-0.54
735.561	-4.54
735.586	-10.54
735.61	-5.54
735.634	-11.54
735.659	9.46
735.683	15.46
735.708	-9.54
735.732	-14.54
735.757	-22.54
735.781	0.46
735.805	9.46
735.83	-29.54
735.854	-22.54
735.879	-22.54
735.903	14.46
735.927	17.46
735.952	14.46
735.976	0.46
736.001	-8.54
736.025	-2.54
736.049	4.46
736.074	-8.54
736.098	-2.54
736.123	9.46
736.147	-2.54
736.171	-2.54
736.196	7.46
736.22	-5.54
736.244	10.46
736.269	-3.54
736.293	-9.54
736.317	-2.54
736.342	9.46
736.366	25.46
736.39	21.46
736.415	-2.54
736.439	-8.54
736.463	5.46
736.488	-0.54
736.512	-0.54
736.536	-1.54
736.561	22.46
736.585	-2.54
736.609	-1.54
736.634	2.46
736.658	-8.54
736.682	-9.54
736.707	-7.54
736.731	-1.54
736.755	5.46
736.78	12.46
736.804	11.46
736.828	2.46
736.852	3.46
736.877	-1.54
736.901	9.46
736.925	-4.54
736.949	4.46
736.974	-6.54
736.998	-5.54
737.022	1.46
737.047	-0.54
737.071	-6.54
737.095	14.46
737.119	25.46
737.144	30.46
737.168	2.46
737.192	-8.54
737.216	2.46
737.241	-5.54
737.265	-10.54
737.289	-16.54
737.313	-6.54
737.337	12.46
737.362	8.46
737.386	-8.54
737.41	-6.54
737.434	10.46
737.459	-6.54
737.483	2.46
737.507	1.46
737.531	3.46
737.555	-1.54
737.58	1.46
737.604	-2.54
737.628	-15.54
737.652	-2.54
737.676	6.46
737.701	14.46
737.725	1.46
737.749	0.46
737.773	2.46
737.797	-18.54
737.821	7.46
737.846	4.46
737.87	23.46
737.894	2.46
737.918	-3.54
737.942	-8.54
737.966	7.46
737.99	10.46
738.015	-8.54
738.039	-8.54
738.063	1.46
738.087	-0.54
738.111	-15.54
738.135	8.46
738.159	-2.54
738.184	4.46
738.208	-1.54
738.232	-8.54
738.256	11.46
738.28	9.46
738.304	8.46
738.328	-8.54
738.352	-5.54
738.376	-1.54
738.4	6.46
738.425	-6.54
738.449	-1.54
738.473	11.46
738.497	1.46
738.521	-3.54
738.545	13.46
738.569	0.46
738.593	14.46
738.617	6.46
738.641	-0.54
738.665	3.46
738.689	12.46
738.713	2.46
738.737	6.46
738.762	38.46
738.786	9.46
738.81	-7.54
738.834	11.46
738.858	-9.54
738.882	0.46
738.906	-4.54
738.93	10.46
738.954	14.46
738.978	1.46
739.002	-7.54
739.026	10.46
739.05	-8.54
739.074	-5.54
739.098	14.46
739.122	20.46
739.146	-1.54
739.17	11.46
739.194	12.46
739.218	0.46
739.242	-9.54
739.266	-20.54
739.29	-6.54
739.314	2.46
739.338	5.46
739.362	-11.54
739.386	-11.54
739.41	-3.54
739.434	4.46
739.458	17.46
739.482	9.46
739.506	3.46
739.53	4.46
739.554	22.46
739.577	7.46
739.601	1.46
739.625	-7.54
739.649	-8.54
739.673	-7.54
739.697	-3.54
739.721	-2.54
739.745	11.46
739.769	-1.54
739.793	-4.54
739.817	6.46
739.841	4.46
739.865	0.46
739.889	-17.54
739.912	-10.54
739.936	0.46
739.96	5.46
739.984	5.46
740.008	-6.54
740.032	-6.54
740.056	-5.54
740.08	-2.54
740.104	-15.54
740.127	11.46
740.151	20.46
740.175	11.46
740.199	11.46
740.223	43.46
740.247	1.46
740.271	11.46
740.295	-3.54
740.318	-6.54
740.342	3.46
740.366	1.46
740.39	14.46
740.414	-1.54
740.438	3.46
740.461	19.46
740.485	9.46
740.509	-11.54
740.533	7.46
740.557	-6.54
740.581	-13.54
740.604	-25.54
740.628	-11.54
740.652	8.46
740.676	-7.54
740.7	13.46
740.723	-2.54
740.747	3.46
740.771	9.46
740.795	-6.54
740.819	-2.54
740.842	11.46
740.866	9.46
740.89	4.46
740.914	5.46
740.938	-7.54
740.961	6.46
740.985	-4.54
741.009	-5.54
741.033	-4.54
741.056	-0.54
741.08	-9.54
741.104	4.46
741.128	-8.54
741.151	13.46
741.175	13.46
741.199	-2.54
741.223	20.46
741.246	3.46
741.27	11.46
741.294	18.46
741.318	-10.54
741.341	0.46
741.365	-2.54
741.389	4.46
741.413	-6.54
741.436	1.46
741.46	-5.54
741.484	13.46
741.507	3.46
741.531	26.46
741.555	7.46
741.579	1.46
741.602	2.46
741.626	15.46
741.65	-1.54
741.673	5.46
741.697	2.46
741.721	13.46
741.744	-8.54
741.768	-5.54
741.792	1.46
741.815	-15.54
741.839	14.46
741.863	8.46
741.886	7.46
741.91	2.46
741.934	4.46
741.957	3.46
741.981	17.46
742.005	-6.54
742.028	-8.54
742.052	-13.54
742.075	3.46
742.099	11.46
742.123	-4.54
742.146	5.46
742.17	-4.54
742.194	-10.54
742.217	-9.54
742.241	1.46
742.264	10.46
742.288	11.46
742.312	12.46
742.335	-2.54
742.359	-3.54
742.382	3.46
742.406	3.46
742.43	-17.54
742.453	-3.54
742.477	-2.54
742.5	14.46
742.524	-2.54
742.548	-6.54
742.571	4.46
742.595	9.46
742.618	-1.54
742.642	2.46
742.665	-10.54
742.689	-11.54
742.712	3.46
742.736	6.46
742.76	-10.54
742.783	-5.54
742.807	13.46
742.83	21.46
742.854	-1.54
742.877	7.46
742.901	8.46
742.924	0.46
742.948	9.46
742.971	14.46
742.995	2.46
743.018	-8.54
743.042	-6.54
743.065	-7.54
743.089	-8.54
743.112	-6.54
743.136	-4.54
743.159	7.46
743.183	-4.54
743.206	3.46
743.23	-17.54
743.253	16.46
743.277	19.46
743.3	-8.54
743.324	-5.54
743.347	0.46
743.371	7.46
743.394	8.46
743.418	15.46
743.441	2.46
743.465	-0.54
743.488	-2.54
743.512	-5.54
743.535	7.46
743.558	-13.54
743.582	9.46
743.605	1.46
743.629	14.46
743.652	10.46
743.676	6.46
743.699	22.46
743.723	-0.54
743.746	10.46
743.769	-2.54
743.793	6.46
743.816	2.46
743.84	17.46
743.863	-8.54
743.886	6.46
743.91	7.46
743.933	9.46
743.957	-2.54
743.98	-10.54
744.003	11.46
744.027	15.46
744.05	11.46
744.074	13.46
744.097	-14.54
744.12	-0.54
744.144	-17.54
744.167	12.46
744.19	0.46
744.214	0.46
744.237	-12.54
744.26	6.46
744.284	-5.54
744.307	-20.54
744.331	-13.54
744.354	-11.54
744.377	-13.54
744.401	-3.54
744.424	-1.54
744.447	-2.54
744.471	-11.54
