Data from HighRes_H2_15_09_11_07_2024_HR4C61891__97__15-11-06-102.txt Node

Date: Thu Nov 07 15:11:06 EST 2024
User: crc00042
Spectrometer: HR4C6189
Trigger mode: 4
Integration Time (sec): 1.000000E-1
Scans to average: 1
Electric dark correction enabled: true
Nonlinearity correction enabled: false
Boxcar width: 0
XAxis mode: Wavelengths
Number of Pixels in Spectrum: 3648
>>>>>Begin Spectral Data<<<<<
639.567	-32.77
639.602	-32.77
639.636	-32.77
639.67	-48.77
639.704	-21.77
639.738	-1.77
639.773	9.23
639.807	-20.77
639.841	-6.77
639.875	6.23
639.909	7.23
639.943	-10.77
639.978	9.23
640.012	10.23
640.046	3.23
640.08	6.23
640.114	1.23
640.148	-12.77
640.182	-8.77
640.217	1.23
640.251	16.23
640.285	10.23
640.319	-7.77
640.353	2.23
640.387	-6.77
640.421	-14.77
640.455	9.23
640.49	9.23
640.524	3.23
640.558	12.23
640.592	-5.77
640.626	3.23
640.66	3.23
640.694	-13.77
640.728	1.23
640.762	12.23
640.796	-0.77
640.83	16.23
640.865	-21.77
640.899	-6.77
640.933	-1.77
640.967	4.23
641.001	3.23
641.035	1.23
641.069	6.23
641.103	-16.77
641.137	-9.77
641.171	-27.77
641.205	-3.77
641.239	-7.77
641.273	14.23
641.307	9.23
641.341	19.23
641.375	7.23
641.409	2.23
641.443	3.23
641.477	7.23
641.511	7.23
641.545	7.23
641.579	2.23
641.614	6.23
641.648	19.23
641.682	-6.77
641.716	17.23
641.75	28.23
641.784	-11.77
641.818	3.23
641.852	13.23
641.886	-2.77
641.919	41.23
641.953	-2.77
641.987	-20.77
642.021	-15.77
642.055	17.23
642.089	-4.77
642.123	-9.77
642.157	-16.77
642.191	-14.77
642.225	5.23
642.259	6.23
642.293	14.23
642.327	2.23
642.361	-8.77
642.395	1.23
642.429	10.23
642.463	-2.77
642.497	12.23
642.531	11.23
642.565	1.23
642.599	27.23
642.633	-5.77
642.666	10.23
642.7	0.23
642.734	12.23
642.768	10.23
642.802	-7.77
642.836	-11.77
642.87	6.23
642.904	-4.77
642.938	-3.77
642.972	-4.77
643.005	2.23
643.039	1.23
643.073	-20.77
643.107	3.23
643.141	1.23
643.175	-3.77
643.209	3.23
643.243	6.23
643.276	11.23
643.31	1.23
643.344	-7.77
643.378	6.23
643.412	8.23
643.446	12.23
643.48	5.23
643.513	3.23
643.547	-2.77
643.581	-7.77
643.615	13.23
643.649	2.23
643.683	5.23
643.716	12.23
643.75	-1.77
643.784	3.23
643.818	5.23
643.852	-3.77
643.886	6.23
643.919	12.23
643.953	3.23
643.987	-3.77
644.021	-1.77
644.055	6.23
644.088	8.23
644.122	-0.77
644.156	-8.77
644.19	1.23
644.224	-1.77
644.257	10.23
644.291	10.23
644.325	11.23
644.359	-10.77
644.392	21.23
644.426	23.23
644.46	1.23
644.494	-7.77
644.527	11.23
644.561	1.23
644.595	0.23
644.629	-6.77
644.662	-21.77
644.696	3.23
644.73	9.23
644.764	7.23
644.797	0.23
644.831	3.23
644.865	20.23
644.899	-2.77
644.932	9.23
644.966	7.23
645	22.23
645.033	3.23
645.067	-12.77
645.101	-13.77
645.135	-5.77
645.168	-0.77
645.202	-3.77
645.236	-0.77
645.269	12.23
645.303	-5.77
645.337	-11.77
645.37	-1.77
645.404	-2.77
645.438	4.23
645.471	1.23
645.505	-1.77
645.539	14.23
645.572	-6.77
645.606	-2.77
645.64	0.23
645.673	9.23
645.707	14.23
645.741	13.23
645.774	7.23
645.808	15.23
645.842	4.23
645.875	5.23
645.909	3.23
645.943	-2.77
645.976	11.23
646.01	8.23
646.043	15.23
646.077	12.23
646.111	5.23
646.144	4.23
646.178	17.23
646.212	-4.77
646.245	-14.77
646.279	-2.77
646.312	-7.77
646.346	15.23
646.38	2.23
646.413	5.23
646.447	2.23
646.48	-6.77
646.514	-3.77
646.547	-0.77
646.581	0.23
646.615	-7.77
646.648	5.23
646.682	21.23
646.715	3.23
646.749	19.23
646.782	1.23
646.816	-1.77
646.85	9.23
646.883	-3.77
646.917	-0.77
646.95	-8.77
646.984	1.23
647.017	-6.77
647.051	10.23
647.084	12.23
647.118	2.23
647.151	-2.77
647.185	6.23
647.218	-8.77
647.252	9.23
647.285	-11.77
647.319	-8.77
647.353	0.23
647.386	8.23
647.42	0.23
647.453	6.23
647.487	0.23
647.52	2.23
647.553	0.23
647.587	2.23
647.62	-10.77
647.654	4.23
647.687	3.23
647.721	6.23
647.754	0.23
647.788	0.23
647.821	-13.77
647.855	4.23
647.888	18.23
647.922	12.23
647.955	1.23
647.989	-3.77
648.022	-3.77
648.055	4.23
648.089	-2.77
648.122	23.23
648.156	12.23
648.189	9.23
648.223	8.23
648.256	7.23
648.29	14.23
648.323	4.23
648.356	12.23
648.39	-3.77
648.423	16.23
648.457	5.23
648.49	2.23
648.523	12.23
648.557	2.23
648.59	12.23
648.624	8.23
648.657	-1.77
648.69	14.23
648.724	4.23
648.757	15.23
648.791	14.23
648.824	23.23
648.857	19.23
648.891	0.23
648.924	-3.77
648.957	28.23
648.991	-6.77
649.024	2.23
649.057	5.23
649.091	3.23
649.124	18.23
649.158	2.23
649.191	10.23
649.224	-4.77
649.258	-0.77
649.291	3.23
649.324	19.23
649.358	0.23
649.391	5.23
649.424	28.23
649.458	5.23
649.491	15.23
649.524	-11.77
649.557	-8.77
649.591	-19.77
649.624	17.23
649.657	2.23
649.691	0.23
649.724	-8.77
649.757	9.23
649.791	-7.77
649.824	3.23
649.857	11.23
649.89	6.23
649.924	-19.77
649.957	-2.77
649.99	-25.77
650.023	-11.77
650.057	-7.77
650.09	6.23
650.123	7.23
650.157	21.23
650.19	18.23
650.223	2.23
650.256	-2.77
650.29	5.23
650.323	-9.77
650.356	3.23
650.389	-7.77
650.423	2.23
650.456	4.23
650.489	2.23
650.522	12.23
650.555	15.23
650.589	7.23
650.622	3.23
650.655	31.23
650.688	-0.77
650.721	8.23
650.755	3.23
650.788	4.23
650.821	3.23
650.854	-12.77
650.887	-3.77
650.921	-8.77
650.954	3.23
650.987	8.23
651.02	12.23
651.053	-8.77
651.087	-0.77
651.12	10.23
651.153	2.23
651.186	5.23
651.219	-17.77
651.252	7.23
651.286	7.23
651.319	0.23
651.352	-0.77
651.385	-2.77
651.418	10.23
651.451	9.23
651.484	6.23
651.518	7.23
651.551	17.23
651.584	-16.77
651.617	8.23
651.65	5.23
651.683	2.23
651.716	-14.77
651.749	-23.77
651.783	-9.77
651.816	-14.77
651.849	-9.77
651.882	-13.77
651.915	-8.77
651.948	12.23
651.981	-3.77
652.014	-11.77
652.047	-4.77
652.08	-17.77
652.114	7.23
652.147	6.23
652.18	-10.77
652.213	29.23
652.246	2.23
652.279	-9.77
652.312	12.23
652.345	1.23
652.378	9.23
652.411	23.23
652.444	14.23
652.477	-10.77
652.51	-1.77
652.543	-11.77
652.576	2.23
652.609	-7.77
652.642	3.23
652.675	1.23
652.709	-14.77
652.742	-3.77
652.775	-4.77
652.808	10.23
652.841	8.23
652.874	-0.77
652.907	-4.77
652.94	-24.77
652.973	-0.77
653.006	-4.77
653.039	2.23
653.072	7.23
653.105	-0.77
653.138	-13.77
653.171	-7.77
653.204	-3.77
653.237	16.23
653.27	-13.77
653.303	4.23
653.336	3.23
653.368	-8.77
653.401	-0.77
653.434	6.23
653.467	5.23
653.5	-20.77
653.533	6.23
653.566	4.23
653.599	2.23
653.632	-6.77
653.665	12.23
653.698	-8.77
653.731	-5.77
653.764	-0.77
653.797	-11.77
653.83	-2.77
653.863	-7.77
653.896	-13.77
653.929	-2.77
653.961	2.23
653.994	-8.77
654.027	2.23
654.06	1.23
654.093	-6.77
654.126	10.23
654.159	-7.77
654.192	2.23
654.225	-15.77
654.258	5.23
654.29	3.23
654.323	10.23
654.356	8.23
654.389	11.23
654.422	14.23
654.455	2.23
654.488	7.23
654.521	-9.77
654.553	-10.77
654.586	3.23
654.619	-0.77
654.652	5.23
654.685	8.23
654.718	23.23
654.751	26.23
654.783	3.23
654.816	24.23
654.849	8.23
654.882	-8.77
654.915	-0.77
654.948	-2.77
654.98	1.23
655.013	-8.77
655.046	8.23
655.079	16.23
655.112	19.23
655.144	8.23
655.177	1.23
655.21	17.23
655.243	7.23
655.276	10.23
655.308	-9.77
655.341	-22.77
655.374	6.23
655.407	10.23
655.44	-7.77
655.472	12.23
655.505	4.23
655.538	3.23
655.571	16.23
655.603	3.23
655.636	19.23
655.669	14.23
655.702	22.23
655.734	8.23
655.767	7.23
655.8	23.23
655.833	26.23
655.865	31.23
655.898	18.23
655.931	20.23
655.964	40.23
655.996	44.23
656.029	53.23
656.062	59.23
656.095	61.23
656.127	59.23
656.16	96.23
656.193	126.23
656.225	175.23
656.258	284.23
656.291	500.23
656.324	1132.23
656.356	3380.23
656.389	7538.23
656.422	6025.23
656.454	2051.23
656.487	678.23
656.52	266.23
656.552	100.23
656.585	74.23
656.618	57.23
656.65	26.23
656.683	28.23
656.716	10.23
656.748	9.23
656.781	-1.77
656.814	5.23
656.846	18.23
656.879	-6.77
656.912	-6.77
656.944	-1.77
656.977	0.23
657.01	0.23
657.042	18.23
657.075	17.23
657.108	5.23
657.14	-6.77
657.173	19.23
657.205	44.23
657.238	5.23
657.271	11.23
657.303	-5.77
657.336	-7.77
657.369	-3.77
657.401	3.23
657.434	3.23
657.466	9.23
657.499	0.23
657.532	-2.77
657.564	11.23
657.597	-12.77
657.629	4.23
657.662	13.23
657.694	8.23
657.727	3.23
657.76	7.23
657.792	5.23
657.825	1.23
657.857	0.23
657.89	4.23
657.922	13.23
657.955	-19.77
657.987	2.23
658.02	18.23
658.053	15.23
658.085	10.23
658.118	18.23
658.15	6.23
658.183	26.23
658.215	11.23
658.248	6.23
658.28	-8.77
658.313	4.23
658.345	17.23
658.378	-13.77
658.41	-10.77
658.443	8.23
658.475	3.23
658.508	-7.77
658.54	1.23
658.573	-2.77
658.605	12.23
658.638	-0.77
658.67	1.23
658.703	4.23
658.735	-9.77
658.768	7.23
658.8	-5.77
658.833	13.23
658.865	-2.77
658.898	-9.77
658.93	-15.77
658.963	4.23
658.995	2.23
659.028	8.23
659.06	1.23
659.092	7.23
659.125	3.23
659.157	7.23
659.19	-9.77
659.222	2.23
659.255	17.23
659.287	-5.77
659.32	2.23
659.352	9.23
659.384	5.23
659.417	2.23
659.449	6.23
659.482	8.23
659.514	-4.77
659.546	-8.77
659.579	-7.77
659.611	9.23
659.644	-12.77
659.676	-9.77
659.708	5.23
659.741	-16.77
659.773	18.23
659.806	8.23
659.838	-2.77
659.87	12.23
659.903	-10.77
659.935	16.23
659.967	6.23
660	1.23
660.032	-11.77
660.065	21.23
660.097	-0.77
660.129	6.23
660.162	-24.77
660.194	-0.77
660.226	2.23
660.259	8.23
660.291	-0.77
660.323	17.23
660.356	1.23
660.388	-3.77
660.42	6.23
660.453	18.23
660.485	12.23
660.517	10.23
660.55	6.23
660.582	-0.77
660.614	8.23
660.647	-0.77
660.679	-11.77
660.711	-8.77
660.743	-6.77
660.776	-14.77
660.808	4.23
660.84	0.23
660.873	14.23
660.905	6.23
660.937	-12.77
660.969	0.23
661.002	11.23
661.034	3.23
661.066	3.23
661.099	0.23
661.131	15.23
661.163	5.23
661.195	-0.77
661.228	16.23
661.26	-14.77
661.292	-1.77
661.324	5.23
661.357	1.23
661.389	2.23
661.421	5.23
661.453	-9.77
661.485	6.23
661.518	12.23
661.55	-0.77
661.582	0.23
661.614	-9.77
661.647	6.23
661.679	13.23
661.711	-6.77
661.743	-26.77
661.775	-0.77
661.808	21.23
661.84	-17.77
661.872	13.23
661.904	-9.77
661.936	-10.77
661.969	-5.77
662.001	8.23
662.033	5.23
662.065	-8.77
662.097	20.23
662.129	14.23
662.162	-2.77
662.194	7.23
662.226	3.23
662.258	6.23
662.29	7.23
662.322	4.23
662.355	-8.77
662.387	37.23
662.419	5.23
662.451	16.23
662.483	11.23
662.515	7.23
662.547	-0.77
662.58	-7.77
662.612	5.23
662.644	-2.77
662.676	6.23
662.708	14.23
662.74	9.23
662.772	0.23
662.804	0.23
662.836	24.23
662.869	-3.77
662.901	5.23
662.933	-6.77
662.965	27.23
662.997	27.23
663.029	-16.77
663.061	2.23
663.093	-9.77
663.125	9.23
663.157	-3.77
663.189	-10.77
663.221	7.23
663.254	-7.77
663.286	-1.77
663.318	-7.77
663.35	1.23
663.382	7.23
663.414	9.23
663.446	-3.77
663.478	-7.77
663.51	29.23
663.542	-13.77
663.574	-16.77
663.606	5.23
663.638	-12.77
663.67	1.23
663.702	-3.77
663.734	2.23
663.766	-3.77
663.798	-0.77
663.83	-7.77
663.862	4.23
663.894	10.23
663.926	-9.77
663.958	10.23
663.99	12.23
664.022	0.23
664.054	-2.77
664.086	-7.77
664.118	-10.77
664.15	-11.77
664.182	-15.77
664.214	-22.77
664.246	7.23
664.278	6.23
664.31	17.23
664.342	5.23
664.374	-3.77
664.406	-8.77
664.438	-13.77
664.47	19.23
664.502	6.23
664.534	-12.77
664.566	-1.77
664.598	-0.77
664.63	-5.77
664.662	3.23
664.693	-7.77
664.725	-2.77
664.757	-5.77
664.789	-0.77
664.821	4.23
664.853	-4.77
664.885	6.23
664.917	-8.77
664.949	5.23
664.981	15.23
665.013	2.23
665.045	-13.77
665.076	-6.77
665.108	5.23
665.14	-15.77
665.172	-5.77
665.204	-4.77
665.236	11.23
665.268	5.23
665.3	-1.77
665.331	-17.77
665.363	5.23
665.395	3.23
665.427	2.23
665.459	0.23
665.491	-4.77
665.523	-7.77
665.555	2.23
665.586	-10.77
665.618	-12.77
665.65	-21.77
665.682	12.23
665.714	23.23
665.746	3.23
665.777	14.23
665.809	-22.77
665.841	-6.77
665.873	-12.77
665.905	2.23
665.937	6.23
665.968	-6.77
666	-1.77
666.032	-8.77
666.064	10.23
666.096	3.23
666.127	6.23
666.159	5.23
666.191	-3.77
666.223	4.23
666.255	0.23
666.286	4.23
666.318	6.23
666.35	24.23
666.382	-1.77
666.413	-6.77
666.445	-7.77
666.477	-15.77
666.509	-8.77
666.54	-3.77
666.572	-14.77
666.604	-1.77
666.636	-2.77
666.667	13.23
666.699	21.23
666.731	1.23
666.763	-6.77
666.794	-6.77
666.826	0.23
666.858	2.23
666.89	12.23
666.921	4.23
666.953	3.23
666.985	10.23
667.017	24.23
667.048	19.23
667.08	5.23
667.112	-12.77
667.143	-11.77
667.175	0.23
667.207	0.23
667.238	7.23
667.27	16.23
667.302	-7.77
667.334	-9.77
667.365	16.23
667.397	7.23
667.429	-3.77
667.46	23.23
667.492	11.23
667.524	6.23
667.555	9.23
667.587	-12.77
667.619	5.23
667.65	-4.77
667.682	7.23
667.714	16.23
667.745	2.23
667.777	-11.77
667.808	0.23
667.84	-0.77
667.872	2.23
667.903	24.23
667.935	-4.77
667.967	7.23
667.998	-1.77
668.03	-7.77
668.061	-5.77
668.093	-3.77
668.125	12.23
668.156	1.23
668.188	-10.77
668.22	-8.77
668.251	-3.77
668.283	0.23
668.314	10.23
668.346	2.23
668.377	-22.77
668.409	-24.77
668.441	19.23
668.472	1.23
668.504	11.23
668.535	7.23
668.567	11.23
668.599	17.23
668.63	7.23
668.662	0.23
668.693	13.23
668.725	-3.77
668.756	11.23
668.788	3.23
668.819	4.23
668.851	2.23
668.882	-5.77
668.914	8.23
668.946	5.23
668.977	-3.77
669.009	-11.77
669.04	-6.77
669.072	3.23
669.103	-3.77
669.135	-18.77
669.166	1.23
669.198	-13.77
669.229	1.23
669.261	-25.77
669.292	-6.77
669.324	4.23
669.355	8.23
669.387	-19.77
669.418	8.23
669.45	-15.77
669.481	-13.77
669.513	-12.77
669.544	1.23
669.576	-3.77
669.607	17.23
669.639	-4.77
669.67	-11.77
669.701	18.23
669.733	-11.77
669.764	-0.77
669.796	1.23
669.827	-21.77
669.859	7.23
669.89	4.23
669.922	3.23
669.953	5.23
669.985	-0.77
670.016	10.23
670.047	6.23
670.079	0.23
670.11	2.23
670.142	-6.77
670.173	5.23
670.204	3.23
670.236	18.23
670.267	-11.77
670.299	-8.77
670.33	3.23
670.362	13.23
670.393	-4.77
670.424	4.23
670.456	-7.77
670.487	-9.77
670.518	-6.77
670.55	-11.77
670.581	-4.77
670.613	-3.77
670.644	0.23
670.675	-15.77
670.707	-1.77
670.738	5.23
670.769	-1.77
670.801	-10.77
670.832	3.23
670.864	-13.77
670.895	16.23
670.926	-8.77
670.958	-6.77
670.989	-14.77
671.02	-8.77
671.052	-0.77
671.083	2.23
671.114	4.23
671.146	-9.77
671.177	2.23
671.208	-5.77
671.24	-16.77
671.271	-15.77
671.302	2.23
671.333	-2.77
671.365	-3.77
671.396	-14.77
671.427	7.23
671.459	9.23
671.49	0.23
671.521	10.23
671.553	10.23
671.584	7.23
671.615	-6.77
671.646	8.23
671.678	8.23
671.709	2.23
671.74	-12.77
671.771	-16.77
671.803	-3.77
671.834	-2.77
671.865	-13.77
671.896	-11.77
671.928	-5.77
671.959	-20.77
671.99	2.23
672.021	-16.77
672.053	-6.77
672.084	25.23
672.115	5.23
672.146	5.23
672.178	-15.77
672.209	-4.77
672.24	13.23
672.271	17.23
672.303	-3.77
672.334	7.23
672.365	-14.77
672.396	16.23
672.427	5.23
672.459	-0.77
672.49	16.23
672.521	3.23
672.552	3.23
672.583	2.23
672.615	-1.77
672.646	16.23
672.677	-13.77
672.708	-1.77
672.739	-18.77
672.77	10.23
672.802	16.23
672.833	-3.77
672.864	6.23
672.895	-8.77
672.926	0.23
672.957	-9.77
672.989	5.23
673.02	4.23
673.051	7.23
673.082	12.23
673.113	12.23
673.144	20.23
673.175	-7.77
673.206	-4.77
673.238	-0.77
673.269	0.23
673.3	-1.77
673.331	2.23
673.362	-8.77
673.393	3.23
673.424	17.23
673.455	21.23
673.487	0.23
673.518	1.23
673.549	-12.77
673.58	-20.77
673.611	-14.77
673.642	-0.77
673.673	-13.77
673.704	-8.77
673.735	3.23
673.766	20.23
673.797	-10.77
673.828	5.23
673.86	-11.77
673.891	-10.77
673.922	-14.77
673.953	-0.77
673.984	9.23
674.015	16.23
674.046	4.23
674.077	-0.77
674.108	-13.77
674.139	-0.77
674.17	-1.77
674.201	-1.77
674.232	-8.77
674.263	-14.77
674.294	-3.77
674.325	-8.77
674.356	15.23
674.387	30.23
674.418	1.23
674.449	-4.77
674.48	-12.77
674.511	11.23
674.542	9.23
674.573	-3.77
674.604	3.23
674.635	-6.77
674.666	3.23
674.697	10.23
674.728	3.23
674.759	7.23
674.79	-5.77
674.821	-8.77
674.852	-12.77
674.883	0.23
674.914	2.23
674.945	-3.77
674.976	-2.77
675.007	-14.77
675.038	-15.77
675.069	-12.77
675.1	-6.77
675.131	-2.77
675.162	-4.77
675.193	-12.77
675.224	-9.77
675.254	2.23
675.285	2.23
675.316	20.23
675.347	21.23
675.378	-9.77
675.409	-1.77
675.44	4.23
675.471	5.23
675.502	-7.77
675.533	0.23
675.564	2.23
675.595	-15.77
675.625	13.23
675.656	-1.77
675.687	9.23
675.718	-6.77
675.749	6.23
675.78	5.23
675.811	-17.77
675.842	1.23
675.873	-8.77
675.903	-5.77
675.934	-16.77
675.965	-12.77
675.996	-4.77
676.027	1.23
676.058	0.23
676.089	-11.77
676.119	-2.77
676.15	-1.77
676.181	-7.77
676.212	-10.77
676.243	-3.77
676.274	-2.77
676.304	-0.77
676.335	3.23
676.366	2.23
676.397	-0.77
676.428	11.23
676.459	16.23
676.489	17.23
676.52	9.23
676.551	0.23
676.582	-1.77
676.613	16.23
676.643	-8.77
676.674	11.23
676.705	-4.77
676.736	7.23
676.767	18.23
676.797	12.23
676.828	8.23
676.859	0.23
676.89	-4.77
676.92	-0.77
676.951	14.23
676.982	1.23
677.013	-5.77
677.044	3.23
677.074	-6.77
677.105	-5.77
677.136	12.23
677.167	-1.77
677.197	10.23
677.228	12.23
677.259	-6.77
677.289	9.23
677.32	-8.77
677.351	-19.77
677.382	-16.77
677.412	0.23
677.443	7.23
677.474	-15.77
677.505	3.23
677.535	7.23
677.566	-1.77
677.597	-26.77
677.627	-13.77
677.658	-10.77
677.689	4.23
677.72	-0.77
677.75	-20.77
677.781	-7.77
677.812	-0.77
677.842	1.23
677.873	8.23
677.904	2.23
677.934	2.23
677.965	-0.77
677.996	-19.77
678.026	2.23
678.057	11.23
678.088	-12.77
678.118	3.23
678.149	-12.77
678.18	2.23
678.21	-3.77
678.241	0.23
678.272	1.23
678.302	3.23
678.333	-1.77
678.363	19.23
678.394	10.23
678.425	7.23
678.455	4.23
678.486	6.23
678.517	-3.77
678.547	3.23
678.578	11.23
678.608	-7.77
678.639	19.23
678.67	10.23
678.7	11.23
678.731	2.23
678.761	-1.77
678.792	-3.77
678.823	-7.77
678.853	-9.77
678.884	3.23
678.914	6.23
678.945	4.23
678.975	-7.77
679.006	12.23
679.037	-8.77
679.067	35.23
679.098	-1.77
679.128	-11.77
679.159	-5.77
679.189	3.23
679.22	-0.77
679.25	6.23
679.281	1.23
679.312	-3.77
679.342	4.23
679.373	10.23
679.403	9.23
679.434	4.23
679.464	-2.77
679.495	3.23
679.525	3.23
679.556	-1.77
679.586	5.23
679.617	2.23
679.647	1.23
679.678	-7.77
679.708	-0.77
679.739	-0.77
679.769	10.23
679.8	10.23
679.83	-4.77
679.861	8.23
679.891	-1.77
679.922	-9.77
679.952	4.23
679.983	4.23
680.013	15.23
680.044	-0.77
680.074	12.23
680.105	8.23
680.135	15.23
680.165	21.23
680.196	21.23
680.226	-3.77
680.257	15.23
680.287	13.23
680.318	3.23
680.348	-24.77
680.379	9.23
680.409	-0.77
680.439	-9.77
680.47	-4.77
680.5	4.23
680.531	-6.77
680.561	7.23
680.592	8.23
680.622	17.23
680.652	0.23
680.683	2.23
680.713	-22.77
680.744	-7.77
680.774	-8.77
680.804	17.23
680.835	-0.77
680.865	4.23
680.896	19.23
680.926	11.23
680.956	10.23
680.987	9.23
681.017	6.23
681.047	7.23
681.078	-0.77
681.108	-2.77
681.139	7.23
681.169	-8.77
681.199	-11.77
681.23	2.23
681.26	-0.77
681.29	0.23
681.321	-9.77
681.351	-6.77
681.381	-23.77
681.412	2.23
681.442	-4.77
681.472	6.23
681.503	5.23
681.533	1.23
681.563	-9.77
681.594	-1.77
681.624	5.23
681.654	-7.77
681.685	-3.77
681.715	-11.77
681.745	-4.77
681.775	-6.77
681.806	-11.77
681.836	-3.77
681.866	-8.77
681.897	2.23
681.927	1.23
681.957	-5.77
681.987	-7.77
682.018	-25.77
682.048	2.23
682.078	3.23
682.109	19.23
682.139	3.23
682.169	-11.77
682.199	-5.77
682.23	-12.77
682.26	0.23
682.29	-4.77
682.32	14.23
682.351	-11.77
682.381	4.23
682.411	-3.77
682.441	-4.77
682.472	-9.77
682.502	-5.77
682.532	-11.77
682.562	-7.77
682.592	1.23
682.623	-3.77
682.653	5.23
682.683	10.23
682.713	-5.77
682.743	-6.77
682.774	-7.77
682.804	8.23
682.834	16.23
682.864	3.23
682.894	-6.77
682.925	-8.77
682.955	5.23
682.985	-12.77
683.015	-2.77
683.045	6.23
683.076	-5.77
683.106	-3.77
683.136	4.23
683.166	4.23
683.196	-13.77
683.226	-13.77
683.257	0.23
683.287	-8.77
683.317	-1.77
683.347	-19.77
683.377	-23.77
683.407	-0.77
683.437	3.23
683.468	18.23
683.498	7.23
683.528	-15.77
683.558	3.23
683.588	9.23
683.618	-12.77
683.648	-16.77
683.678	-2.77
683.708	11.23
683.739	-11.77
683.769	0.23
683.799	8.23
683.829	2.23
683.859	-10.77
683.889	10.23
683.919	-23.77
683.949	-2.77
683.979	-9.77
684.009	-5.77
684.039	-6.77
684.07	-3.77
684.1	14.23
684.13	-8.77
684.16	-14.77
684.19	-4.77
684.22	7.23
684.25	5.23
684.28	-2.77
684.31	12.23
684.34	14.23
684.37	2.23
684.4	-12.77
684.43	4.23
684.46	-5.77
684.49	9.23
684.52	-3.77
684.55	4.23
684.58	3.23
684.61	3.23
684.64	2.23
684.67	9.23
684.7	8.23
684.73	2.23
684.76	-7.77
684.79	3.23
684.82	3.23
684.85	-24.77
684.88	14.23
684.91	-3.77
684.94	3.23
684.97	0.23
685	-3.77
685.03	10.23
685.06	-7.77
685.09	-2.77
685.12	21.23
685.15	1.23
685.18	-10.77
685.21	3.23
685.24	-2.77
685.27	7.23
685.3	-9.77
685.33	-11.77
685.36	-11.77
685.39	-5.77
685.42	-11.77
685.45	8.23
685.48	8.23
685.51	-4.77
685.54	13.23
685.569	10.23
685.599	3.23
685.629	11.23
685.659	2.23
685.689	5.23
685.719	-13.77
685.749	-12.77
685.779	10.23
685.809	18.23
685.839	-1.77
685.869	0.23
685.898	8.23
685.928	-11.77
685.958	-22.77
685.988	19.23
686.018	-11.77
686.048	2.23
686.078	10.23
686.108	16.23
686.137	0.23
686.167	24.23
686.197	-13.77
686.227	-14.77
686.257	4.23
686.287	16.23
686.317	4.23
686.346	-2.77
686.376	-19.77
686.406	-7.77
686.436	7.23
686.466	-6.77
686.496	-0.77
686.525	7.23
686.555	-12.77
686.585	19.23
686.615	23.23
686.645	25.23
686.675	6.23
686.704	9.23
686.734	10.23
686.764	-10.77
686.794	0.23
686.824	-1.77
686.853	5.23
686.883	1.23
686.913	11.23
686.943	7.23
686.973	-9.77
687.002	-8.77
687.032	13.23
687.062	-0.77
687.092	15.23
687.121	-0.77
687.151	11.23
687.181	16.23
687.211	-9.77
687.24	-6.77
687.27	3.23
687.3	7.23
687.33	3.23
687.359	-4.77
687.389	24.23
687.419	5.23
687.449	-2.77
687.478	-0.77
687.508	3.23
687.538	7.23
687.568	10.23
687.597	2.23
687.627	7.23
687.657	2.23
687.686	-3.77
687.716	8.23
687.746	-3.77
687.776	-3.77
687.805	15.23
687.835	-6.77
687.865	3.23
687.894	7.23
687.924	-10.77
687.954	-2.77
687.983	-2.77
688.013	11.23
688.043	-2.77
688.072	-2.77
688.102	-0.77
688.132	-1.77
688.161	-17.77
688.191	-7.77
688.221	18.23
688.25	-8.77
688.28	4.23
688.31	7.23
688.339	-11.77
688.369	-8.77
688.399	-19.77
688.428	-1.77
688.458	10.23
688.488	-5.77
688.517	16.23
688.547	5.23
688.576	23.23
688.606	9.23
688.636	-7.77
688.665	-2.77
688.695	-4.77
688.725	-0.77
688.754	-5.77
688.784	-3.77
688.813	9.23
688.843	-1.77
688.873	-14.77
688.902	-6.77
688.932	-0.77
688.961	7.23
688.991	16.23
689.02	19.23
689.05	1.23
689.08	5.23
689.109	-4.77
689.139	-8.77
689.168	4.23
689.198	4.23
689.227	-20.77
689.257	0.23
689.287	2.23
689.316	-1.77
689.346	-12.77
689.375	9.23
689.405	3.23
689.434	-11.77
689.464	2.23
689.493	8.23
689.523	-12.77
689.552	-9.77
689.582	0.23
689.611	-11.77
689.641	5.23
689.67	4.23
689.7	12.23
689.73	7.23
689.759	15.23
689.789	9.23
689.818	1.23
689.848	-2.77
689.877	20.23
689.906	-0.77
689.936	-13.77
689.965	31.23
689.995	26.23
690.024	4.23
690.054	-16.77
690.083	-1.77
690.113	-3.77
690.142	-5.77
690.172	2.23
690.201	4.23
690.231	10.23
690.26	0.23
690.29	-14.77
690.319	1.23
690.348	-2.77
690.378	13.23
690.407	2.23
690.437	3.23
690.466	-2.77
690.496	-3.77
690.525	2.23
690.555	-0.77
690.584	-9.77
690.613	-0.77
690.643	-4.77
690.672	5.23
690.702	21.23
690.731	-5.77
690.76	11.23
690.79	-8.77
690.819	-10.77
690.849	2.23
690.878	-0.77
690.907	2.23
690.937	10.23
690.966	11.23
690.996	9.23
691.025	4.23
691.054	7.23
691.084	7.23
691.113	-4.77
691.142	4.23
691.172	-0.77
691.201	21.23
691.23	10.23
691.26	27.23
691.289	5.23
691.319	-13.77
691.348	1.23
691.377	31.23
691.407	13.23
691.436	4.23
691.465	17.23
691.495	12.23
691.524	-1.77
691.553	-16.77
691.583	-10.77
691.612	9.23
691.641	-8.77
691.67	-5.77
691.7	-7.77
691.729	-13.77
691.758	-5.77
691.788	-17.77
691.817	7.23
691.846	-8.77
691.876	6.23
691.905	15.23
691.934	0.23
691.963	18.23
691.993	13.23
692.022	-4.77
692.051	-4.77
692.081	6.23
692.11	1.23
692.139	8.23
692.168	-1.77
692.198	4.23
692.227	2.23
692.256	13.23
692.285	-1.77
692.315	1.23
692.344	16.23
692.373	-8.77
692.402	-16.77
692.432	-18.77
692.461	3.23
692.49	11.23
692.519	15.23
692.548	15.23
692.578	16.23
692.607	11.23
692.636	-12.77
692.665	7.23
692.694	-9.77
692.724	7.23
692.753	-4.77
692.782	3.23
692.811	1.23
692.84	1.23
692.87	0.23
692.899	-8.77
692.928	5.23
692.957	-0.77
692.986	7.23
693.016	2.23
693.045	-1.77
693.074	0.23
693.103	-1.77
693.132	-3.77
693.161	8.23
693.191	-11.77
693.22	3.23
693.249	-15.77
693.278	-3.77
693.307	34.23
693.336	-5.77
693.365	-18.77
693.395	-7.77
693.424	1.23
693.453	19.23
693.482	0.23
693.511	-7.77
693.54	3.23
693.569	6.23
693.598	-5.77
693.628	-5.77
693.657	23.23
693.686	18.23
693.715	9.23
693.744	6.23
693.773	9.23
693.802	11.23
693.831	-5.77
693.86	16.23
693.889	8.23
693.919	6.23
693.948	4.23
693.977	6.23
694.006	-8.77
694.035	-0.77
694.064	-5.77
694.093	-1.77
694.122	-16.77
694.151	3.23
694.18	18.23
694.209	14.23
694.238	7.23
694.267	28.23
694.296	9.23
694.325	12.23
694.354	19.23
694.383	10.23
694.412	-14.77
694.441	-20.77
694.471	-29.77
694.5	-6.77
694.529	11.23
694.558	20.23
694.587	6.23
694.616	-0.77
694.645	1.23
694.674	17.23
694.703	3.23
694.732	-3.77
694.761	21.23
694.79	12.23
694.819	-4.77
694.848	1.23
694.877	21.23
694.906	32.23
694.935	3.23
694.963	25.23
694.992	18.23
695.021	15.23
695.05	10.23
695.079	1.23
695.108	-11.77
695.137	16.23
695.166	1.23
695.195	-9.77
695.224	4.23
695.253	3.23
695.282	4.23
695.311	17.23
695.34	9.23
695.369	16.23
695.398	3.23
695.427	12.23
695.456	-0.77
695.485	12.23
695.513	1.23
695.542	0.23
695.571	-5.77
695.6	15.23
695.629	1.23
695.658	11.23
695.687	-4.77
695.716	4.23
695.745	5.23
695.774	-15.77
695.802	7.23
695.831	6.23
695.86	12.23
695.889	21.23
695.918	2.23
695.947	4.23
695.976	9.23
696.005	4.23
696.033	5.23
696.062	5.23
696.091	-10.77
696.12	10.23
696.149	19.23
696.178	13.23
696.207	-1.77
696.235	-7.77
696.264	6.23
696.293	10.23
696.322	8.23
696.351	9.23
696.38	6.23
696.408	4.23
696.437	16.23
696.466	13.23
696.495	7.23
696.524	13.23
696.553	3.23
696.581	22.23
696.61	6.23
696.639	-4.77
696.668	6.23
696.697	1.23
696.725	3.23
696.754	1.23
696.783	9.23
696.812	-2.77
696.84	-0.77
696.869	1.23
696.898	2.23
696.927	6.23
696.956	8.23
696.984	-16.77
697.013	-4.77
697.042	-0.77
697.071	7.23
697.099	8.23
697.128	5.23
697.157	-0.77
697.186	3.23
697.214	-9.77
697.243	-9.77
697.272	7.23
697.301	19.23
697.329	18.23
697.358	-4.77
697.387	20.23
697.415	6.23
697.444	-6.77
697.473	-8.77
697.502	-16.77
697.53	9.23
697.559	-5.77
697.588	-6.77
697.616	-2.77
697.645	3.23
697.674	13.23
697.703	-2.77
697.731	16.23
697.76	17.23
697.789	4.23
697.817	4.23
697.846	4.23
697.875	21.23
697.903	18.23
697.932	10.23
697.961	5.23
697.989	19.23
698.018	8.23
698.047	-7.77
698.075	8.23
698.104	-0.77
698.133	-14.77
698.161	-6.77
698.19	2.23
698.218	-5.77
698.247	4.23
698.276	-5.77
698.304	5.23
698.333	2.23
698.362	-1.77
698.39	7.23
698.419	16.23
698.447	-6.77
698.476	8.23
698.505	3.23
698.533	8.23
698.562	1.23
698.591	8.23
698.619	-4.77
698.648	3.23
698.676	5.23
698.705	-2.77
698.733	0.23
698.762	14.23
698.791	16.23
698.819	1.23
698.848	-1.77
698.876	22.23
698.905	-5.77
698.933	19.23
698.962	7.23
698.991	13.23
699.019	22.23
699.048	-1.77
699.076	7.23
699.105	-17.77
699.133	-19.77
699.162	9.23
699.19	23.23
699.219	4.23
699.248	3.23
699.276	-8.77
699.305	-7.77
699.333	12.23
699.362	6.23
699.39	16.23
699.419	-6.77
699.447	11.23
699.476	5.23
699.504	8.23
699.533	-1.77
699.561	-9.77
699.59	5.23
699.618	3.23
699.647	1.23
699.675	1.23
699.704	8.23
699.732	3.23
699.761	12.23
699.789	3.23
699.818	-9.77
699.846	-1.77
699.874	4.23
699.903	-6.77
699.931	2.23
699.96	2.23
699.988	7.23
700.017	2.23
700.045	3.23
700.074	-3.77
700.102	3.23
700.13	-0.77
700.159	7.23
700.187	-5.77
700.216	-12.77
700.244	-2.77
700.273	12.23
700.301	0.23
700.329	9.23
700.358	12.23
700.386	8.23
700.415	0.23
700.443	-0.77
700.472	-6.77
700.5	1.23
700.528	-2.77
700.557	3.23
700.585	6.23
700.614	-3.77
700.642	10.23
700.67	22.23
700.699	6.23
700.727	-0.77
700.755	2.23
700.784	-2.77
700.812	-6.77
700.841	7.23
700.869	7.23
700.897	-20.77
700.926	0.23
700.954	15.23
700.982	11.23
701.011	-8.77
701.039	-4.77
701.067	8.23
701.096	15.23
701.124	-20.77
701.152	2.23
701.181	-4.77
701.209	-9.77
701.237	-19.77
701.266	-17.77
701.294	-16.77
701.322	-6.77
701.351	-0.77
701.379	8.23
701.407	-1.77
701.435	8.23
701.464	28.23
701.492	25.23
701.52	-6.77
701.549	0.23
701.577	-0.77
701.605	-8.77
701.634	-2.77
701.662	13.23
701.69	-10.77
701.718	-1.77
701.747	22.23
701.775	3.23
701.803	1.23
701.831	8.23
701.86	6.23
701.888	11.23
701.916	-0.77
701.944	1.23
701.973	2.23
702.001	-8.77
702.029	-3.77
702.057	-13.77
702.086	-16.77
702.114	-11.77
702.142	1.23
702.17	-8.77
702.199	-3.77
702.227	0.23
702.255	-0.77
702.283	-4.77
702.311	6.23
702.34	-3.77
702.368	-1.77
702.396	-4.77
702.424	-0.77
702.452	-3.77
702.481	-11.77
702.509	4.23
702.537	-0.77
702.565	14.23
702.593	-10.77
702.621	-14.77
702.65	10.23
702.678	15.23
702.706	-0.77
702.734	-2.77
702.762	1.23
702.79	16.23
702.819	9.23
702.847	-7.77
702.875	5.23
702.903	17.23
702.931	-9.77
702.959	9.23
702.988	-1.77
703.016	-11.77
703.044	-3.77
703.072	-5.77
703.1	1.23
703.128	5.23
703.156	5.23
703.184	-20.77
703.212	6.23
703.241	-10.77
703.269	-0.77
703.297	-3.77
703.325	3.23
703.353	-12.77
703.381	-15.77
703.409	-11.77
703.437	1.23
703.465	1.23
703.493	2.23
703.522	12.23
703.55	4.23
703.578	11.23
703.606	-6.77
703.634	5.23
703.662	3.23
703.69	-1.77
703.718	2.23
703.746	26.23
703.774	-2.77
703.802	22.23
703.83	5.23
703.858	18.23
703.886	-3.77
703.914	-14.77
703.942	11.23
703.97	-6.77
703.998	-11.77
704.027	11.23
704.055	7.23
704.083	4.23
704.111	-10.77
704.139	4.23
704.167	-5.77
704.195	-12.77
704.223	-12.77
704.251	-4.77
704.279	10.23
704.307	0.23
704.335	-4.77
704.363	-1.77
704.391	-4.77
704.419	-4.77
704.447	-16.77
704.475	0.23
704.503	-9.77
704.531	-2.77
704.558	16.23
704.586	7.23
704.614	-5.77
704.642	11.23
704.67	-9.77
704.698	7.23
704.726	0.23
704.754	10.23
704.782	4.23
704.81	-3.77
704.838	18.23
704.866	14.23
704.894	3.23
704.922	-1.77
704.95	-1.77
704.978	-1.77
705.006	6.23
705.034	11.23
705.061	3.23
705.089	1.23
705.117	-15.77
705.145	3.23
705.173	3.23
705.201	9.23
705.229	-1.77
705.257	-8.77
705.285	14.23
705.313	-0.77
705.34	-16.77
705.368	-6.77
705.396	8.23
705.424	-6.77
705.452	-2.77
705.48	10.23
705.508	-3.77
705.536	-8.77
705.563	-10.77
705.591	-7.77
705.619	-4.77
705.647	-10.77
705.675	-0.77
705.703	12.23
705.731	-5.77
705.758	13.23
705.786	5.23
705.814	14.23
705.842	-3.77
705.87	6.23
705.898	5.23
705.925	-3.77
705.953	5.23
705.981	-4.77
706.009	-5.77
706.037	-3.77
706.065	-4.77
706.092	-9.77
706.12	2.23
706.148	8.23
706.176	-2.77
706.204	3.23
706.231	-7.77
706.259	-8.77
706.287	4.23
706.315	8.23
706.342	-2.77
706.37	6.23
706.398	-1.77
706.426	-11.77
706.454	3.23
706.481	17.23
706.509	-3.77
706.537	-9.77
706.565	-9.77
706.592	14.23
706.62	5.23
706.648	-3.77
706.676	-8.77
706.703	1.23
706.731	-2.77
706.759	-1.77
706.787	17.23
706.814	1.23
706.842	-8.77
706.87	-1.77
706.897	1.23
706.925	-1.77
706.953	9.23
706.981	10.23
707.008	24.23
707.036	-12.77
707.064	4.23
707.091	-4.77
707.119	7.23
707.147	5.23
707.174	-1.77
707.202	7.23
707.23	-11.77
707.258	15.23
707.285	-11.77
707.313	-6.77
707.341	-3.77
707.368	-6.77
707.396	-12.77
707.424	12.23
707.451	5.23
707.479	7.23
707.507	-2.77
707.534	-3.77
707.562	-0.77
707.59	-4.77
707.617	-8.77
707.645	4.23
707.672	10.23
707.7	-26.77
707.728	0.23
707.755	3.23
707.783	-3.77
707.811	10.23
707.838	9.23
707.866	0.23
707.893	-11.77
707.921	-1.77
707.949	-8.77
707.976	-3.77
708.004	-5.77
708.031	-5.77
708.059	-10.77
708.087	11.23
708.114	1.23
708.142	-12.77
708.169	-5.77
708.197	2.23
708.225	6.23
708.252	-14.77
708.28	6.23
708.307	3.23
708.335	-0.77
708.362	-10.77
708.39	-10.77
708.418	-12.77
708.445	-14.77
708.473	-8.77
708.5	-1.77
708.528	11.23
708.555	0.23
708.583	-0.77
708.61	-4.77
708.638	7.23
708.665	-2.77
708.693	-8.77
708.72	-11.77
708.748	-1.77
708.776	16.23
708.803	18.23
708.831	7.23
708.858	13.23
708.886	-3.77
708.913	-5.77
708.941	-6.77
708.968	2.23
708.996	4.23
709.023	30.23
709.051	-18.77
709.078	-9.77
709.105	7.23
709.133	-2.77
709.16	0.23
709.188	19.23
709.215	-7.77
709.243	2.23
709.27	-1.77
709.298	-9.77
709.325	-7.77
709.353	-3.77
709.38	10.23
709.408	-0.77
709.435	-4.77
709.462	21.23
709.49	-0.77
709.517	-1.77
709.545	-4.77
709.572	10.23
709.6	-5.77
709.627	-8.77
709.655	3.23
709.682	-2.77
709.709	-1.77
709.737	7.23
709.764	10.23
709.792	-1.77
709.819	-0.77
709.846	-3.77
709.874	-0.77
709.901	14.23
709.929	18.23
709.956	8.23
709.983	-11.77
710.011	-4.77
710.038	-7.77
710.066	12.23
710.093	7.23
710.12	2.23
710.148	-3.77
710.175	6.23
710.202	-10.77
710.23	5.23
710.257	0.23
710.284	9.23
710.312	-7.77
710.339	0.23
710.366	-13.77
710.394	-9.77
710.421	-7.77
710.448	19.23
710.476	-11.77
710.503	5.23
710.53	-3.77
710.558	13.23
710.585	11.23
710.612	-3.77
710.64	10.23
710.667	4.23
710.694	0.23
710.722	4.23
710.749	-2.77
710.776	12.23
710.804	10.23
710.831	-0.77
710.858	2.23
710.885	-17.77
710.913	-11.77
710.94	28.23
710.967	12.23
710.995	20.23
711.022	-1.77
711.049	7.23
711.076	6.23
711.104	-7.77
711.131	-24.77
711.158	0.23
711.185	17.23
711.213	-10.77
711.24	-11.77
711.267	-1.77
711.294	-11.77
711.322	-0.77
711.349	-17.77
711.376	-8.77
711.403	1.23
711.431	-0.77
711.458	-17.77
711.485	-5.77
711.512	6.23
711.54	-0.77
711.567	6.23
711.594	2.23
711.621	1.23
711.648	2.23
711.676	6.23
711.703	-0.77
711.73	-28.77
711.757	-1.77
711.784	-0.77
711.812	-5.77
711.839	-6.77
711.866	-7.77
711.893	0.23
711.92	10.23
711.947	9.23
711.975	8.23
712.002	4.23
712.029	-5.77
712.056	9.23
712.083	7.23
712.11	-19.77
712.138	15.23
712.165	1.23
712.192	2.23
712.219	4.23
712.246	-4.77
712.273	0.23
712.3	-12.77
712.328	-1.77
712.355	-17.77
712.382	-20.77
712.409	24.23
712.436	-0.77
712.463	15.23
712.49	4.23
712.517	13.23
712.544	-7.77
712.572	-11.77
712.599	-15.77
712.626	-0.77
712.653	0.23
712.68	-8.77
712.707	7.23
712.734	0.23
712.761	-14.77
712.788	7.23
712.815	-8.77
712.842	4.23
712.87	3.23
712.897	-9.77
712.924	-14.77
712.951	-10.77
712.978	-0.77
713.005	19.23
713.032	6.23
713.059	9.23
713.086	0.23
713.113	-11.77
713.14	-8.77
713.167	12.23
713.194	8.23
713.221	-17.77
713.248	7.23
713.275	1.23
713.302	-5.77
713.329	7.23
713.356	5.23
713.383	14.23
713.41	2.23
713.437	-18.77
713.464	5.23
713.491	12.23
713.518	1.23
713.545	-0.77
713.572	15.23
713.599	10.23
713.626	2.23
713.653	3.23
713.68	-14.77
713.707	-9.77
713.734	-4.77
713.761	-4.77
713.788	-1.77
713.815	21.23
713.842	-9.77
713.869	-11.77
713.896	0.23
713.923	-4.77
713.95	3.23
713.977	-0.77
714.004	-9.77
714.031	-3.77
714.058	-0.77
714.085	-5.77
714.112	2.23
714.139	9.23
714.165	2.23
714.192	-0.77
714.219	8.23
714.246	-1.77
714.273	-8.77
714.3	2.23
714.327	1.23
714.354	4.23
714.381	2.23
714.408	2.23
714.435	-7.77
714.461	-4.77
714.488	-0.77
714.515	4.23
714.542	-1.77
714.569	-11.77
714.596	-3.77
714.623	-4.77
714.65	-12.77
714.677	-6.77
714.703	-1.77
714.73	14.23
714.757	-4.77
714.784	3.23
714.811	3.23
714.838	0.23
714.865	-8.77
714.891	14.23
714.918	3.23
714.945	-10.77
714.972	-3.77
714.999	6.23
715.026	1.23
715.052	-6.77
715.079	-3.77
715.106	0.23
715.133	5.23
715.16	3.23
715.187	-5.77
715.213	-11.77
715.24	-6.77
715.267	-3.77
715.294	-8.77
715.321	-5.77
715.347	-11.77
715.374	-7.77
715.401	-13.77
715.428	9.23
715.455	2.23
715.481	-12.77
715.508	16.23
715.535	-5.77
715.562	19.23
715.588	4.23
715.615	-5.77
715.642	7.23
715.669	11.23
715.695	-15.77
715.722	-5.77
715.749	16.23
715.776	22.23
715.802	-4.77
715.829	-8.77
715.856	-10.77
715.883	14.23
715.909	-3.77
715.936	7.23
715.963	11.23
715.99	-8.77
716.016	-0.77
716.043	4.23
716.07	-6.77
716.096	-9.77
716.123	-2.77
716.15	6.23
716.177	1.23
716.203	2.23
716.23	-3.77
716.257	-1.77
716.283	-1.77
716.31	-8.77
716.337	-1.77
716.363	-5.77
716.39	-14.77
716.417	13.23
716.443	3.23
716.47	16.23
716.497	20.23
716.523	6.23
716.55	8.23
716.577	4.23
716.603	13.23
716.63	8.23
716.657	18.23
716.683	0.23
716.71	-11.77
716.737	1.23
716.763	-4.77
716.79	-7.77
716.817	10.23
716.843	5.23
716.87	-9.77
716.897	0.23
716.923	24.23
716.95	7.23
716.976	-16.77
717.003	-7.77
717.03	3.23
717.056	3.23
717.083	4.23
717.109	8.23
717.136	8.23
717.163	-13.77
717.189	6.23
717.216	-0.77
717.242	-10.77
717.269	-5.77
717.296	-5.77
717.322	4.23
717.349	2.23
717.375	-8.77
717.402	-0.77
717.428	-1.77
717.455	5.23
717.481	-1.77
717.508	16.23
717.535	4.23
717.561	14.23
717.588	-6.77
717.614	7.23
717.641	-3.77
717.667	-4.77
717.694	-2.77
717.72	-4.77
717.747	18.23
717.773	-12.77
717.8	-9.77
717.826	-3.77
717.853	6.23
717.88	12.23
717.906	3.23
717.933	9.23
717.959	4.23
717.986	-5.77
718.012	-8.77
718.039	-4.77
718.065	13.23
718.092	16.23
718.118	-11.77
718.144	-3.77
718.171	26.23
718.197	20.23
718.224	-3.77
718.25	0.23
718.277	-9.77
718.303	-4.77
718.33	11.23
718.356	-17.77
718.383	-16.77
718.409	0.23
718.436	-7.77
718.462	-14.77
718.489	-3.77
718.515	-4.77
718.541	18.23
718.568	8.23
718.594	13.23
718.621	11.23
718.647	8.23
718.674	-1.77
718.7	10.23
718.726	7.23
718.753	6.23
718.779	-0.77
718.806	-11.77
718.832	-7.77
718.858	-12.77
718.885	-12.77
718.911	-3.77
718.938	11.23
718.964	-4.77
718.99	0.23
719.017	11.23
719.043	1.23
719.07	15.23
719.096	-9.77
719.122	8.23
719.149	3.23
719.175	2.23
719.201	-1.77
719.228	-5.77
719.254	9.23
719.281	-2.77
719.307	-5.77
719.333	-3.77
719.36	14.23
719.386	15.23
719.412	2.23
719.439	-7.77
719.465	-12.77
719.491	-6.77
719.518	2.23
719.544	-5.77
719.57	1.23
719.597	1.23
719.623	-5.77
719.649	2.23
719.675	0.23
719.702	-9.77
719.728	8.23
719.754	-9.77
719.781	-1.77
719.807	1.23
719.833	-0.77
719.86	0.23
719.886	-3.77
719.912	-9.77
719.938	-17.77
719.965	-1.77
719.991	-0.77
720.017	-5.77
720.044	-8.77
720.07	-0.77
720.096	13.23
720.122	-6.77
720.149	5.23
720.175	20.23
720.201	4.23
720.227	0.23
720.254	4.23
720.28	-4.77
720.306	-8.77
720.332	0.23
720.359	0.23
720.385	2.23
720.411	8.23
720.437	14.23
720.463	-9.77
720.49	10.23
720.516	-2.77
720.542	-7.77
720.568	6.23
720.595	7.23
720.621	1.23
720.647	7.23
720.673	0.23
720.699	-6.77
720.725	5.23
720.752	3.23
720.778	-1.77
720.804	11.23
720.83	3.23
720.856	-4.77
720.883	-19.77
720.909	0.23
720.935	8.23
720.961	12.23
720.987	18.23
721.013	-3.77
721.04	3.23
721.066	5.23
721.092	-12.77
721.118	12.23
721.144	4.23
721.17	-5.77
721.196	11.23
721.223	-0.77
721.249	1.23
721.275	17.23
721.301	-8.77
721.327	5.23
721.353	-1.77
721.379	-3.77
721.405	18.23
721.432	16.23
721.458	4.23
721.484	20.23
721.51	-5.77
721.536	-0.77
721.562	-9.77
721.588	9.23
721.614	-5.77
721.64	3.23
721.666	6.23
721.693	-5.77
721.719	2.23
721.745	3.23
721.771	-9.77
721.797	8.23
721.823	3.23
721.849	6.23
721.875	5.23
721.901	0.23
721.927	7.23
721.953	28.23
721.979	22.23
722.005	6.23
722.031	-0.77
722.057	0.23
722.083	-0.77
722.109	6.23
722.135	2.23
722.161	-2.77
722.187	-11.77
722.214	-15.77
722.24	-7.77
722.266	-13.77
722.292	12.23
722.318	39.23
722.344	12.23
722.37	8.23
722.396	6.23
722.422	-10.77
722.448	-5.77
722.474	-10.77
722.5	17.23
722.526	-5.77
722.552	10.23
722.578	3.23
722.603	16.23
722.629	-2.77
722.655	-6.77
722.681	-21.77
722.707	-1.77
722.733	-2.77
722.759	-5.77
722.785	-6.77
722.811	-9.77
722.837	-6.77
722.863	7.23
722.889	8.23
722.915	-4.77
722.941	-14.77
722.967	6.23
722.993	15.23
723.019	8.23
723.045	7.23
723.071	16.23
723.097	-3.77
723.122	12.23
723.148	-5.77
723.174	-12.77
723.2	3.23
723.226	-6.77
723.252	0.23
723.278	-4.77
723.304	3.23
723.33	-4.77
723.356	-14.77
723.381	-6.77
723.407	7.23
723.433	6.23
723.459	13.23
723.485	10.23
723.511	4.23
723.537	2.23
723.563	3.23
723.588	0.23
723.614	12.23
723.64	-3.77
723.666	10.23
723.692	19.23
723.718	6.23
723.744	11.23
723.769	-6.77
723.795	-9.77
723.821	-0.77
723.847	1.23
723.873	3.23
723.899	-0.77
723.924	-0.77
723.95	2.23
723.976	-6.77
724.002	3.23
724.028	1.23
724.053	2.23
724.079	-9.77
724.105	-14.77
724.131	-1.77
724.157	-5.77
724.182	-0.77
724.208	-6.77
724.234	19.23
724.26	0.23
724.286	10.23
724.311	0.23
724.337	-20.77
724.363	-10.77
724.389	-2.77
724.415	-12.77
724.44	10.23
724.466	-3.77
724.492	-3.77
724.518	8.23
724.543	-6.77
724.569	-5.77
724.595	9.23
724.621	7.23
724.646	-10.77
724.672	1.23
724.698	-1.77
724.723	-17.77
724.749	6.23
724.775	-0.77
724.801	5.23
724.826	-3.77
724.852	3.23
724.878	-7.77
724.904	-7.77
724.929	-7.77
724.955	-15.77
724.981	-20.77
725.006	-3.77
725.032	4.23
725.058	8.23
725.083	2.23
725.109	-4.77
725.135	6.23
725.161	-1.77
725.186	1.23
725.212	-7.77
725.238	8.23
725.263	-5.77
725.289	-8.77
725.315	-6.77
725.34	2.23
725.366	9.23
725.392	-5.77
725.417	-5.77
725.443	7.23
725.468	4.23
725.494	18.23
725.52	16.23
725.545	19.23
725.571	7.23
725.597	2.23
725.622	7.23
725.648	4.23
725.674	5.23
725.699	15.23
725.725	4.23
725.75	24.23
725.776	-1.77
725.802	6.23
725.827	4.23
725.853	-9.77
725.878	2.23
725.904	0.23
725.93	-3.77
725.955	-10.77
725.981	11.23
726.006	-1.77
726.032	12.23
726.057	4.23
726.083	-5.77
726.109	0.23
726.134	4.23
726.16	-4.77
726.185	-8.77
726.211	-15.77
726.236	3.23
726.262	8.23
726.288	2.23
726.313	4.23
726.339	-4.77
726.364	-2.77
726.39	-8.77
726.415	-12.77
726.441	-3.77
726.466	-14.77
726.492	-5.77
726.517	6.23
726.543	6.23
726.568	2.23
726.594	5.23
726.619	1.23
726.645	-4.77
726.67	2.23
726.696	-0.77
726.721	-8.77
726.747	-15.77
726.772	3.23
726.798	8.23
726.823	0.23
726.849	-0.77
726.874	10.23
726.9	24.23
726.925	7.23
726.951	10.23
726.976	13.23
727.002	-6.77
727.027	11.23
727.053	12.23
727.078	-8.77
727.104	-1.77
727.129	-27.77
727.155	3.23
727.18	1.23
727.205	-4.77
727.231	-8.77
727.256	9.23
727.282	1.23
727.307	10.23
727.333	-1.77
727.358	-17.77
727.383	-13.77
727.409	1.23
727.434	3.23
727.46	9.23
727.485	-1.77
727.511	2.23
727.536	-11.77
727.561	-2.77
727.587	-3.77
727.612	-22.77
727.637	-1.77
727.663	7.23
727.688	22.23
727.714	3.23
727.739	0.23
727.764	7.23
727.79	-8.77
727.815	-12.77
727.841	2.23
727.866	0.23
727.891	7.23
727.917	-11.77
727.942	-11.77
727.967	-12.77
727.993	-24.77
728.018	1.23
728.043	3.23
728.069	21.23
728.094	10.23
728.119	-1.77
728.145	11.23
728.17	6.23
728.195	7.23
728.221	-1.77
728.246	-5.77
728.271	-6.77
728.297	13.23
728.322	6.23
728.347	6.23
728.373	11.23
728.398	2.23
728.423	-4.77
728.448	8.23
728.474	1.23
728.499	14.23
728.524	-3.77
728.55	-6.77
728.575	3.23
728.6	6.23
728.625	-10.77
728.651	19.23
728.676	0.23
728.701	-12.77
728.727	-5.77
728.752	-4.77
728.777	-5.77
728.802	-2.77
728.828	7.23
728.853	13.23
728.878	6.23
728.903	-15.77
728.929	-12.77
728.954	-6.77
728.979	2.23
729.004	-6.77
729.03	-7.77
729.055	-4.77
729.08	-14.77
729.105	-10.77
729.13	-4.77
729.156	-4.77
729.181	-13.77
729.206	-9.77
729.231	-9.77
729.256	2.23
729.282	7.23
729.307	-8.77
729.332	-2.77
729.357	-17.77
729.382	-9.77
729.408	0.23
729.433	-13.77
729.458	3.23
729.483	0.23
729.508	9.23
729.533	6.23
729.559	8.23
729.584	8.23
729.609	-6.77
729.634	-0.77
729.659	-13.77
729.684	-5.77
729.71	6.23
729.735	3.23
729.76	-4.77
729.785	3.23
729.81	4.23
729.835	-11.77
729.86	-12.77
729.886	8.23
729.911	-4.77
729.936	-1.77
729.961	15.23
729.986	-2.77
730.011	0.23
730.036	7.23
730.061	16.23
730.086	-8.77
730.112	-0.77
730.137	18.23
730.162	-9.77
730.187	-5.77
730.212	-12.77
730.237	-7.77
730.262	2.23
730.287	-0.77
730.312	14.23
730.337	-3.77
730.362	15.23
730.387	-1.77
730.413	0.23
730.438	-1.77
730.463	-6.77
730.488	4.23
730.513	-1.77
730.538	-3.77
730.563	-0.77
730.588	2.23
730.613	-3.77
730.638	-14.77
730.663	-12.77
730.688	12.23
730.713	-1.77
730.738	2.23
730.763	-5.77
730.788	-14.77
730.813	4.23
730.838	-4.77
730.863	-4.77
730.888	15.23
730.913	-2.77
730.938	-18.77
730.963	-22.77
730.988	-16.77
731.013	12.23
731.038	-1.77
731.063	-5.77
731.088	-1.77
731.113	-16.77
731.138	-12.77
731.163	0.23
731.188	3.23
731.213	6.23
731.238	14.23
731.263	15.23
731.288	-5.77
731.313	-8.77
731.338	-1.77
731.363	-8.77
731.388	-8.77
731.413	4.23
731.438	14.23
731.463	4.23
731.487	-1.77
731.512	-12.77
731.537	-8.77
731.562	-7.77
731.587	-5.77
731.612	-6.77
731.637	4.23
731.662	-4.77
731.687	-26.77
731.712	-11.77
731.737	-0.77
731.762	4.23
731.786	6.23
731.811	-1.77
731.836	2.23
731.861	-11.77
731.886	-11.77
731.911	-0.77
731.936	-4.77
731.961	-9.77
731.986	3.23
732.01	0.23
732.035	3.23
732.06	19.23
732.085	9.23
732.11	-4.77
732.135	-7.77
732.16	12.23
732.184	6.23
732.209	-9.77
732.234	-3.77
732.259	-1.77
732.284	21.23
732.309	6.23
732.334	-12.77
732.358	-5.77
732.383	-1.77
732.408	1.23
732.433	17.23
732.458	14.23
732.482	7.23
732.507	-5.77
732.532	5.23
732.557	25.23
732.582	-0.77
732.607	-13.77
732.631	-15.77
732.656	-5.77
732.681	2.23
732.706	0.23
732.73	-5.77
732.755	-4.77
732.78	-5.77
732.805	10.23
732.83	-7.77
732.854	-9.77
732.879	10.23
732.904	-1.77
732.929	3.23
732.953	-1.77
732.978	6.23
733.003	3.23
733.028	-13.77
733.052	1.23
733.077	-0.77
733.102	4.23
733.127	-3.77
733.151	-8.77
733.176	2.23
733.201	-0.77
733.226	-3.77
733.25	18.23
733.275	-0.77
733.3	9.23
733.324	14.23
733.349	3.23
733.374	14.23
733.399	23.23
733.423	15.23
733.448	6.23
733.473	-9.77
733.497	-6.77
733.522	-22.77
733.547	5.23
733.571	11.23
733.596	9.23
733.621	7.23
733.646	3.23
733.67	3.23
733.695	-9.77
733.72	7.23
733.744	-2.77
733.769	1.23
733.794	12.23
733.818	-3.77
733.843	2.23
733.867	-10.77
733.892	-0.77
733.917	-4.77
733.941	-6.77
733.966	-5.77
733.991	-13.77
734.015	21.23
734.04	-3.77
734.065	-3.77
734.089	4.23
734.114	-13.77
734.138	-4.77
734.163	-5.77
734.188	-1.77
734.212	9.23
734.237	4.23
734.261	2.23
734.286	-4.77
734.311	-2.77
734.335	-4.77
734.36	-11.77
734.384	15.23
734.409	8.23
734.434	-10.77
734.458	2.23
734.483	-8.77
734.507	-14.77
734.532	-8.77
734.556	-7.77
734.581	-6.77
734.606	4.23
734.63	-7.77
734.655	22.23
734.679	6.23
734.704	3.23
734.728	-6.77
734.753	-1.77
734.777	-4.77
734.802	8.23
734.826	-5.77
734.851	-3.77
734.876	1.23
734.9	-3.77
734.925	8.23
734.949	16.23
734.974	16.23
734.998	4.23
735.023	-7.77
735.047	-15.77
735.072	6.23
735.096	-12.77
735.121	-11.77
735.145	-17.77
735.17	-13.77
735.194	1.23
735.219	1.23
735.243	8.23
735.268	4.23
735.292	4.23
735.317	-7.77
735.341	0.23
735.365	-16.77
735.39	19.23
735.414	2.23
735.439	10.23
735.463	2.23
735.488	5.23
735.512	2.23
735.537	2.23
735.561	-4.77
735.586	-9.77
735.61	2.23
735.634	-0.77
735.659	3.23
735.683	14.23
735.708	-8.77
735.732	5.23
735.757	-3.77
735.781	-5.77
735.805	-12.77
735.83	-0.77
735.854	-5.77
735.879	-15.77
735.903	15.23
735.927	-10.77
735.952	-5.77
735.976	-8.77
736.001	-7.77
736.025	-5.77
736.049	-6.77
736.074	2.23
736.098	3.23
736.123	10.23
736.147	9.23
736.171	-0.77
736.196	1.23
736.22	-5.77
736.244	-1.77
736.269	-3.77
736.293	-8.77
736.317	-18.77
736.342	-6.77
736.366	11.23
736.39	11.23
736.415	2.23
736.439	2.23
736.463	13.23
736.488	8.23
736.512	-2.77
736.536	15.23
736.561	17.23
736.585	-13.77
736.609	12.23
736.634	-8.77
736.658	1.23
736.682	-12.77
736.707	-19.77
736.731	-21.77
736.755	-13.77
736.78	11.23
736.804	15.23
736.828	-3.77
736.852	-5.77
736.877	-15.77
736.901	4.23
736.925	7.23
736.949	14.23
736.974	-9.77
736.998	-4.77
737.022	13.23
737.047	-5.77
737.071	8.23
737.095	16.23
737.119	17.23
737.144	6.23
737.168	-1.77
737.192	-5.77
737.216	3.23
737.241	-5.77
737.265	-1.77
737.289	-22.77
737.313	1.23
737.337	0.23
737.362	5.23
737.386	11.23
737.41	-12.77
737.434	-5.77
737.459	-10.77
737.483	2.23
737.507	31.23
737.531	9.23
737.555	2.23
737.58	7.23
737.604	-12.77
737.628	2.23
737.652	-0.77
737.676	0.23
737.701	-7.77
737.725	5.23
737.749	1.23
737.773	-9.77
737.797	-17.77
737.821	-5.77
737.846	11.23
737.87	-1.77
737.894	11.23
737.918	7.23
737.942	-7.77
737.966	17.23
737.99	18.23
738.015	5.23
738.039	-1.77
738.063	-5.77
738.087	21.23
738.111	7.23
738.135	20.23
738.159	3.23
738.184	2.23
738.208	-4.77
738.232	-0.77
738.256	7.23
738.28	7.23
738.304	6.23
738.328	-4.77
738.352	6.23
738.376	3.23
738.4	11.23
738.425	12.23
738.449	1.23
738.473	13.23
738.497	7.23
738.521	-1.77
738.545	5.23
738.569	6.23
738.593	19.23
738.617	-1.77
738.641	-11.77
738.665	-15.77
738.689	7.23
738.713	2.23
738.737	20.23
738.762	14.23
738.786	2.23
738.81	-8.77
738.834	22.23
738.858	-3.77
738.882	10.23
738.906	-5.77
738.93	16.23
738.954	1.23
738.978	17.23
739.002	-2.77
739.026	6.23
739.05	3.23
739.074	-6.77
739.098	30.23
739.122	14.23
739.146	8.23
739.17	-0.77
739.194	9.23
739.218	-1.77
739.242	-5.77
739.266	-1.77
739.29	8.23
739.314	13.23
739.338	9.23
739.362	-3.77
739.386	3.23
739.41	-7.77
739.434	3.23
739.458	24.23
739.482	2.23
739.506	2.23
739.53	-8.77
739.554	-0.77
739.577	-0.77
739.601	30.23
739.625	0.23
739.649	1.23
739.673	-3.77
739.697	4.23
739.721	-4.77
739.745	-7.77
739.769	13.23
739.793	11.23
739.817	1.23
739.841	-9.77
739.865	10.23
739.889	2.23
739.912	3.23
739.936	-4.77
739.96	4.23
739.984	10.23
740.008	-9.77
740.032	-16.77
740.056	8.23
740.08	-11.77
740.104	2.23
740.127	6.23
740.151	1.23
740.175	8.23
740.199	2.23
740.223	34.23
740.247	14.23
740.271	13.23
740.295	-5.77
740.318	-28.77
740.342	1.23
740.366	9.23
740.39	1.23
740.414	-2.77
740.438	2.23
740.461	6.23
740.485	-0.77
740.509	2.23
740.533	16.23
740.557	-9.77
740.581	-7.77
740.604	-14.77
740.628	-6.77
740.652	21.23
740.676	2.23
740.7	23.23
740.723	-0.77
740.747	1.23
740.771	8.23
740.795	-10.77
740.819	-9.77
740.842	-12.77
740.866	8.23
740.89	11.23
740.914	3.23
740.938	-11.77
740.961	-1.77
740.985	11.23
741.009	-4.77
741.033	-0.77
741.056	2.23
741.08	5.23
741.104	-3.77
741.128	7.23
741.151	2.23
741.175	-1.77
741.199	-5.77
741.223	2.23
741.246	-0.77
741.27	7.23
741.294	-1.77
741.318	-10.77
741.341	-11.77
741.365	9.23
741.389	4.23
741.413	17.23
741.436	21.23
741.46	-1.77
741.484	15.23
741.507	4.23
741.531	18.23
741.555	15.23
741.579	0.23
741.602	11.23
741.626	-1.77
741.65	2.23
741.673	3.23
741.697	-6.77
741.721	7.23
741.744	-21.77
741.768	-0.77
741.792	13.23
741.815	-7.77
741.839	1.23
741.863	17.23
741.886	15.23
741.91	15.23
741.934	9.23
741.957	-11.77
741.981	7.23
742.005	0.23
742.028	-4.77
742.052	2.23
742.075	19.23
742.099	36.23
742.123	15.23
742.146	2.23
742.17	11.23
742.194	-10.77
742.217	5.23
742.241	6.23
742.264	0.23
742.288	20.23
742.312	-4.77
742.335	12.23
742.359	2.23
742.382	2.23
742.406	33.23
742.43	-14.77
742.453	-4.77
742.477	-1.77
742.5	-1.77
742.524	8.23
742.548	-5.77
742.571	4.23
742.595	-3.77
742.618	-8.77
742.642	-3.77
742.665	2.23
742.689	-13.77
742.712	4.23
742.736	5.23
742.76	3.23
742.783	8.23
742.807	7.23
742.83	-4.77
742.854	-8.77
742.877	9.23
742.901	-7.77
742.924	-13.77
742.948	-1.77
742.971	-1.77
742.995	-2.77
743.018	-6.77
743.042	-3.77
743.065	5.23
743.089	0.23
743.112	6.23
743.136	-1.77
743.159	-9.77
743.183	-17.77
743.206	-7.77
743.23	-11.77
743.253	11.23
743.277	3.23
743.3	2.23
743.324	1.23
743.347	-5.77
743.371	26.23
743.394	3.23
743.418	8.23
743.441	17.23
743.465	-1.77
743.488	-1.77
743.512	3.23
743.535	8.23
743.558	-5.77
743.582	8.23
743.605	-2.77
743.629	9.23
743.652	9.23
743.676	-3.77
743.699	-9.77
743.723	-3.77
743.746	5.23
743.769	-0.77
743.793	3.23
743.816	-4.77
743.84	12.23
743.863	8.23
743.886	0.23
743.91	10.23
743.933	3.23
743.957	-0.77
743.98	6.23
744.003	6.23
744.027	0.23
744.05	-10.77
744.074	-1.77
744.097	-18.77
744.12	-0.77
744.144	-3.77
744.167	4.23
744.19	1.23
744.214	-2.77
744.237	-7.77
744.26	4.23
744.284	2.23
744.307	3.23
744.331	3.23
744.354	-9.77
744.377	2.23
744.401	-4.77
744.424	-8.77
744.447	-21.77
744.471	-13.77
