Data from HighRes_H2_15_09_11_07_2024_HR4C61891__138__15-11-10-201.txt Node

Date: Thu Nov 07 15:11:10 EST 2024
User: crc00042
Spectrometer: HR4C6189
Trigger mode: 4
Integration Time (sec): 1.000000E-1
Scans to average: 1
Electric dark correction enabled: true
Nonlinearity correction enabled: false
Boxcar width: 0
XAxis mode: Wavelengths
Number of Pixels in Spectrum: 3648
>>>>>Begin Spectral Data<<<<<
639.567	-39.23
639.602	-39.23
639.636	-39.23
639.67	-48.23
639.704	-13.23
639.738	-1.23
639.773	1.77
639.807	-15.23
639.841	-1.23
639.875	16.77
639.909	4.77
639.943	-12.23
639.978	6.77
640.012	11.77
640.046	6.77
640.08	-0.23
640.114	-4.23
640.148	-14.23
640.182	-3.23
640.217	-7.23
640.251	9.77
640.285	0.77
640.319	2.77
640.353	1.77
640.387	7.77
640.421	0.77
640.455	-11.23
640.49	-3.23
640.524	-6.23
640.558	8.77
640.592	8.77
640.626	-3.23
640.66	10.77
640.694	-24.23
640.728	1.77
640.762	9.77
640.796	6.77
640.83	14.77
640.865	4.77
640.899	5.77
640.933	-21.23
640.967	2.77
641.001	-4.23
641.035	-6.23
641.069	0.77
641.103	-7.23
641.137	-1.23
641.171	-13.23
641.205	-4.23
641.239	-0.23
641.273	15.77
641.307	13.77
641.341	-4.23
641.375	-2.23
641.409	1.77
641.443	-11.23
641.477	6.77
641.511	3.77
641.545	4.77
641.579	-6.23
641.614	0.77
641.648	3.77
641.682	-4.23
641.716	8.77
641.75	10.77
641.784	-1.23
641.818	7.77
641.852	-15.23
641.886	-6.23
641.919	18.77
641.953	-8.23
641.987	-19.23
642.021	3.77
642.055	-2.23
642.089	-6.23
642.123	-8.23
642.157	-1.23
642.191	-6.23
642.225	-1.23
642.259	2.77
642.293	9.77
642.327	1.77
642.361	3.77
642.395	11.77
642.429	13.77
642.463	1.77
642.497	15.77
642.531	4.77
642.565	-4.23
642.599	8.77
642.633	-15.23
642.666	5.77
642.7	16.77
642.734	-0.23
642.768	-8.23
642.802	-6.23
642.836	-10.23
642.87	-7.23
642.904	-13.23
642.938	9.77
642.972	4.77
643.005	3.77
643.039	23.77
643.073	-0.23
643.107	9.77
643.141	2.77
643.175	2.77
643.209	2.77
643.243	-10.23
643.276	-8.23
643.31	1.77
643.344	-10.23
643.378	-2.23
643.412	27.77
643.446	2.77
643.48	-3.23
643.513	-17.23
643.547	5.77
643.581	16.77
643.615	13.77
643.649	-5.23
643.683	-19.23
643.716	-1.23
643.75	1.77
643.784	5.77
643.818	18.77
643.852	0.77
643.886	-8.23
643.919	7.77
643.953	-2.23
643.987	-7.23
644.021	19.77
644.055	4.77
644.088	-3.23
644.122	-3.23
644.156	-14.23
644.19	-11.23
644.224	-9.23
644.257	-2.23
644.291	10.77
644.325	-3.23
644.359	2.77
644.392	24.77
644.426	20.77
644.46	4.77
644.494	-0.23
644.527	-8.23
644.561	-0.23
644.595	-3.23
644.629	-6.23
644.662	-4.23
644.696	15.77
644.73	6.77
644.764	1.77
644.797	6.77
644.831	1.77
644.865	-0.23
644.899	-11.23
644.932	7.77
644.966	-3.23
645	8.77
645.033	11.77
645.067	-1.23
645.101	7.77
645.135	-10.23
645.168	-2.23
645.202	-11.23
645.236	-9.23
645.269	-6.23
645.303	-0.23
645.337	-12.23
645.37	-11.23
645.404	-4.23
645.438	5.77
645.471	3.77
645.505	4.77
645.539	-1.23
645.572	-17.23
645.606	-11.23
645.64	-10.23
645.673	-5.23
645.707	18.77
645.741	-3.23
645.774	-9.23
645.808	1.77
645.842	4.77
645.875	9.77
645.909	-8.23
645.943	5.77
645.976	-9.23
646.01	12.77
646.043	10.77
646.077	20.77
646.111	9.77
646.144	-3.23
646.178	7.77
646.212	-13.23
646.245	-2.23
646.279	9.77
646.312	9.77
646.346	-0.23
646.38	-5.23
646.413	4.77
646.447	1.77
646.48	-10.23
646.514	-15.23
646.547	-1.23
646.581	-13.23
646.615	-7.23
646.648	-10.23
646.682	-7.23
646.715	0.77
646.749	17.77
646.782	5.77
646.816	-11.23
646.85	-5.23
646.883	-8.23
646.917	-5.23
646.95	-3.23
646.984	6.77
647.017	-5.23
647.051	2.77
647.084	2.77
647.118	-2.23
647.151	-0.23
647.185	3.77
647.218	-10.23
647.252	-0.23
647.285	-6.23
647.319	-19.23
647.353	1.77
647.386	14.77
647.42	0.77
647.453	-6.23
647.487	-21.23
647.52	-13.23
647.553	18.77
647.587	-4.23
647.62	-15.23
647.654	4.77
647.687	-8.23
647.721	0.77
647.754	13.77
647.788	-5.23
647.821	-18.23
647.855	3.77
647.888	11.77
647.922	15.77
647.955	-9.23
647.989	2.77
648.022	-3.23
648.055	8.77
648.089	-17.23
648.122	1.77
648.156	-6.23
648.189	-12.23
648.223	3.77
648.256	21.77
648.29	8.77
648.323	3.77
648.356	12.77
648.39	11.77
648.423	-1.23
648.457	-11.23
648.49	-16.23
648.523	2.77
648.557	-13.23
648.59	3.77
648.624	5.77
648.657	-11.23
648.69	8.77
648.724	13.77
648.757	21.77
648.791	18.77
648.824	6.77
648.857	-3.23
648.891	5.77
648.924	-7.23
648.957	15.77
648.991	-16.23
649.024	9.77
649.057	-0.23
649.091	8.77
649.124	1.77
649.158	7.77
649.191	18.77
649.224	1.77
649.258	1.77
649.291	12.77
649.324	14.77
649.358	1.77
649.391	0.77
649.424	-12.23
649.458	-4.23
649.491	4.77
649.524	2.77
649.557	-9.23
649.591	-23.23
649.624	3.77
649.657	-14.23
649.691	-1.23
649.724	3.77
649.757	0.77
649.791	7.77
649.824	14.77
649.857	6.77
649.89	17.77
649.924	-9.23
649.957	-12.23
649.99	-10.23
650.023	0.77
650.057	-15.23
650.09	6.77
650.123	29.77
650.157	27.77
650.19	9.77
650.223	11.77
650.256	-3.23
650.29	-11.23
650.323	2.77
650.356	2.77
650.389	-15.23
650.423	-16.23
650.456	3.77
650.489	7.77
650.522	3.77
650.555	18.77
650.589	9.77
650.622	-2.23
650.655	6.77
650.688	-1.23
650.721	-4.23
650.755	-0.23
650.788	3.77
650.821	13.77
650.854	11.77
650.887	6.77
650.921	-5.23
650.954	4.77
650.987	2.77
651.02	-9.23
651.053	-9.23
651.087	-22.23
651.12	7.77
651.153	3.77
651.186	-8.23
651.219	-21.23
651.252	0.77
651.286	-0.23
651.319	-3.23
651.352	9.77
651.385	0.77
651.418	3.77
651.451	14.77
651.484	-1.23
651.518	-12.23
651.551	21.77
651.584	6.77
651.617	24.77
651.65	7.77
651.683	22.77
651.716	-13.23
651.749	-15.23
651.783	1.77
651.816	-2.23
651.849	-7.23
651.882	6.77
651.915	-10.23
651.948	-7.23
651.981	-6.23
652.014	-9.23
652.047	-19.23
652.08	7.77
652.114	10.77
652.147	-1.23
652.18	15.77
652.213	19.77
652.246	3.77
652.279	6.77
652.312	14.77
652.345	-3.23
652.378	4.77
652.411	6.77
652.444	-0.23
652.477	-4.23
652.51	-10.23
652.543	-4.23
652.576	8.77
652.609	-0.23
652.642	-14.23
652.675	5.77
652.709	1.77
652.742	14.77
652.775	12.77
652.808	22.77
652.841	-10.23
652.874	-10.23
652.907	-9.23
652.94	4.77
652.973	-10.23
653.006	-15.23
653.039	2.77
653.072	2.77
653.105	-10.23
653.138	-28.23
653.171	-18.23
653.204	5.77
653.237	5.77
653.27	0.77
653.303	2.77
653.336	14.77
653.368	7.77
653.401	1.77
653.434	-8.23
653.467	-0.23
653.5	-22.23
653.533	-7.23
653.566	3.77
653.599	-3.23
653.632	-10.23
653.665	9.77
653.698	-14.23
653.731	-17.23
653.764	4.77
653.797	21.77
653.83	7.77
653.863	7.77
653.896	9.77
653.929	2.77
653.961	8.77
653.994	-22.23
654.027	-10.23
654.06	13.77
654.093	2.77
654.126	1.77
654.159	-10.23
654.192	-5.23
654.225	-4.23
654.258	-15.23
654.29	1.77
654.323	18.77
654.356	11.77
654.389	6.77
654.422	-6.23
654.455	-0.23
654.488	-3.23
654.521	1.77
654.553	-12.23
654.586	16.77
654.619	4.77
654.652	4.77
654.685	15.77
654.718	7.77
654.751	2.77
654.783	-1.23
654.816	-0.23
654.849	4.77
654.882	1.77
654.915	-18.23
654.948	-12.23
654.98	0.77
655.013	9.77
655.046	-3.23
655.079	-1.23
655.112	2.77
655.144	-3.23
655.177	6.77
655.21	0.77
655.243	17.77
655.276	11.77
655.308	-0.23
655.341	-5.23
655.374	-3.23
655.407	7.77
655.44	-4.23
655.472	16.77
655.505	-5.23
655.538	4.77
655.571	9.77
655.603	4.77
655.636	3.77
655.669	16.77
655.702	4.77
655.734	2.77
655.767	12.77
655.8	15.77
655.833	20.77
655.865	33.77
655.898	16.77
655.931	35.77
655.964	38.77
655.996	37.77
656.029	53.77
656.062	51.77
656.095	58.77
656.127	75.77
656.16	88.77
656.193	115.77
656.225	176.77
656.258	272.77
656.291	496.77
656.324	1118.77
656.356	3361.77
656.389	7629.77
656.422	6034.77
656.454	2058.77
656.487	687.77
656.52	252.77
656.552	128.77
656.585	77.77
656.618	55.77
656.65	21.77
656.683	47.77
656.716	31.77
656.748	3.77
656.781	-0.23
656.814	2.77
656.846	19.77
656.879	-0.23
656.912	-7.23
656.944	-9.23
656.977	-20.23
657.01	2.77
657.042	10.77
657.075	10.77
657.108	9.77
657.14	12.77
657.173	20.77
657.205	44.77
657.238	13.77
657.271	-1.23
657.303	-12.23
657.336	0.77
657.369	-5.23
657.401	8.77
657.434	2.77
657.466	7.77
657.499	-0.23
657.532	1.77
657.564	8.77
657.597	16.77
657.629	-0.23
657.662	-9.23
657.694	-11.23
657.727	-13.23
657.76	18.77
657.792	-1.23
657.825	-3.23
657.857	-9.23
657.89	-19.23
657.922	5.77
657.955	-22.23
657.987	-11.23
658.02	7.77
658.053	7.77
658.085	-1.23
658.118	10.77
658.15	23.77
658.183	38.77
658.215	10.77
658.248	-9.23
658.28	-18.23
658.313	-3.23
658.345	-0.23
658.378	-0.23
658.41	-0.23
658.443	2.77
658.475	-4.23
658.508	-2.23
658.54	7.77
658.573	-21.23
658.605	-5.23
658.638	-2.23
658.67	14.77
658.703	17.77
658.735	-10.23
658.768	13.77
658.8	-19.23
658.833	10.77
658.865	1.77
658.898	0.77
658.93	-14.23
658.963	5.77
658.995	-21.23
659.028	7.77
659.06	-8.23
659.092	12.77
659.125	5.77
659.157	10.77
659.19	-4.23
659.222	-8.23
659.255	0.77
659.287	1.77
659.32	8.77
659.352	0.77
659.384	14.77
659.417	-9.23
659.449	-2.23
659.482	12.77
659.514	-4.23
659.546	1.77
659.579	-4.23
659.611	-16.23
659.644	-22.23
659.676	-7.23
659.708	-9.23
659.741	-19.23
659.773	5.77
659.806	-4.23
659.838	-8.23
659.87	-14.23
659.903	-20.23
659.935	-2.23
659.967	1.77
660	8.77
660.032	-14.23
660.065	3.77
660.097	1.77
660.129	-13.23
660.162	-4.23
660.194	15.77
660.226	23.77
660.259	14.77
660.291	4.77
660.323	-5.23
660.356	1.77
660.388	8.77
660.42	-5.23
660.453	6.77
660.485	10.77
660.517	0.77
660.55	8.77
660.582	10.77
660.614	11.77
660.647	-13.23
660.679	-13.23
660.711	9.77
660.743	-7.23
660.776	-3.23
660.808	1.77
660.84	-9.23
660.873	11.77
660.905	-15.23
660.937	0.77
660.969	-10.23
661.002	-2.23
661.034	2.77
661.066	-3.23
661.099	6.77
661.131	7.77
661.163	-3.23
661.195	-25.23
661.228	4.77
661.26	6.77
661.292	-8.23
661.324	1.77
661.357	-3.23
661.389	3.77
661.421	-0.23
661.453	-11.23
661.485	5.77
661.518	-3.23
661.55	-10.23
661.582	-22.23
661.614	-8.23
661.647	-4.23
661.679	-10.23
661.711	-1.23
661.743	3.77
661.775	-1.23
661.808	10.77
661.84	-26.23
661.872	2.77
661.904	-15.23
661.936	-7.23
661.969	-8.23
662.001	-8.23
662.033	9.77
662.065	-12.23
662.097	11.77
662.129	-3.23
662.162	-13.23
662.194	-9.23
662.226	-1.23
662.258	18.77
662.29	-5.23
662.322	-18.23
662.355	-18.23
662.387	16.77
662.419	12.77
662.451	3.77
662.483	5.77
662.515	-4.23
662.547	-14.23
662.58	-15.23
662.612	-6.23
662.644	-8.23
662.676	14.77
662.708	17.77
662.74	-7.23
662.772	7.77
662.804	6.77
662.836	9.77
662.869	-9.23
662.901	28.77
662.933	-1.23
662.965	0.77
662.997	8.77
663.029	-16.23
663.061	-4.23
663.093	12.77
663.125	4.77
663.157	8.77
663.189	-8.23
663.221	13.77
663.254	3.77
663.286	-0.23
663.318	-3.23
663.35	1.77
663.382	17.77
663.414	2.77
663.446	0.77
663.478	-11.23
663.51	13.77
663.542	-18.23
663.574	-7.23
663.606	4.77
663.638	-13.23
663.67	-3.23
663.702	-1.23
663.734	11.77
663.766	4.77
663.798	-5.23
663.83	-12.23
663.862	-0.23
663.894	8.77
663.926	2.77
663.958	10.77
663.99	6.77
664.022	-1.23
664.054	6.77
664.086	-13.23
664.118	-14.23
664.15	-17.23
664.182	1.77
664.214	-10.23
664.246	11.77
664.278	11.77
664.31	13.77
664.342	2.77
664.374	6.77
664.406	-14.23
664.438	-2.23
664.47	28.77
664.502	-8.23
664.534	-2.23
664.566	-10.23
664.598	6.77
664.63	7.77
664.662	0.77
664.693	0.77
664.725	-5.23
664.757	4.77
664.789	-12.23
664.821	3.77
664.853	-8.23
664.885	-2.23
664.917	-9.23
664.949	8.77
664.981	34.77
665.013	3.77
665.045	-3.23
665.076	9.77
665.108	3.77
665.14	5.77
665.172	13.77
665.204	-5.23
665.236	-9.23
665.268	6.77
665.3	5.77
665.331	-17.23
665.363	9.77
665.395	-12.23
665.427	-3.23
665.459	20.77
665.491	8.77
665.523	4.77
665.555	1.77
665.586	0.77
665.618	-3.23
665.65	-10.23
665.682	-10.23
665.714	-3.23
665.746	-2.23
665.777	-0.23
665.809	-5.23
665.841	-10.23
665.873	-12.23
665.905	-6.23
665.937	13.77
665.968	14.77
666	0.77
666.032	7.77
666.064	5.77
666.096	-2.23
666.127	10.77
666.159	21.77
666.191	20.77
666.223	4.77
666.255	4.77
666.286	1.77
666.318	-2.23
666.35	0.77
666.382	-6.23
666.413	0.77
666.445	-11.23
666.477	-21.23
666.509	0.77
666.54	4.77
666.572	-1.23
666.604	17.77
666.636	5.77
666.667	-2.23
666.699	10.77
666.731	3.77
666.763	-11.23
666.794	5.77
666.826	5.77
666.858	-12.23
666.89	11.77
666.921	6.77
666.953	0.77
666.985	14.77
667.017	16.77
667.048	0.77
667.08	-10.23
667.112	-22.23
667.143	-0.23
667.175	3.77
667.207	-7.23
667.238	6.77
667.27	-1.23
667.302	14.77
667.334	2.77
667.365	6.77
667.397	1.77
667.429	3.77
667.46	-1.23
667.492	-6.23
667.524	-8.23
667.555	-6.23
667.587	-8.23
667.619	-6.23
667.65	-19.23
667.682	5.77
667.714	7.77
667.745	7.77
667.777	5.77
667.808	-1.23
667.84	17.77
667.872	-11.23
667.903	13.77
667.935	-1.23
667.967	-13.23
667.998	-6.23
668.03	-9.23
668.061	4.77
668.093	-2.23
668.125	4.77
668.156	19.77
668.188	-9.23
668.22	-12.23
668.251	-7.23
668.283	-1.23
668.314	2.77
668.346	-7.23
668.377	-5.23
668.409	-2.23
668.441	-2.23
668.472	-23.23
668.504	17.77
668.535	3.77
668.567	18.77
668.599	-11.23
668.63	-15.23
668.662	1.77
668.693	15.77
668.725	16.77
668.756	17.77
668.788	11.77
668.819	5.77
668.851	0.77
668.882	3.77
668.914	-12.23
668.946	-18.23
668.977	-25.23
669.009	-10.23
669.04	-16.23
669.072	-3.23
669.103	-1.23
669.135	12.77
669.166	5.77
669.198	-8.23
669.229	1.77
669.261	2.77
669.292	-12.23
669.324	-1.23
669.355	8.77
669.387	-2.23
669.418	-1.23
669.45	-19.23
669.481	6.77
669.513	6.77
669.544	14.77
669.576	8.77
669.607	10.77
669.639	9.77
669.67	-4.23
669.701	9.77
669.733	-24.23
669.764	-12.23
669.796	-1.23
669.827	-4.23
669.859	-4.23
669.89	0.77
669.922	7.77
669.953	5.77
669.985	-1.23
670.016	-6.23
670.047	0.77
670.079	-16.23
670.11	7.77
670.142	0.77
670.173	-0.23
670.204	1.77
670.236	0.77
670.267	15.77
670.299	-0.23
670.33	-4.23
670.362	10.77
670.393	-16.23
670.424	-1.23
670.456	-6.23
670.487	-2.23
670.518	-4.23
670.55	-8.23
670.581	-1.23
670.613	9.77
670.644	-20.23
670.675	-19.23
670.707	-4.23
670.738	-15.23
670.769	-5.23
670.801	-3.23
670.832	-1.23
670.864	-8.23
670.895	14.77
670.926	5.77
670.958	-1.23
670.989	4.77
671.02	-10.23
671.052	-18.23
671.083	-8.23
671.114	3.77
671.146	11.77
671.177	-3.23
671.208	-5.23
671.24	-18.23
671.271	-5.23
671.302	-1.23
671.333	-2.23
671.365	-2.23
671.396	-4.23
671.427	-8.23
671.459	2.77
671.49	11.77
671.521	1.77
671.553	2.77
671.584	17.77
671.615	0.77
671.646	6.77
671.678	13.77
671.709	-2.23
671.74	-9.23
671.771	-12.23
671.803	-4.23
671.834	-12.23
671.865	-9.23
671.896	1.77
671.928	-8.23
671.959	-1.23
671.99	-7.23
672.021	-6.23
672.053	-16.23
672.084	-5.23
672.115	4.77
672.146	7.77
672.178	-12.23
672.209	-8.23
672.24	-2.23
672.271	3.77
672.303	-11.23
672.334	-1.23
672.365	-11.23
672.396	-0.23
672.427	1.77
672.459	5.77
672.49	21.77
672.521	2.77
672.552	8.77
672.583	-0.23
672.615	-19.23
672.646	-1.23
672.677	-2.23
672.708	-6.23
672.739	-0.23
672.77	28.77
672.802	15.77
672.833	0.77
672.864	5.77
672.895	-17.23
672.926	-0.23
672.957	-16.23
672.989	-4.23
673.02	-10.23
673.051	-6.23
673.082	-2.23
673.113	0.77
673.144	6.77
673.175	4.77
673.206	-15.23
673.238	-0.23
673.269	1.77
673.3	-11.23
673.331	14.77
673.362	-9.23
673.393	-10.23
673.424	-0.23
673.455	10.77
673.487	-8.23
673.518	-0.23
673.549	5.77
673.58	-13.23
673.611	-5.23
673.642	-12.23
673.673	-23.23
673.704	-18.23
673.735	1.77
673.766	-9.23
673.797	2.77
673.828	9.77
673.86	-11.23
673.891	-8.23
673.922	-23.23
673.953	-3.23
673.984	-2.23
674.015	2.77
674.046	-15.23
674.077	0.77
674.108	-17.23
674.139	-13.23
674.17	-15.23
674.201	-10.23
674.232	-5.23
674.263	-4.23
674.294	5.77
674.325	-5.23
674.356	16.77
674.387	22.77
674.418	19.77
674.449	-3.23
674.48	-16.23
674.511	-3.23
674.542	-1.23
674.573	-13.23
674.604	-0.23
674.635	-5.23
674.666	17.77
674.697	-7.23
674.728	7.77
674.759	1.77
674.79	-8.23
674.821	-7.23
674.852	-7.23
674.883	-10.23
674.914	-12.23
674.945	0.77
674.976	15.77
675.007	-4.23
675.038	-19.23
675.069	-11.23
675.1	-5.23
675.131	1.77
675.162	-20.23
675.193	-21.23
675.224	-0.23
675.254	-4.23
675.285	-4.23
675.316	16.77
675.347	8.77
675.378	-7.23
675.409	-14.23
675.44	8.77
675.471	2.77
675.502	13.77
675.533	-0.23
675.564	-18.23
675.595	-25.23
675.625	19.77
675.656	-2.23
675.687	4.77
675.718	-8.23
675.749	1.77
675.78	-3.23
675.811	-15.23
675.842	0.77
675.873	-13.23
675.903	-17.23
675.934	-7.23
675.965	-24.23
675.996	-7.23
676.027	-6.23
676.058	-10.23
676.089	-5.23
676.119	-4.23
676.15	-9.23
676.181	9.77
676.212	8.77
676.243	21.77
676.274	-4.23
676.304	0.77
676.335	-12.23
676.366	0.77
676.397	-4.23
676.428	-8.23
676.459	11.77
676.489	4.77
676.52	-2.23
676.551	6.77
676.582	6.77
676.613	-0.23
676.643	-16.23
676.674	-3.23
676.705	-12.23
676.736	-15.23
676.767	22.77
676.797	7.77
676.828	9.77
676.859	4.77
676.89	-0.23
676.92	-14.23
676.951	-4.23
676.982	-12.23
677.013	-3.23
677.044	10.77
677.074	-5.23
677.105	-11.23
677.136	4.77
677.167	-5.23
677.197	13.77
677.228	-2.23
677.259	-1.23
677.289	1.77
677.32	-11.23
677.351	-17.23
677.382	-3.23
677.412	-3.23
677.443	0.77
677.474	-6.23
677.505	2.77
677.535	0.77
677.566	-1.23
677.597	-6.23
677.627	-18.23
677.658	-7.23
677.689	-3.23
677.72	-9.23
677.75	-9.23
677.781	-9.23
677.812	-13.23
677.842	5.77
677.873	1.77
677.904	6.77
677.934	-13.23
677.965	-13.23
677.996	-13.23
678.026	2.77
678.057	5.77
678.088	-7.23
678.118	-5.23
678.149	-13.23
678.18	-6.23
678.21	-15.23
678.241	-0.23
678.272	-7.23
678.302	5.77
678.333	16.77
678.363	-14.23
678.394	-2.23
678.425	-3.23
678.455	-16.23
678.486	-1.23
678.517	-15.23
678.547	-10.23
678.578	-6.23
678.608	-1.23
678.639	18.77
678.67	11.77
678.7	-19.23
678.731	-8.23
678.761	-9.23
678.792	-0.23
678.823	11.77
678.853	-7.23
678.884	-12.23
678.914	-9.23
678.945	-5.23
678.975	-11.23
679.006	-10.23
679.037	-17.23
679.067	18.77
679.098	-1.23
679.128	0.77
679.159	-19.23
679.189	10.77
679.22	-18.23
679.25	3.77
679.281	0.77
679.312	-5.23
679.342	2.77
679.373	32.77
679.403	1.77
679.434	5.77
679.464	-2.23
679.495	-4.23
679.525	-2.23
679.556	2.77
679.586	-1.23
679.617	1.77
679.647	6.77
679.678	15.77
679.708	-2.23
679.739	-7.23
679.769	7.77
679.8	-1.23
679.83	-2.23
679.861	-10.23
679.891	3.77
679.922	-10.23
679.952	-17.23
679.983	4.77
680.013	6.77
680.044	11.77
680.074	-2.23
680.105	0.77
680.135	-0.23
680.165	6.77
680.196	13.77
680.226	7.77
680.257	-0.23
680.287	3.77
680.318	5.77
680.348	-2.23
680.379	2.77
680.409	-2.23
680.439	-2.23
680.47	-9.23
680.5	-11.23
680.531	-12.23
680.561	18.77
680.592	8.77
680.622	10.77
680.652	-2.23
680.683	1.77
680.713	0.77
680.744	0.77
680.774	-18.23
680.804	24.77
680.835	6.77
680.865	-26.23
680.896	12.77
680.926	11.77
680.956	18.77
680.987	-10.23
681.017	0.77
681.047	14.77
681.078	-20.23
681.108	8.77
681.139	1.77
681.169	-0.23
681.199	-11.23
681.23	6.77
681.26	-13.23
681.29	10.77
681.321	-15.23
681.351	-1.23
681.381	-5.23
681.412	2.77
681.442	1.77
681.472	13.77
681.503	-1.23
681.533	-7.23
681.563	-11.23
681.594	2.77
681.624	12.77
681.654	-5.23
681.685	-5.23
681.715	-2.23
681.745	-23.23
681.775	-0.23
681.806	-7.23
681.836	-9.23
681.866	-13.23
681.897	-3.23
681.927	-3.23
681.957	-22.23
681.987	-3.23
682.018	9.77
682.048	11.77
682.078	0.77
682.109	9.77
682.139	9.77
682.169	-12.23
682.199	-1.23
682.23	-19.23
682.26	18.77
682.29	-17.23
682.32	-5.23
682.351	8.77
682.381	-7.23
682.411	-6.23
682.441	3.77
682.472	-1.23
682.502	7.77
682.532	-10.23
682.562	6.77
682.592	4.77
682.623	-6.23
682.653	-18.23
682.683	-7.23
682.713	-0.23
682.743	-7.23
682.774	-17.23
682.804	-7.23
682.834	20.77
682.864	-0.23
682.894	-2.23
682.925	-8.23
682.955	-14.23
682.985	-3.23
683.015	4.77
683.045	10.77
683.076	-23.23
683.106	-7.23
683.136	-3.23
683.166	-9.23
683.196	-13.23
683.226	-19.23
683.257	-15.23
683.287	-9.23
683.317	-8.23
683.347	-8.23
683.377	-9.23
683.407	-11.23
683.437	5.77
683.468	5.77
683.498	-7.23
683.528	-3.23
683.558	-14.23
683.588	2.77
683.618	4.77
683.648	-7.23
683.678	-6.23
683.708	4.77
683.739	-6.23
683.769	-9.23
683.799	-8.23
683.829	-12.23
683.859	-11.23
683.889	11.77
683.919	5.77
683.949	7.77
683.979	-9.23
684.009	-0.23
684.039	-10.23
684.07	-4.23
684.1	15.77
684.13	0.77
684.16	3.77
684.19	-20.23
684.22	-12.23
684.25	-0.23
684.28	-6.23
684.31	19.77
684.34	10.77
684.37	-9.23
684.4	-18.23
684.43	-11.23
684.46	-13.23
684.49	12.77
684.52	5.77
684.55	6.77
684.58	-1.23
684.61	0.77
684.64	11.77
684.67	-6.23
684.7	6.77
684.73	-1.23
684.76	-3.23
684.79	10.77
684.82	-10.23
684.85	-14.23
684.88	11.77
684.91	9.77
684.94	-16.23
684.97	-10.23
685	-13.23
685.03	-3.23
685.06	0.77
685.09	-11.23
685.12	10.77
685.15	-25.23
685.18	4.77
685.21	1.77
685.24	2.77
685.27	15.77
685.3	1.77
685.33	7.77
685.36	-12.23
685.39	-1.23
685.42	-17.23
685.45	-5.23
685.48	-8.23
685.51	-4.23
685.54	22.77
685.569	24.77
685.599	18.77
685.629	-2.23
685.659	-16.23
685.689	-14.23
685.719	-1.23
685.749	-21.23
685.779	8.77
685.809	4.77
685.839	-10.23
685.869	-2.23
685.898	13.77
685.928	0.77
685.958	-14.23
685.988	13.77
686.018	2.77
686.048	-4.23
686.078	-1.23
686.108	5.77
686.137	5.77
686.167	21.77
686.197	1.77
686.227	-0.23
686.257	11.77
686.287	9.77
686.317	2.77
686.346	-0.23
686.376	-18.23
686.406	-11.23
686.436	7.77
686.466	-6.23
686.496	-4.23
686.525	-3.23
686.555	-9.23
686.585	9.77
686.615	17.77
686.645	-1.23
686.675	-0.23
686.704	9.77
686.734	2.77
686.764	-17.23
686.794	-5.23
686.824	10.77
686.853	11.77
686.883	1.77
686.913	13.77
686.943	4.77
686.973	-10.23
687.002	13.77
687.032	4.77
687.062	-4.23
687.092	20.77
687.121	-11.23
687.151	-11.23
687.181	-12.23
687.211	11.77
687.24	3.77
687.27	-5.23
687.3	-10.23
687.33	-3.23
687.359	-29.23
687.389	2.77
687.419	-11.23
687.449	-6.23
687.478	-0.23
687.508	1.77
687.538	4.77
687.568	12.77
687.597	-9.23
687.627	-6.23
687.657	-9.23
687.686	-6.23
687.716	-1.23
687.746	-8.23
687.776	-22.23
687.805	-5.23
687.835	9.77
687.865	9.77
687.894	6.77
687.924	-0.23
687.954	-4.23
687.983	0.77
688.013	14.77
688.043	9.77
688.072	-1.23
688.102	14.77
688.132	-5.23
688.161	-1.23
688.191	6.77
688.221	8.77
688.25	-1.23
688.28	-1.23
688.31	-1.23
688.339	-0.23
688.369	-16.23
688.399	-14.23
688.428	-14.23
688.458	5.77
688.488	-12.23
688.517	-10.23
688.547	-9.23
688.576	12.77
688.606	5.77
688.636	-12.23
688.665	-0.23
688.695	2.77
688.725	9.77
688.754	4.77
688.784	-6.23
688.813	1.77
688.843	-4.23
688.873	-5.23
688.902	2.77
688.932	-10.23
688.961	-2.23
688.991	0.77
689.02	-11.23
689.05	-16.23
689.08	12.77
689.109	-6.23
689.139	-7.23
689.168	-13.23
689.198	-7.23
689.227	-1.23
689.257	5.77
689.287	10.77
689.316	2.77
689.346	-16.23
689.375	-19.23
689.405	-2.23
689.434	-1.23
689.464	0.77
689.493	0.77
689.523	-16.23
689.552	-15.23
689.582	8.77
689.611	-6.23
689.641	-1.23
689.67	3.77
689.7	5.77
689.73	4.77
689.759	-12.23
689.789	16.77
689.818	-10.23
689.848	-7.23
689.877	8.77
689.906	6.77
689.936	-15.23
689.965	9.77
689.995	13.77
690.024	3.77
690.054	3.77
690.083	3.77
690.113	8.77
690.142	3.77
690.172	-1.23
690.201	0.77
690.231	-10.23
690.26	-0.23
690.29	-7.23
690.319	4.77
690.348	-12.23
690.378	-11.23
690.407	-1.23
690.437	-5.23
690.466	0.77
690.496	-1.23
690.525	4.77
690.555	-9.23
690.584	-7.23
690.613	-2.23
690.643	6.77
690.672	8.77
690.702	1.77
690.731	-4.23
690.76	-16.23
690.79	-13.23
690.819	-10.23
690.849	-5.23
690.878	0.77
690.907	-19.23
690.937	-1.23
690.966	-4.23
690.996	-2.23
691.025	-4.23
691.054	-0.23
691.084	-1.23
691.113	-0.23
691.142	2.77
691.172	-0.23
691.201	9.77
691.23	2.77
691.26	14.77
691.289	2.77
691.319	-16.23
691.348	-7.23
691.377	9.77
691.407	-3.23
691.436	-12.23
691.465	-0.23
691.495	10.77
691.524	-12.23
691.553	-7.23
691.583	1.77
691.612	25.77
691.641	-3.23
691.67	-0.23
691.7	16.77
691.729	-25.23
691.758	-0.23
691.788	-8.23
691.817	-7.23
691.846	-3.23
691.876	-2.23
691.905	-9.23
691.934	-13.23
691.963	1.77
691.993	1.77
692.022	-16.23
692.051	-6.23
692.081	12.77
692.11	17.77
692.139	8.77
692.168	6.77
692.198	25.77
692.227	10.77
692.256	0.77
692.285	8.77
692.315	1.77
692.344	2.77
692.373	-3.23
692.402	-29.23
692.432	-7.23
692.461	2.77
692.49	2.77
692.519	-9.23
692.548	12.77
692.578	9.77
692.607	-2.23
692.636	-7.23
692.665	16.77
692.694	-7.23
692.724	-7.23
692.753	12.77
692.782	6.77
692.811	-5.23
692.84	-9.23
692.87	-11.23
692.899	0.77
692.928	10.77
692.957	-3.23
692.986	1.77
693.016	-9.23
693.045	-0.23
693.074	15.77
693.103	3.77
693.132	11.77
693.161	8.77
693.191	-4.23
693.22	-1.23
693.249	6.77
693.278	-2.23
693.307	5.77
693.336	-0.23
693.365	-15.23
693.395	-5.23
693.424	-9.23
693.453	10.77
693.482	-18.23
693.511	-14.23
693.54	2.77
693.569	20.77
693.598	13.77
693.628	8.77
693.657	-1.23
693.686	9.77
693.715	3.77
693.744	2.77
693.773	15.77
693.802	2.77
693.831	-20.23
693.86	2.77
693.889	-0.23
693.919	6.77
693.948	-1.23
693.977	-6.23
694.006	-1.23
694.035	1.77
694.064	-16.23
694.093	-1.23
694.122	7.77
694.151	4.77
694.18	-9.23
694.209	14.77
694.238	7.77
694.267	5.77
694.296	17.77
694.325	10.77
694.354	3.77
694.383	0.77
694.412	-8.23
694.441	-8.23
694.471	8.77
694.5	-18.23
694.529	-4.23
694.558	-2.23
694.587	8.77
694.616	-5.23
694.645	2.77
694.674	4.77
694.703	2.77
694.732	7.77
694.761	6.77
694.79	17.77
694.819	-15.23
694.848	-1.23
694.877	11.77
694.906	22.77
694.935	5.77
694.963	17.77
694.992	-9.23
695.021	7.77
695.05	17.77
695.079	2.77
695.108	-1.23
695.137	28.77
695.166	12.77
695.195	10.77
695.224	3.77
695.253	-11.23
695.282	-3.23
695.311	-3.23
695.34	-18.23
695.369	-18.23
695.398	0.77
695.427	3.77
695.456	4.77
695.485	-10.23
695.513	-0.23
695.542	-11.23
695.571	-15.23
695.6	12.77
695.629	2.77
695.658	-0.23
695.687	-7.23
695.716	-9.23
695.745	12.77
695.774	-7.23
695.802	6.77
695.831	19.77
695.86	-4.23
695.889	13.77
695.918	2.77
695.947	-18.23
695.976	-7.23
696.005	2.77
696.033	1.77
696.062	16.77
696.091	3.77
696.12	12.77
696.149	-3.23
696.178	-6.23
696.207	4.77
696.235	-2.23
696.264	-2.23
696.293	0.77
696.322	-3.23
696.351	18.77
696.38	-1.23
696.408	-2.23
696.437	-14.23
696.466	0.77
696.495	3.77
696.524	8.77
696.553	8.77
696.581	8.77
696.61	-1.23
696.639	-15.23
696.668	0.77
696.697	0.77
696.725	-1.23
696.754	-0.23
696.783	-0.23
696.812	2.77
696.84	-2.23
696.869	9.77
696.898	6.77
696.927	-1.23
696.956	21.77
696.984	1.77
697.013	4.77
697.042	16.77
697.071	13.77
697.099	7.77
697.128	6.77
697.157	2.77
697.186	2.77
697.214	-1.23
697.243	-3.23
697.272	-5.23
697.301	7.77
697.329	11.77
697.358	14.77
697.387	11.77
697.415	-4.23
697.444	2.77
697.473	9.77
697.502	-11.23
697.53	-9.23
697.559	-11.23
697.588	-2.23
697.616	8.77
697.645	-2.23
697.674	19.77
697.703	4.77
697.731	4.77
697.76	-0.23
697.789	-4.23
697.817	-5.23
697.846	20.77
697.875	-2.23
697.903	3.77
697.932	-10.23
697.961	1.77
697.989	1.77
698.018	7.77
698.047	1.77
698.075	-1.23
698.104	-5.23
698.133	-14.23
698.161	-4.23
698.19	-1.23
698.218	-1.23
698.247	8.77
698.276	-9.23
698.304	1.77
698.333	-1.23
698.362	-1.23
698.39	13.77
698.419	-2.23
698.447	9.77
698.476	0.77
698.505	17.77
698.533	22.77
698.562	-2.23
698.591	-18.23
698.619	-3.23
698.648	5.77
698.676	6.77
698.705	-14.23
698.733	-12.23
698.762	-7.23
698.791	-0.23
698.819	-1.23
698.848	4.77
698.876	11.77
698.905	-3.23
698.933	5.77
698.962	8.77
698.991	7.77
699.019	14.77
699.048	11.77
699.076	1.77
699.105	-11.23
699.133	-1.23
699.162	8.77
699.19	20.77
699.219	7.77
699.248	-9.23
699.276	-6.23
699.305	4.77
699.333	13.77
699.362	-17.23
699.39	1.77
699.419	-11.23
699.447	2.77
699.476	2.77
699.504	-7.23
699.533	6.77
699.561	-17.23
699.59	-18.23
699.618	2.77
699.647	-1.23
699.675	-9.23
699.704	10.77
699.732	-2.23
699.761	-5.23
699.789	8.77
699.818	2.77
699.846	-1.23
699.874	16.77
699.903	5.77
699.931	1.77
699.96	-7.23
699.988	2.77
700.017	-4.23
700.045	13.77
700.074	-9.23
700.102	8.77
700.13	-15.23
700.159	6.77
700.187	-3.23
700.216	-4.23
700.244	9.77
700.273	7.77
700.301	4.77
700.329	0.77
700.358	9.77
700.386	7.77
700.415	7.77
700.443	-7.23
700.472	1.77
700.5	4.77
700.528	0.77
700.557	3.77
700.585	4.77
700.614	-8.23
700.642	11.77
700.67	9.77
700.699	16.77
700.727	1.77
700.755	3.77
700.784	8.77
700.812	2.77
700.841	-2.23
700.869	-6.23
700.897	-18.23
700.926	-6.23
700.954	3.77
700.982	5.77
701.011	-1.23
701.039	18.77
701.067	-14.23
701.096	-5.23
701.124	-0.23
701.152	-5.23
701.181	-3.23
701.209	-6.23
701.237	-1.23
701.266	-3.23
701.294	-13.23
701.322	11.77
701.351	2.77
701.379	-6.23
701.407	-18.23
701.435	10.77
701.464	1.77
701.492	21.77
701.52	-0.23
701.549	2.77
701.577	-1.23
701.605	-4.23
701.634	-3.23
701.662	10.77
701.69	-18.23
701.718	-5.23
701.747	6.77
701.775	-1.23
701.803	-9.23
701.831	14.77
701.86	-3.23
701.888	9.77
701.916	5.77
701.944	-0.23
701.973	5.77
702.001	-8.23
702.029	-16.23
702.057	-9.23
702.086	-21.23
702.114	-19.23
702.142	-8.23
702.17	8.77
702.199	-0.23
702.227	-1.23
702.255	4.77
702.283	-13.23
702.311	-11.23
702.34	-26.23
702.368	-15.23
702.396	-16.23
702.424	-2.23
702.452	-5.23
702.481	-6.23
702.509	-3.23
702.537	5.77
702.565	1.77
702.593	-21.23
702.621	-6.23
702.65	19.77
702.678	3.77
702.706	0.77
702.734	9.77
702.762	6.77
702.79	-1.23
702.819	7.77
702.847	3.77
702.875	8.77
702.903	9.77
702.931	-10.23
702.959	5.77
702.988	-0.23
703.016	-0.23
703.044	-9.23
703.072	-4.23
703.1	-3.23
703.128	-3.23
703.156	6.77
703.184	4.77
703.212	7.77
703.241	5.77
703.269	-1.23
703.297	-2.23
703.325	1.77
703.353	-11.23
703.381	-3.23
703.409	5.77
703.437	-4.23
703.465	-1.23
703.493	5.77
703.522	5.77
703.55	14.77
703.578	17.77
703.606	-8.23
703.634	-12.23
703.662	-22.23
703.69	-7.23
703.718	-2.23
703.746	8.77
703.774	-2.23
703.802	2.77
703.83	-0.23
703.858	-1.23
703.886	-17.23
703.914	-16.23
703.942	3.77
703.97	-3.23
703.998	4.77
704.027	13.77
704.055	6.77
704.083	6.77
704.111	-24.23
704.139	-5.23
704.167	-6.23
704.195	1.77
704.223	-3.23
704.251	-10.23
704.279	10.77
704.307	-3.23
704.335	-8.23
704.363	-6.23
704.391	-7.23
704.419	-3.23
704.447	-29.23
704.475	-1.23
704.503	-27.23
704.531	5.77
704.558	1.77
704.586	-1.23
704.614	-6.23
704.642	-5.23
704.67	-19.23
704.698	7.77
704.726	-15.23
704.754	5.77
704.782	-2.23
704.81	-4.23
704.838	22.77
704.866	3.77
704.894	-21.23
704.922	-10.23
704.95	3.77
704.978	10.77
705.006	-10.23
705.034	5.77
705.061	-3.23
705.089	3.77
705.117	-5.23
705.145	6.77
705.173	-11.23
705.201	0.77
705.229	14.77
705.257	-8.23
705.285	10.77
705.313	4.77
705.34	-2.23
705.368	0.77
705.396	12.77
705.424	-7.23
705.452	-0.23
705.48	7.77
705.508	-5.23
705.536	-18.23
705.563	-8.23
705.591	12.77
705.619	-3.23
705.647	6.77
705.675	12.77
705.703	18.77
705.731	1.77
705.758	3.77
705.786	14.77
705.814	13.77
705.842	1.77
705.87	8.77
705.898	14.77
705.925	1.77
705.953	4.77
705.981	-7.23
706.009	-4.23
706.037	5.77
706.065	4.77
706.092	-14.23
706.12	3.77
706.148	-7.23
706.176	-13.23
706.204	1.77
706.231	5.77
706.259	9.77
706.287	0.77
706.315	4.77
706.342	-12.23
706.37	0.77
706.398	-1.23
706.426	-5.23
706.454	0.77
706.481	16.77
706.509	-6.23
706.537	-16.23
706.565	1.77
706.592	1.77
706.62	17.77
706.648	13.77
706.676	-3.23
706.703	4.77
706.731	0.77
706.759	-22.23
706.787	-9.23
706.814	-2.23
706.842	-7.23
706.87	-1.23
706.897	-2.23
706.925	-1.23
706.953	1.77
706.981	3.77
707.008	5.77
707.036	10.77
707.064	-1.23
707.091	-2.23
707.119	25.77
707.147	6.77
707.174	-13.23
707.202	-6.23
707.23	-20.23
707.258	15.77
707.285	-11.23
707.313	5.77
707.341	2.77
707.368	-2.23
707.396	5.77
707.424	6.77
707.451	11.77
707.479	-0.23
707.507	0.77
707.534	-12.23
707.562	1.77
707.59	-14.23
707.617	-13.23
707.645	-4.23
707.672	7.77
707.7	7.77
707.728	3.77
707.755	13.77
707.783	-3.23
707.811	-4.23
707.838	-6.23
707.866	18.77
707.893	6.77
707.921	5.77
707.949	-13.23
707.976	0.77
708.004	0.77
708.031	-5.23
708.059	-10.23
708.087	-3.23
708.114	-18.23
708.142	-7.23
708.169	3.77
708.197	-5.23
708.225	-6.23
708.252	-16.23
708.28	-3.23
708.307	-11.23
708.335	-6.23
708.362	-19.23
708.39	-23.23
708.418	-18.23
708.445	-21.23
708.473	-13.23
708.5	-12.23
708.528	-6.23
708.555	-11.23
708.583	-2.23
708.61	-2.23
708.638	-0.23
708.665	-14.23
708.693	4.77
708.72	-12.23
708.748	-2.23
708.776	4.77
708.803	6.77
708.831	8.77
708.858	17.77
708.886	0.77
708.913	-7.23
708.941	-5.23
708.968	15.77
708.996	-6.23
709.023	16.77
709.051	-7.23
709.078	-11.23
709.105	-2.23
709.133	-8.23
709.16	-0.23
709.188	5.77
709.215	6.77
709.243	-10.23
709.27	-6.23
709.298	-4.23
709.325	-0.23
709.353	-5.23
709.38	-8.23
709.408	-12.23
709.435	5.77
709.462	-13.23
709.49	6.77
709.517	-5.23
709.545	4.77
709.572	-2.23
709.6	-8.23
709.627	-5.23
709.655	2.77
709.682	-1.23
709.709	-10.23
709.737	3.77
709.764	-9.23
709.792	7.77
709.819	-3.23
709.846	-2.23
709.874	-5.23
709.901	21.77
709.929	7.77
709.956	10.77
709.983	-10.23
710.011	-3.23
710.038	-5.23
710.066	9.77
710.093	23.77
710.12	-13.23
710.148	-3.23
710.175	-2.23
710.202	-14.23
710.23	-1.23
710.257	-6.23
710.284	4.77
710.312	5.77
710.339	6.77
710.366	6.77
710.394	-0.23
710.421	12.77
710.448	-1.23
710.476	-11.23
710.503	-0.23
710.53	24.77
710.558	10.77
710.585	24.77
710.612	5.77
710.64	4.77
710.667	6.77
710.694	3.77
710.722	-4.23
710.749	-13.23
710.776	-5.23
710.804	13.77
710.831	13.77
710.858	1.77
710.885	-13.23
710.913	-21.23
710.94	15.77
710.967	2.77
710.995	9.77
711.022	-6.23
711.049	8.77
711.076	-23.23
711.104	-7.23
711.131	-14.23
711.158	-4.23
711.185	-9.23
711.213	-6.23
711.24	-9.23
711.267	-6.23
711.294	-15.23
711.322	17.77
711.349	-0.23
711.376	-3.23
711.403	4.77
711.431	-8.23
711.458	8.77
711.485	-6.23
711.512	-2.23
711.54	-5.23
711.567	6.77
711.594	-8.23
711.621	-7.23
711.648	0.77
711.676	5.77
711.703	-6.23
711.73	-14.23
711.757	-5.23
711.784	-9.23
711.812	7.77
711.839	-7.23
711.866	-7.23
711.893	-25.23
711.92	-0.23
711.947	1.77
711.975	1.77
712.002	1.77
712.029	15.77
712.056	5.77
712.083	-2.23
712.11	-17.23
712.138	2.77
712.165	20.77
712.192	-2.23
712.219	-6.23
712.246	-4.23
712.273	-6.23
712.3	-0.23
712.328	-3.23
712.355	-0.23
712.382	-9.23
712.409	1.77
712.436	1.77
712.463	-5.23
712.49	21.77
712.517	-4.23
712.544	-13.23
712.572	-3.23
712.599	-10.23
712.626	-9.23
712.653	3.77
712.68	-6.23
712.707	8.77
712.734	21.77
712.761	-2.23
712.788	-0.23
712.815	-4.23
712.842	12.77
712.87	-10.23
712.897	-19.23
712.924	-8.23
712.951	1.77
712.978	-13.23
713.005	9.77
713.032	-0.23
713.059	-2.23
713.086	-12.23
713.113	-13.23
713.14	-16.23
713.167	9.77
713.194	3.77
713.221	-11.23
713.248	-3.23
713.275	-7.23
713.302	-15.23
713.329	-7.23
713.356	10.77
713.383	0.77
713.41	-11.23
713.437	-7.23
713.464	-1.23
713.491	12.77
713.518	-11.23
713.545	-10.23
713.572	-6.23
713.599	7.77
713.626	-3.23
713.653	0.77
713.68	6.77
713.707	-2.23
713.734	-14.23
713.761	-8.23
713.788	-4.23
713.815	-6.23
713.842	0.77
713.869	-0.23
713.896	-8.23
713.923	3.77
713.95	-2.23
713.977	-11.23
714.004	-7.23
714.031	-20.23
714.058	-18.23
714.085	-8.23
714.112	10.77
714.139	-14.23
714.165	-3.23
714.192	-6.23
714.219	6.77
714.246	9.77
714.273	5.77
714.3	6.77
714.327	-7.23
714.354	4.77
714.381	-10.23
714.408	-11.23
714.435	-9.23
714.461	-0.23
714.488	-16.23
714.515	-12.23
714.542	-20.23
714.569	-15.23
714.596	-7.23
714.623	1.77
714.65	-9.23
714.677	1.77
714.703	-1.23
714.73	4.77
714.757	3.77
714.784	0.77
714.811	-7.23
714.838	-5.23
714.865	-10.23
714.891	-3.23
714.918	-13.23
714.945	-11.23
714.972	-10.23
714.999	5.77
715.026	-3.23
715.052	4.77
715.079	-5.23
715.106	-9.23
715.133	5.77
715.16	-9.23
715.187	18.77
715.213	0.77
715.24	-3.23
715.267	6.77
715.294	-7.23
715.321	-11.23
715.347	0.77
715.374	-14.23
715.401	-2.23
715.428	-2.23
715.455	-10.23
715.481	-3.23
715.508	6.77
715.535	-3.23
715.562	19.77
715.588	14.77
715.615	7.77
715.642	2.77
715.669	4.77
715.695	-4.23
715.722	-15.23
715.749	11.77
715.776	16.77
715.802	2.77
715.829	-0.23
715.856	-15.23
715.883	9.77
715.909	-10.23
715.936	2.77
715.963	6.77
715.99	-8.23
716.016	1.77
716.043	-3.23
716.07	0.77
716.096	-10.23
716.123	-0.23
716.15	5.77
716.177	-15.23
716.203	9.77
716.23	-1.23
716.257	-3.23
716.283	-1.23
716.31	-21.23
716.337	0.77
716.363	0.77
716.39	-8.23
716.417	0.77
716.443	-0.23
716.47	4.77
716.497	1.77
716.523	22.77
716.55	7.77
716.577	1.77
716.603	-24.23
716.63	1.77
716.657	2.77
716.683	-19.23
716.71	-9.23
716.737	-10.23
716.763	-5.23
716.79	-1.23
716.817	-2.23
716.843	-1.23
716.87	-2.23
716.897	5.77
716.923	7.77
716.95	-11.23
716.976	-6.23
717.003	5.77
717.03	-1.23
717.056	6.77
717.083	5.77
717.109	5.77
717.136	-3.23
717.163	-6.23
717.189	10.77
717.216	-6.23
717.242	-22.23
717.269	4.77
717.296	0.77
717.322	14.77
717.349	8.77
717.375	7.77
717.402	-2.23
717.428	-8.23
717.455	-3.23
717.481	2.77
717.508	7.77
717.535	5.77
717.561	9.77
717.588	4.77
717.614	-7.23
717.641	-7.23
717.667	-7.23
717.694	-11.23
717.72	-7.23
717.747	-8.23
717.773	-13.23
717.8	-7.23
717.826	6.77
717.853	-2.23
717.88	-2.23
717.906	-5.23
717.933	12.77
717.959	14.77
717.986	20.77
718.012	7.77
718.039	15.77
718.065	15.77
718.092	8.77
718.118	-15.23
718.144	-11.23
718.171	0.77
718.197	31.77
718.224	-2.23
718.25	-15.23
718.277	-0.23
718.303	-6.23
718.33	-15.23
718.356	0.77
718.383	-24.23
718.409	-8.23
718.436	-1.23
718.462	-5.23
718.489	-2.23
718.515	5.77
718.541	-1.23
718.568	-1.23
718.594	-7.23
718.621	10.77
718.647	-3.23
718.674	1.77
718.7	0.77
718.726	4.77
718.753	1.77
718.779	4.77
718.806	-12.23
718.832	-1.23
718.858	-0.23
718.885	-16.23
718.911	-2.23
718.938	-7.23
718.964	-21.23
718.99	11.77
719.017	8.77
719.043	0.77
719.07	2.77
719.096	-5.23
719.122	9.77
719.149	-4.23
719.175	7.77
719.201	5.77
719.228	-8.23
719.254	-5.23
719.281	-2.23
719.307	-3.23
719.333	-0.23
719.36	9.77
719.386	-2.23
719.412	-1.23
719.439	-14.23
719.465	-6.23
719.491	-17.23
719.518	-7.23
719.544	0.77
719.57	7.77
719.597	-1.23
719.623	-12.23
719.649	-13.23
719.675	-4.23
719.702	-5.23
719.728	17.77
719.754	-8.23
719.781	0.77
719.807	10.77
719.833	-3.23
719.86	-13.23
719.886	-2.23
719.912	5.77
719.938	1.77
719.965	1.77
719.991	10.77
720.017	4.77
720.044	-10.23
720.07	2.77
720.096	7.77
720.122	-9.23
720.149	10.77
720.175	15.77
720.201	8.77
720.227	-1.23
720.254	7.77
720.28	1.77
720.306	-6.23
720.332	5.77
720.359	4.77
720.385	7.77
720.411	-6.23
720.437	-1.23
720.463	3.77
720.49	13.77
720.516	1.77
720.542	-3.23
720.568	-10.23
720.595	5.77
720.621	-7.23
720.647	0.77
720.673	-2.23
720.699	-5.23
720.725	15.77
720.752	-10.23
720.778	17.77
720.804	8.77
720.83	28.77
720.856	-1.23
720.883	-11.23
720.909	-5.23
720.935	3.77
720.961	4.77
720.987	-2.23
721.013	-7.23
721.04	-8.23
721.066	-1.23
721.092	-3.23
721.118	0.77
721.144	-6.23
721.17	4.77
721.196	1.77
721.223	-2.23
721.249	-5.23
721.275	4.77
721.301	-3.23
721.327	16.77
721.353	8.77
721.379	-14.23
721.405	4.77
721.432	20.77
721.458	-8.23
721.484	-9.23
721.51	-18.23
721.536	-1.23
721.562	5.77
721.588	-5.23
721.614	1.77
721.64	-2.23
721.666	-4.23
721.693	-11.23
721.719	-13.23
721.745	-6.23
721.771	-4.23
721.797	1.77
721.823	-5.23
721.849	19.77
721.875	9.77
721.901	4.77
721.927	-6.23
721.953	-11.23
721.979	-0.23
722.005	8.77
722.031	-10.23
722.057	10.77
722.083	-2.23
722.109	11.77
722.135	5.77
722.161	-2.23
722.187	-2.23
722.214	2.77
722.24	9.77
722.266	-15.23
722.292	-9.23
722.318	-14.23
722.344	11.77
722.37	-3.23
722.396	8.77
722.422	-5.23
722.448	-14.23
722.474	-24.23
722.5	-1.23
722.526	-5.23
722.552	-2.23
722.578	-10.23
722.603	13.77
722.629	8.77
722.655	-1.23
722.681	-9.23
722.707	-7.23
722.733	-9.23
722.759	-18.23
722.785	-6.23
722.811	1.77
722.837	-1.23
722.863	1.77
722.889	8.77
722.915	13.77
722.941	-5.23
722.967	-2.23
722.993	7.77
723.019	-3.23
723.045	-2.23
723.071	-9.23
723.097	-14.23
723.122	-0.23
723.148	-23.23
723.174	-9.23
723.2	-2.23
723.226	-2.23
723.252	-5.23
723.278	-12.23
723.304	-7.23
723.33	-2.23
723.356	-10.23
723.381	-13.23
723.407	-14.23
723.433	10.77
723.459	-14.23
723.485	-23.23
723.511	8.77
723.537	-3.23
723.563	-11.23
723.588	-6.23
723.614	-1.23
723.64	15.77
723.666	3.77
723.692	1.77
723.718	10.77
723.744	8.77
723.769	-7.23
723.795	-2.23
723.821	6.77
723.847	-20.23
723.873	-5.23
723.899	-1.23
723.924	-8.23
723.95	-18.23
723.976	-3.23
724.002	8.77
724.028	-7.23
724.053	-19.23
724.079	-10.23
724.105	-12.23
724.131	-7.23
724.157	-7.23
724.182	18.77
724.208	-3.23
724.234	-4.23
724.26	-16.23
724.286	-5.23
724.311	-14.23
724.337	-14.23
724.363	-16.23
724.389	0.77
724.415	-8.23
724.44	18.77
724.466	-7.23
724.492	-3.23
724.518	7.77
724.543	-11.23
724.569	-10.23
724.595	0.77
724.621	7.77
724.646	-13.23
724.672	-3.23
724.698	-9.23
724.723	-15.23
724.749	-9.23
724.775	31.77
724.801	4.77
724.826	-11.23
724.852	-5.23
724.878	-8.23
724.904	-10.23
724.929	-7.23
724.955	-5.23
724.981	6.77
725.006	9.77
725.032	1.77
725.058	15.77
725.083	-12.23
725.109	-3.23
725.135	5.77
725.161	2.77
725.186	0.77
725.212	-11.23
725.238	0.77
725.263	7.77
725.289	-10.23
725.315	-7.23
725.34	-9.23
725.366	8.77
725.392	-11.23
725.417	-1.23
725.443	-5.23
725.468	3.77
725.494	17.77
725.52	13.77
725.545	4.77
725.571	2.77
725.597	-4.23
725.622	-2.23
725.648	-3.23
725.674	-3.23
725.699	-9.23
725.725	-2.23
725.75	12.77
725.776	-11.23
725.802	0.77
725.827	2.77
725.853	-8.23
725.878	-4.23
725.904	-22.23
725.93	-0.23
725.955	-11.23
725.981	-10.23
726.006	-19.23
726.032	10.77
726.057	-3.23
726.083	-16.23
726.109	5.77
726.134	0.77
726.16	-2.23
726.185	-3.23
726.211	-14.23
726.236	9.77
726.262	-9.23
726.288	-6.23
726.313	6.77
726.339	11.77
726.364	7.77
726.39	24.77
726.415	-5.23
726.441	-3.23
726.466	-13.23
726.492	-1.23
726.517	-6.23
726.543	-0.23
726.568	-14.23
726.594	-5.23
726.619	1.77
726.645	11.77
726.67	20.77
726.696	5.77
726.721	-10.23
726.747	-10.23
726.772	-14.23
726.798	-5.23
726.823	-1.23
726.849	-6.23
726.874	0.77
726.9	17.77
726.925	2.77
726.951	-0.23
726.976	15.77
727.002	1.77
727.027	0.77
727.053	7.77
727.078	-6.23
727.104	-1.23
727.129	-3.23
727.155	-13.23
727.18	13.77
727.205	-5.23
727.231	-0.23
727.256	13.77
727.282	3.77
727.307	8.77
727.333	-3.23
727.358	-12.23
727.383	-7.23
727.409	-18.23
727.434	2.77
727.46	-15.23
727.485	-4.23
727.511	-7.23
727.536	-11.23
727.561	-3.23
727.587	-1.23
727.612	-3.23
727.637	3.77
727.663	-8.23
727.688	4.77
727.714	5.77
727.739	0.77
727.764	-5.23
727.79	-4.23
727.815	2.77
727.841	14.77
727.866	3.77
727.891	1.77
727.917	-20.23
727.942	-12.23
727.967	-6.23
727.993	-10.23
728.018	17.77
728.043	4.77
728.069	10.77
728.094	13.77
728.119	5.77
728.145	0.77
728.17	-5.23
728.195	14.77
728.221	2.77
728.246	-10.23
728.271	-12.23
728.297	-7.23
728.322	-3.23
728.347	-3.23
728.373	3.77
728.398	4.77
728.423	-6.23
728.448	-1.23
728.474	10.77
728.499	3.77
728.524	-10.23
728.55	-17.23
728.575	-3.23
728.6	5.77
728.625	-2.23
728.651	5.77
728.676	9.77
728.701	-1.23
728.727	5.77
728.752	2.77
728.777	-10.23
728.802	0.77
728.828	-3.23
728.853	-5.23
728.878	-3.23
728.903	-18.23
728.929	-15.23
728.954	-18.23
728.979	1.77
729.004	-11.23
729.03	-9.23
729.055	12.77
729.08	-15.23
729.105	-3.23
729.13	14.77
729.156	0.77
729.181	-3.23
729.206	-17.23
729.231	-4.23
729.256	-0.23
729.282	-4.23
729.307	-19.23
729.332	-9.23
729.357	-8.23
729.382	-8.23
729.408	-6.23
729.433	9.77
729.458	-2.23
729.483	5.77
729.508	-0.23
729.533	8.77
729.559	2.77
729.584	-9.23
729.609	17.77
729.634	8.77
729.659	-11.23
729.684	11.77
729.71	8.77
729.735	-6.23
729.76	-1.23
729.785	-5.23
729.81	6.77
729.835	2.77
729.86	2.77
729.886	10.77
729.911	3.77
729.936	0.77
729.961	3.77
729.986	-7.23
730.011	-0.23
730.036	4.77
730.061	0.77
730.086	-0.23
730.112	3.77
730.137	10.77
730.162	7.77
730.187	-2.23
730.212	11.77
730.237	-2.23
730.262	-6.23
730.287	-0.23
730.312	13.77
730.337	-10.23
730.362	7.77
730.387	-0.23
730.413	-14.23
730.438	-8.23
730.463	4.77
730.488	12.77
730.513	14.77
730.538	0.77
730.563	17.77
730.588	7.77
730.613	20.77
730.638	-1.23
730.663	4.77
730.688	24.77
730.713	2.77
730.738	-3.23
730.763	-7.23
730.788	-10.23
730.813	14.77
730.838	6.77
730.863	-9.23
730.888	-10.23
730.913	-13.23
730.938	-8.23
730.963	-5.23
730.988	-0.23
731.013	16.77
731.038	-7.23
731.063	-11.23
731.088	4.77
731.113	-9.23
731.138	-5.23
731.163	0.77
731.188	-7.23
731.213	4.77
731.238	0.77
731.263	-2.23
731.288	-24.23
731.313	-2.23
731.338	-7.23
731.363	6.77
731.388	-2.23
731.413	1.77
731.438	9.77
731.463	2.77
731.487	5.77
731.512	-3.23
731.537	7.77
731.562	-2.23
731.587	6.77
731.612	-5.23
731.637	-0.23
731.662	8.77
731.687	-8.23
731.712	-8.23
731.737	-4.23
731.762	4.77
731.786	5.77
731.811	5.77
731.836	6.77
731.861	-2.23
731.886	-11.23
731.911	5.77
731.936	12.77
731.961	-2.23
731.986	-1.23
732.01	2.77
732.035	-2.23
732.06	23.77
732.085	8.77
732.11	1.77
732.135	0.77
732.16	15.77
732.184	3.77
732.209	-4.23
732.234	-5.23
732.259	-0.23
732.284	9.77
732.309	-8.23
732.334	-17.23
732.358	-14.23
732.383	-15.23
732.408	-2.23
732.433	9.77
732.458	7.77
732.482	8.77
732.507	-7.23
732.532	5.77
732.557	-8.23
732.582	6.77
732.607	4.77
732.631	-24.23
732.656	-18.23
732.681	-13.23
732.706	-12.23
732.73	4.77
732.755	-0.23
732.78	10.77
732.805	0.77
732.83	-11.23
732.854	-6.23
732.879	7.77
732.904	-7.23
732.929	-16.23
732.953	2.77
732.978	8.77
733.003	-3.23
733.028	-5.23
733.052	-3.23
733.077	-14.23
733.102	7.77
733.127	-11.23
733.151	-16.23
733.176	7.77
733.201	1.77
733.226	-19.23
733.25	0.77
733.275	-0.23
733.3	18.77
733.324	16.77
733.349	-13.23
733.374	4.77
733.399	-3.23
733.423	6.77
733.448	-6.23
733.473	17.77
733.497	-8.23
733.522	-8.23
733.547	2.77
733.571	22.77
733.596	-3.23
733.621	0.77
733.646	-9.23
733.67	2.77
733.695	-9.23
733.72	1.77
733.744	0.77
733.769	2.77
733.794	16.77
733.818	-1.23
733.843	-5.23
733.867	-16.23
733.892	0.77
733.917	-4.23
733.941	-6.23
733.966	-4.23
733.991	-9.23
734.015	19.77
734.04	-3.23
734.065	15.77
734.089	13.77
734.114	-3.23
734.138	2.77
734.163	0.77
734.188	-6.23
734.212	6.77
734.237	-3.23
734.261	-11.23
734.286	-9.23
734.311	-1.23
734.335	-1.23
734.36	-8.23
734.384	18.77
734.409	17.77
734.434	-1.23
734.458	-14.23
734.483	-4.23
734.507	-3.23
734.532	13.77
734.556	-4.23
734.581	-8.23
734.606	-2.23
734.63	-17.23
734.655	0.77
734.679	3.77
734.704	2.77
734.728	-1.23
734.753	-7.23
734.777	1.77
734.802	4.77
734.826	3.77
734.851	6.77
734.876	-0.23
734.9	-5.23
734.925	5.77
734.949	-8.23
734.974	4.77
734.998	10.77
735.023	-14.23
735.047	-14.23
735.072	17.77
735.096	2.77
735.121	6.77
735.145	-2.23
735.17	-0.23
735.194	4.77
735.219	16.77
735.243	3.77
735.268	-12.23
735.292	-3.23
735.317	-6.23
735.341	6.77
735.365	-19.23
735.39	-4.23
735.414	10.77
735.439	2.77
735.463	-6.23
735.488	25.77
735.512	-2.23
735.537	0.77
735.561	-5.23
735.586	-5.23
735.61	2.77
735.634	-1.23
735.659	12.77
735.683	19.77
735.708	-19.23
735.732	-3.23
735.757	-2.23
735.781	5.77
735.805	1.77
735.83	-8.23
735.854	-12.23
735.879	-9.23
735.903	7.77
735.927	18.77
735.952	0.77
735.976	-27.23
736.001	0.77
736.025	-2.23
736.049	0.77
736.074	-7.23
736.098	-5.23
736.123	-0.23
736.147	-3.23
736.171	-5.23
736.196	21.77
736.22	-7.23
736.244	-3.23
736.269	2.77
736.293	-12.23
736.317	-3.23
736.342	4.77
736.366	5.77
736.39	11.77
736.415	-0.23
736.439	4.77
736.463	2.77
736.488	-4.23
736.512	-1.23
736.536	13.77
736.561	13.77
736.585	-2.23
736.609	1.77
736.634	-8.23
736.658	-5.23
736.682	-5.23
736.707	-17.23
736.731	-10.23
736.755	-6.23
736.78	4.77
736.804	3.77
736.828	2.77
736.852	1.77
736.877	9.77
736.901	5.77
736.925	0.77
736.949	-2.23
736.974	-15.23
736.998	-5.23
737.022	-8.23
737.047	-19.23
737.071	-15.23
737.095	1.77
737.119	21.77
737.144	11.77
737.168	13.77
737.192	3.77
737.216	8.77
737.241	-11.23
737.265	11.77
737.289	3.77
737.313	-16.23
737.337	-5.23
737.362	8.77
737.386	-16.23
737.41	-9.23
737.434	1.77
737.459	-2.23
737.483	17.77
737.507	-6.23
737.531	1.77
737.555	8.77
737.58	4.77
737.604	8.77
737.628	-17.23
737.652	-7.23
737.676	-7.23
737.701	-5.23
737.725	-2.23
737.749	5.77
737.773	-8.23
737.797	8.77
737.821	-0.23
737.846	-1.23
737.87	0.77
737.894	6.77
737.918	0.77
737.942	-5.23
737.966	1.77
737.99	2.77
738.015	13.77
738.039	-2.23
738.063	-6.23
738.087	5.77
738.111	0.77
738.135	1.77
738.159	-10.23
738.184	8.77
738.208	-2.23
738.232	6.77
738.256	21.77
738.28	-6.23
738.304	7.77
738.328	-10.23
738.352	8.77
738.376	-2.23
738.4	-11.23
738.425	2.77
738.449	-10.23
738.473	2.77
738.497	4.77
738.521	-12.23
738.545	9.77
738.569	-1.23
738.593	10.77
738.617	8.77
738.641	4.77
738.665	-0.23
738.689	8.77
738.713	-0.23
738.737	3.77
738.762	11.77
738.786	10.77
738.81	-5.23
738.834	12.77
738.858	-7.23
738.882	2.77
738.906	-1.23
738.93	7.77
738.954	-9.23
738.978	-6.23
739.002	-13.23
739.026	2.77
739.05	9.77
739.074	9.77
739.098	12.77
739.122	16.77
739.146	2.77
739.17	-2.23
739.194	-8.23
739.218	-15.23
739.242	-1.23
739.266	-7.23
739.29	9.77
739.314	11.77
739.338	-9.23
739.362	-5.23
739.386	-6.23
739.41	-7.23
739.434	1.77
739.458	3.77
739.482	3.77
739.506	17.77
739.53	-7.23
739.554	2.77
739.577	18.77
739.601	-7.23
739.625	-3.23
739.649	-7.23
739.673	-19.23
739.697	11.77
739.721	-8.23
739.745	-0.23
739.769	8.77
739.793	-2.23
739.817	11.77
739.841	-8.23
739.865	-8.23
739.889	-10.23
739.912	22.77
739.936	8.77
739.96	-5.23
739.984	2.77
740.008	5.77
740.032	-10.23
740.056	-3.23
740.08	1.77
740.104	-5.23
740.127	-4.23
740.151	-9.23
740.175	-6.23
740.199	11.77
740.223	52.77
740.247	9.77
740.271	4.77
740.295	-11.23
740.318	-19.23
740.342	-16.23
740.366	8.77
740.39	13.77
740.414	4.77
740.438	-1.23
740.461	-1.23
740.485	-5.23
740.509	-16.23
740.533	13.77
740.557	-13.23
740.581	-8.23
740.604	-3.23
740.628	0.77
740.652	7.77
740.676	-3.23
740.7	20.77
740.723	6.77
740.747	-6.23
740.771	-7.23
740.795	-6.23
740.819	2.77
740.842	-3.23
740.866	4.77
740.89	6.77
740.914	-8.23
740.938	-18.23
740.961	-1.23
740.985	0.77
741.009	-12.23
741.033	9.77
741.056	11.77
741.08	6.77
741.104	-1.23
741.128	-12.23
741.151	-7.23
741.175	11.77
741.199	2.77
741.223	1.77
741.246	-7.23
741.27	-7.23
741.294	12.77
741.318	-10.23
741.341	5.77
741.365	-9.23
741.389	-6.23
741.413	8.77
741.436	11.77
741.46	7.77
741.484	9.77
741.507	0.77
741.531	28.77
741.555	4.77
741.579	-7.23
741.602	-9.23
741.626	9.77
741.65	9.77
741.673	9.77
741.697	12.77
741.721	-0.23
741.744	-8.23
741.768	6.77
741.792	-2.23
741.815	14.77
741.839	13.77
741.863	13.77
741.886	4.77
741.91	6.77
741.934	0.77
741.957	-19.23
741.981	2.77
742.005	-14.23
742.028	-24.23
742.052	-15.23
742.075	21.77
742.099	9.77
742.123	-0.23
742.146	-9.23
742.17	0.77
742.194	-9.23
742.217	14.77
742.241	-9.23
742.264	1.77
742.288	20.77
742.312	20.77
742.335	-20.23
742.359	9.77
742.382	3.77
742.406	14.77
742.43	-3.23
742.453	3.77
742.477	-14.23
742.5	7.77
742.524	-8.23
742.548	-13.23
742.571	3.77
742.595	-9.23
742.618	-6.23
742.642	-5.23
742.665	6.77
742.689	-10.23
742.712	-1.23
742.736	4.77
742.76	-6.23
742.783	-2.23
742.807	-0.23
742.83	5.77
742.854	-5.23
742.877	1.77
742.901	3.77
742.924	-3.23
742.948	6.77
742.971	9.77
742.995	-7.23
743.018	-11.23
743.042	-10.23
743.065	-17.23
743.089	-7.23
743.112	2.77
743.136	-1.23
743.159	-0.23
743.183	-13.23
743.206	0.77
743.23	3.77
743.253	11.77
743.277	2.77
743.3	-6.23
743.324	-0.23
743.347	-5.23
743.371	11.77
743.394	5.77
743.418	14.77
743.441	5.77
743.465	0.77
743.488	-2.23
743.512	-13.23
743.535	-3.23
743.558	1.77
743.582	-5.23
743.605	-6.23
743.629	9.77
743.652	-7.23
743.676	-0.23
743.699	3.77
743.723	19.77
743.746	9.77
743.769	-11.23
743.793	-9.23
743.816	-8.23
743.84	8.77
743.863	-3.23
743.886	-5.23
743.91	13.77
743.933	-1.23
743.957	10.77
743.98	1.77
744.003	-4.23
744.027	-5.23
744.05	-10.23
744.074	-8.23
744.097	-9.23
744.12	2.77
744.144	-11.23
744.167	13.77
744.19	7.77
744.214	1.77
744.237	0.77
744.26	14.77
744.284	-10.23
744.307	-8.23
744.331	-1.23
744.354	-13.23
744.377	-0.23
744.401	-6.23
744.424	-3.23
744.447	-16.23
744.471	-5.23
