Data from HighRes_H2_15_09_11_07_2024_HR4C61891__142__15-11-10-601.txt Node

Date: Thu Nov 07 15:11:10 EST 2024
User: crc00042
Spectrometer: HR4C6189
Trigger mode: 4
Integration Time (sec): 1.000000E-1
Scans to average: 1
Electric dark correction enabled: true
Nonlinearity correction enabled: false
Boxcar width: 0
XAxis mode: Wavelengths
Number of Pixels in Spectrum: 3648
>>>>>Begin Spectral Data<<<<<
639.567	-41.77
639.602	-41.77
639.636	-41.77
639.67	-39.77
639.704	-12.77
639.738	-8.77
639.773	-1.77
639.807	-34.77
639.841	-8.77
639.875	14.23
639.909	4.23
639.943	-5.77
639.978	3.23
640.012	-12.77
640.046	17.23
640.08	25.23
640.114	-1.77
640.148	10.23
640.182	1.23
640.217	9.23
640.251	29.23
640.285	9.23
640.319	-14.77
640.353	4.23
640.387	11.23
640.421	-13.77
640.455	-20.77
640.49	7.23
640.524	9.23
640.558	20.23
640.592	-10.77
640.626	2.23
640.66	12.23
640.694	3.23
640.728	16.23
640.762	-7.77
640.796	1.23
640.83	12.23
640.865	-1.77
640.899	-8.77
640.933	-0.77
640.967	8.23
641.001	6.23
641.035	3.23
641.069	-5.77
641.103	-5.77
641.137	6.23
641.171	-22.77
641.205	13.23
641.239	3.23
641.273	8.23
641.307	4.23
641.341	6.23
641.375	-6.77
641.409	-8.77
641.443	4.23
641.477	9.23
641.511	7.23
641.545	9.23
641.579	-15.77
641.614	-0.77
641.648	11.23
641.682	-8.77
641.716	13.23
641.75	0.23
641.784	-13.77
641.818	-8.77
641.852	6.23
641.886	5.23
641.919	20.23
641.953	4.23
641.987	-6.77
642.021	-16.77
642.055	-7.77
642.089	7.23
642.123	-12.77
642.157	4.23
642.191	-22.77
642.225	18.23
642.259	3.23
642.293	11.23
642.327	15.23
642.361	-2.77
642.395	11.23
642.429	18.23
642.463	7.23
642.497	20.23
642.531	2.23
642.565	4.23
642.599	-8.77
642.633	-32.77
642.666	14.23
642.7	10.23
642.734	8.23
642.768	-21.77
642.802	11.23
642.836	2.23
642.87	2.23
642.904	5.23
642.938	0.23
642.972	-20.77
643.005	3.23
643.039	0.23
643.073	4.23
643.107	11.23
643.141	-0.77
643.175	6.23
643.209	-20.77
643.243	9.23
643.276	15.23
643.31	-2.77
643.344	1.23
643.378	-0.77
643.412	14.23
643.446	1.23
643.48	-1.77
643.513	13.23
643.547	-4.77
643.581	-2.77
643.615	12.23
643.649	-0.77
643.683	1.23
643.716	9.23
643.75	17.23
643.784	-24.77
643.818	9.23
643.852	-15.77
643.886	-6.77
643.919	11.23
643.953	1.23
643.987	2.23
644.021	19.23
644.055	17.23
644.088	-2.77
644.122	-5.77
644.156	-12.77
644.19	8.23
644.224	4.23
644.257	9.23
644.291	26.23
644.325	13.23
644.359	-5.77
644.392	20.23
644.426	19.23
644.46	1.23
644.494	6.23
644.527	-13.77
644.561	18.23
644.595	6.23
644.629	-15.77
644.662	-9.77
644.696	11.23
644.73	2.23
644.764	6.23
644.797	-10.77
644.831	5.23
644.865	-3.77
644.899	20.23
644.932	36.23
644.966	22.23
645	14.23
645.033	7.23
645.067	2.23
645.101	-11.77
645.135	-8.77
645.168	0.23
645.202	5.23
645.236	-2.77
645.269	-3.77
645.303	-1.77
645.337	-15.77
645.37	-17.77
645.404	0.23
645.438	-13.77
645.471	-5.77
645.505	-3.77
645.539	-11.77
645.572	3.23
645.606	-0.77
645.64	0.23
645.673	9.23
645.707	16.23
645.741	4.23
645.774	-1.77
645.808	-0.77
645.842	-5.77
645.875	11.23
645.909	-12.77
645.943	-14.77
645.976	13.23
646.01	10.23
646.043	14.23
646.077	16.23
646.111	-1.77
646.144	8.23
646.178	-1.77
646.212	-16.77
646.245	-1.77
646.279	3.23
646.312	1.23
646.346	-4.77
646.38	7.23
646.413	-12.77
646.447	-4.77
646.48	1.23
646.514	6.23
646.547	7.23
646.581	-6.77
646.615	-9.77
646.648	3.23
646.682	2.23
646.715	8.23
646.749	-4.77
646.782	3.23
646.816	-12.77
646.85	16.23
646.883	-5.77
646.917	11.23
646.95	18.23
646.984	-2.77
647.017	7.23
647.051	13.23
647.084	7.23
647.118	4.23
647.151	15.23
647.185	7.23
647.218	-16.77
647.252	0.23
647.285	-14.77
647.319	-12.77
647.353	9.23
647.386	18.23
647.42	5.23
647.453	2.23
647.487	9.23
647.52	-6.77
647.553	2.23
647.587	-1.77
647.62	-7.77
647.654	7.23
647.687	-5.77
647.721	-16.77
647.754	-0.77
647.788	-7.77
647.821	-12.77
647.855	3.23
647.888	3.23
647.922	0.23
647.955	1.23
647.989	9.23
648.022	7.23
648.055	14.23
648.089	3.23
648.122	20.23
648.156	3.23
648.189	7.23
648.223	6.23
648.256	16.23
648.29	1.23
648.323	-12.77
648.356	4.23
648.39	11.23
648.423	6.23
648.457	8.23
648.49	0.23
648.523	7.23
648.557	-7.77
648.59	8.23
648.624	-13.77
648.657	-7.77
648.69	17.23
648.724	-7.77
648.757	22.23
648.791	12.23
648.824	-5.77
648.857	7.23
648.891	17.23
648.924	-0.77
648.957	9.23
648.991	-17.77
649.024	1.23
649.057	2.23
649.091	-7.77
649.124	11.23
649.158	3.23
649.191	29.23
649.224	6.23
649.258	3.23
649.291	3.23
649.324	6.23
649.358	0.23
649.391	1.23
649.424	-13.77
649.458	4.23
649.491	7.23
649.524	-4.77
649.557	1.23
649.591	-16.77
649.624	12.23
649.657	-21.77
649.691	-17.77
649.724	-10.77
649.757	1.23
649.791	-1.77
649.824	6.23
649.857	12.23
649.89	4.23
649.924	1.23
649.957	2.23
649.99	-1.77
650.023	-1.77
650.057	-9.77
650.09	14.23
650.123	-5.77
650.157	29.23
650.19	8.23
650.223	-11.77
650.256	-5.77
650.29	-2.77
650.323	10.23
650.356	10.23
650.389	9.23
650.423	-0.77
650.456	2.23
650.489	6.23
650.522	24.23
650.555	13.23
650.589	17.23
650.622	17.23
650.655	9.23
650.688	7.23
650.721	-5.77
650.755	8.23
650.788	6.23
650.821	-9.77
650.854	-7.77
650.887	-5.77
650.921	-14.77
650.954	0.23
650.987	6.23
651.02	-2.77
651.053	-21.77
651.087	-16.77
651.12	21.23
651.153	-4.77
651.186	-18.77
651.219	-1.77
651.252	-6.77
651.286	10.23
651.319	-12.77
651.352	-0.77
651.385	0.23
651.418	2.23
651.451	22.23
651.484	-8.77
651.518	-22.77
651.551	17.23
651.584	-15.77
651.617	17.23
651.65	5.23
651.683	15.23
651.716	10.23
651.749	-11.77
651.783	-11.77
651.816	-4.77
651.849	-8.77
651.882	3.23
651.915	-6.77
651.948	2.23
651.981	-5.77
652.014	-14.77
652.047	3.23
652.08	-9.77
652.114	12.23
652.147	-17.77
652.18	-2.77
652.213	33.23
652.246	-6.77
652.279	-8.77
652.312	17.23
652.345	5.23
652.378	11.23
652.411	29.23
652.444	6.23
652.477	6.23
652.51	-3.77
652.543	-12.77
652.576	-7.77
652.609	-15.77
652.642	16.23
652.675	14.23
652.709	0.23
652.742	0.23
652.775	-1.77
652.808	18.23
652.841	8.23
652.874	1.23
652.907	6.23
652.94	-14.77
652.973	-22.77
653.006	1.23
653.039	4.23
653.072	8.23
653.105	3.23
653.138	-20.77
653.171	-4.77
653.204	-5.77
653.237	-1.77
653.27	-12.77
653.303	14.23
653.336	6.23
653.368	-1.77
653.401	-11.77
653.434	-17.77
653.467	2.23
653.5	3.23
653.533	-6.77
653.566	10.23
653.599	-4.77
653.632	2.23
653.665	4.23
653.698	-12.77
653.731	-0.77
653.764	9.23
653.797	-1.77
653.83	8.23
653.863	-1.77
653.896	-0.77
653.929	-11.77
653.961	19.23
653.994	11.23
654.027	-14.77
654.06	0.23
654.093	7.23
654.126	10.23
654.159	-14.77
654.192	-7.77
654.225	-8.77
654.258	-1.77
654.29	10.23
654.323	-15.77
654.356	-18.77
654.389	0.23
654.422	6.23
654.455	-2.77
654.488	5.23
654.521	-17.77
654.553	-19.77
654.586	2.23
654.619	-4.77
654.652	2.23
654.685	10.23
654.718	7.23
654.751	7.23
654.783	-10.77
654.816	10.23
654.849	-14.77
654.882	-8.77
654.915	-11.77
654.948	18.23
654.98	8.23
655.013	-8.77
655.046	-8.77
655.079	-7.77
655.112	2.23
655.144	-5.77
655.177	7.23
655.21	13.23
655.243	27.23
655.276	15.23
655.308	-2.77
655.341	-6.77
655.374	3.23
655.407	1.23
655.44	-6.77
655.472	8.23
655.505	12.23
655.538	7.23
655.571	18.23
655.603	4.23
655.636	19.23
655.669	32.23
655.702	14.23
655.734	10.23
655.767	-13.77
655.8	34.23
655.833	14.23
655.865	34.23
655.898	21.23
655.931	35.23
655.964	48.23
655.996	50.23
656.029	49.23
656.062	44.23
656.095	65.23
656.127	43.23
656.16	110.23
656.193	116.23
656.225	190.23
656.258	288.23
656.291	500.23
656.324	1118.23
656.356	3361.23
656.389	7558.23
656.422	6004.23
656.454	2066.23
656.487	693.23
656.52	252.23
656.552	106.23
656.585	69.23
656.618	48.23
656.65	41.23
656.683	25.23
656.716	17.23
656.748	26.23
656.781	18.23
656.814	-1.77
656.846	-9.77
656.879	-0.77
656.912	6.23
656.944	-20.77
656.977	-5.77
657.01	-4.77
657.042	1.23
657.075	12.23
657.108	-13.77
657.14	1.23
657.173	8.23
657.205	27.23
657.238	9.23
657.271	9.23
657.303	-3.77
657.336	-0.77
657.369	3.23
657.401	-15.77
657.434	7.23
657.466	7.23
657.499	3.23
657.532	5.23
657.564	6.23
657.597	-10.77
657.629	9.23
657.662	-4.77
657.694	-11.77
657.727	-6.77
657.76	5.23
657.792	-10.77
657.825	-11.77
657.857	-5.77
657.89	-9.77
657.922	3.23
657.955	-9.77
657.987	4.23
658.02	11.23
658.053	21.23
658.085	-0.77
658.118	13.23
658.15	14.23
658.183	30.23
658.215	-0.77
658.248	6.23
658.28	1.23
658.313	9.23
658.345	13.23
658.378	9.23
658.41	5.23
658.443	-9.77
658.475	-10.77
658.508	-12.77
658.54	-9.77
658.573	-25.77
658.605	0.23
658.638	-2.77
658.67	1.23
658.703	11.23
658.735	-9.77
658.768	8.23
658.8	-7.77
658.833	22.23
658.865	4.23
658.898	12.23
658.93	3.23
658.963	-2.77
658.995	0.23
659.028	-2.77
659.06	3.23
659.092	-6.77
659.125	3.23
659.157	-0.77
659.19	-2.77
659.222	4.23
659.255	4.23
659.287	-7.77
659.32	-4.77
659.352	5.23
659.384	9.23
659.417	-13.77
659.449	-0.77
659.482	-13.77
659.514	-26.77
659.546	9.23
659.579	3.23
659.611	-6.77
659.644	2.23
659.676	-2.77
659.708	-1.77
659.741	-10.77
659.773	5.23
659.806	13.23
659.838	8.23
659.87	9.23
659.903	-7.77
659.935	-0.77
659.967	-5.77
660	-3.77
660.032	-14.77
660.065	19.23
660.097	5.23
660.129	3.23
660.162	-10.77
660.194	3.23
660.226	-3.77
660.259	-1.77
660.291	-1.77
660.323	-2.77
660.356	-0.77
660.388	-3.77
660.42	-6.77
660.453	-8.77
660.485	-12.77
660.517	7.23
660.55	3.23
660.582	-8.77
660.614	10.23
660.647	3.23
660.679	4.23
660.711	-4.77
660.743	-3.77
660.776	-5.77
660.808	14.23
660.84	0.23
660.873	-5.77
660.905	0.23
660.937	6.23
660.969	1.23
661.002	0.23
661.034	11.23
661.066	-0.77
661.099	0.23
661.131	8.23
661.163	-9.77
661.195	-0.77
661.228	16.23
661.26	-3.77
661.292	-5.77
661.324	-2.77
661.357	-5.77
661.389	17.23
661.421	-8.77
661.453	-20.77
661.485	2.23
661.518	-1.77
661.55	0.23
661.582	-6.77
661.614	-3.77
661.647	7.23
661.679	-2.77
661.711	-4.77
661.743	-0.77
661.775	-11.77
661.808	12.23
661.84	-11.77
661.872	-0.77
661.904	-5.77
661.936	15.23
661.969	-4.77
662.001	-2.77
662.033	-1.77
662.065	3.23
662.097	10.23
662.129	21.23
662.162	-7.77
662.194	8.23
662.226	-5.77
662.258	9.23
662.29	0.23
662.322	-18.77
662.355	-17.77
662.387	25.23
662.419	0.23
662.451	11.23
662.483	0.23
662.515	6.23
662.547	0.23
662.58	-0.77
662.612	-0.77
662.644	-9.77
662.676	4.23
662.708	21.23
662.74	-9.77
662.772	-10.77
662.804	-15.77
662.836	-0.77
662.869	8.23
662.901	13.23
662.933	-2.77
662.965	7.23
662.997	9.23
663.029	-8.77
663.061	-3.77
663.093	-9.77
663.125	11.23
663.157	13.23
663.189	11.23
663.221	3.23
663.254	2.23
663.286	8.23
663.318	-8.77
663.35	-5.77
663.382	-7.77
663.414	2.23
663.446	-3.77
663.478	-3.77
663.51	39.23
663.542	-13.77
663.574	3.23
663.606	10.23
663.638	-4.77
663.67	-0.77
663.702	-10.77
663.734	-4.77
663.766	16.23
663.798	-4.77
663.83	4.23
663.862	16.23
663.894	-3.77
663.926	10.23
663.958	11.23
663.99	-0.77
664.022	-1.77
664.054	15.23
664.086	-6.77
664.118	-5.77
664.15	-1.77
664.182	13.23
664.214	11.23
664.246	23.23
664.278	6.23
664.31	2.23
664.342	-10.77
664.374	-7.77
664.406	5.23
664.438	-18.77
664.47	12.23
664.502	-1.77
664.534	-12.77
664.566	-17.77
664.598	18.23
664.63	-0.77
664.662	2.23
664.693	-1.77
664.725	-11.77
664.757	7.23
664.789	-1.77
664.821	0.23
664.853	-3.77
664.885	-2.77
664.917	-9.77
664.949	9.23
664.981	5.23
665.013	11.23
665.045	-18.77
665.076	-6.77
665.108	-9.77
665.14	-1.77
665.172	0.23
665.204	-3.77
665.236	-3.77
665.268	11.23
665.3	-14.77
665.331	-14.77
665.363	7.23
665.395	-11.77
665.427	-11.77
665.459	7.23
665.491	-1.77
665.523	6.23
665.555	-6.77
665.586	1.23
665.618	-10.77
665.65	-10.77
665.682	7.23
665.714	11.23
665.746	-8.77
665.777	-7.77
665.809	5.23
665.841	6.23
665.873	23.23
665.905	5.23
665.937	20.23
665.968	2.23
666	-1.77
666.032	1.23
666.064	-8.77
666.096	-6.77
666.127	18.23
666.159	16.23
666.191	9.23
666.223	-1.77
666.255	3.23
666.286	-2.77
666.318	2.23
666.35	-1.77
666.382	-9.77
666.413	-6.77
666.445	-14.77
666.477	-23.77
666.509	-29.77
666.54	-3.77
666.572	-15.77
666.604	-13.77
666.636	-9.77
666.667	10.23
666.699	12.23
666.731	2.23
666.763	16.23
666.794	7.23
666.826	-3.77
666.858	-23.77
666.89	12.23
666.921	0.23
666.953	-6.77
666.985	4.23
667.017	29.23
667.048	21.23
667.08	-4.77
667.112	1.23
667.143	-5.77
667.175	7.23
667.207	0.23
667.238	-8.77
667.27	-6.77
667.302	1.23
667.334	-1.77
667.365	20.23
667.397	5.23
667.429	-13.77
667.46	21.23
667.492	8.23
667.524	7.23
667.555	5.23
667.587	-8.77
667.619	-12.77
667.65	-21.77
667.682	6.23
667.714	4.23
667.745	1.23
667.777	6.23
667.808	5.23
667.84	-0.77
667.872	4.23
667.903	4.23
667.935	-0.77
667.967	3.23
667.998	-15.77
668.03	-12.77
668.061	3.23
668.093	-0.77
668.125	10.23
668.156	6.23
668.188	0.23
668.22	-5.77
668.251	9.23
668.283	13.23
668.314	12.23
668.346	-10.77
668.377	-8.77
668.409	-6.77
668.441	12.23
668.472	13.23
668.504	10.23
668.535	-0.77
668.567	16.23
668.599	-16.77
668.63	-3.77
668.662	-2.77
668.693	7.23
668.725	5.23
668.756	3.23
668.788	11.23
668.819	10.23
668.851	10.23
668.882	12.23
668.914	-6.77
668.946	-7.77
668.977	-11.77
669.009	2.23
669.04	-10.77
669.072	-14.77
669.103	10.23
669.135	-5.77
669.166	-4.77
669.198	3.23
669.229	2.23
669.261	6.23
669.292	8.23
669.324	5.23
669.355	6.23
669.387	-5.77
669.418	1.23
669.45	5.23
669.481	6.23
669.513	-15.77
669.544	6.23
669.576	-1.77
669.607	18.23
669.639	1.23
669.67	0.23
669.701	8.23
669.733	9.23
669.764	12.23
669.796	6.23
669.827	2.23
669.859	-12.77
669.89	3.23
669.922	5.23
669.953	14.23
669.985	1.23
670.016	4.23
670.047	9.23
670.079	1.23
670.11	7.23
670.142	8.23
670.173	10.23
670.204	-20.77
670.236	1.23
670.267	-18.77
670.299	-5.77
670.33	1.23
670.362	-8.77
670.393	-14.77
670.424	5.23
670.456	-15.77
670.487	-16.77
670.518	4.23
670.55	6.23
670.581	-11.77
670.613	-5.77
670.644	-11.77
670.675	-13.77
670.707	6.23
670.738	18.23
670.769	-1.77
670.801	-5.77
670.832	17.23
670.864	-12.77
670.895	-1.77
670.926	3.23
670.958	1.23
670.989	-3.77
671.02	-13.77
671.052	-1.77
671.083	-12.77
671.114	1.23
671.146	8.23
671.177	0.23
671.208	-20.77
671.24	-13.77
671.271	-19.77
671.302	-0.77
671.333	-11.77
671.365	-11.77
671.396	-20.77
671.427	2.23
671.459	1.23
671.49	10.23
671.521	-0.77
671.553	-6.77
671.584	0.23
671.615	-25.77
671.646	6.23
671.678	6.23
671.709	-19.77
671.74	-18.77
671.771	-4.77
671.803	-15.77
671.834	-1.77
671.865	-4.77
671.896	4.23
671.928	3.23
671.959	-8.77
671.99	-6.77
672.021	-12.77
672.053	-11.77
672.084	16.23
672.115	2.23
672.146	-7.77
672.178	-4.77
672.209	1.23
672.24	-12.77
672.271	18.23
672.303	4.23
672.334	-4.77
672.365	-9.77
672.396	-8.77
672.427	9.23
672.459	20.23
672.49	28.23
672.521	16.23
672.552	7.23
672.583	-9.77
672.615	-5.77
672.646	0.23
672.677	0.23
672.708	0.23
672.739	6.23
672.77	7.23
672.802	15.23
672.833	-7.77
672.864	14.23
672.895	-11.77
672.926	0.23
672.957	3.23
672.989	-3.77
673.02	-0.77
673.051	-0.77
673.082	9.23
673.113	15.23
673.144	8.23
673.175	-5.77
673.206	13.23
673.238	2.23
673.269	-0.77
673.3	2.23
673.331	19.23
673.362	11.23
673.393	9.23
673.424	15.23
673.455	16.23
673.487	5.23
673.518	13.23
673.549	11.23
673.58	-14.77
673.611	5.23
673.642	-8.77
673.673	-23.77
673.704	2.23
673.735	-4.77
673.766	-10.77
673.797	-1.77
673.828	-7.77
673.86	-9.77
673.891	-24.77
673.922	-26.77
673.953	-2.77
673.984	9.23
674.015	10.23
674.046	6.23
674.077	-1.77
674.108	0.23
674.139	-3.77
674.17	-12.77
674.201	-11.77
674.232	-6.77
674.263	-1.77
674.294	-18.77
674.325	-17.77
674.356	4.23
674.387	21.23
674.418	5.23
674.449	-23.77
674.48	6.23
674.511	3.23
674.542	14.23
674.573	-3.77
674.604	4.23
674.635	10.23
674.666	6.23
674.697	9.23
674.728	-0.77
674.759	9.23
674.79	-2.77
674.821	-3.77
674.852	-5.77
674.883	-14.77
674.914	-5.77
674.945	-9.77
674.976	-0.77
675.007	-13.77
675.038	-9.77
675.069	-25.77
675.1	-20.77
675.131	2.23
675.162	-2.77
675.193	-11.77
675.224	-11.77
675.254	10.23
675.285	15.23
675.316	10.23
675.347	6.23
675.378	-0.77
675.409	-15.77
675.44	19.23
675.471	-2.77
675.502	-7.77
675.533	-1.77
675.564	-2.77
675.595	1.23
675.625	16.23
675.656	10.23
675.687	4.23
675.718	-8.77
675.749	-7.77
675.78	-5.77
675.811	-0.77
675.842	6.23
675.873	-11.77
675.903	-3.77
675.934	-1.77
675.965	6.23
675.996	-18.77
676.027	-7.77
676.058	-1.77
676.089	-16.77
676.119	-3.77
676.15	-0.77
676.181	4.23
676.212	-5.77
676.243	6.23
676.274	-7.77
676.304	3.23
676.335	-21.77
676.366	-3.77
676.397	-2.77
676.428	-13.77
676.459	3.23
676.489	11.23
676.52	13.23
676.551	-2.77
676.582	-8.77
676.613	-2.77
676.643	-27.77
676.674	2.23
676.705	6.23
676.736	-0.77
676.767	10.23
676.797	1.23
676.828	5.23
676.859	9.23
676.89	-6.77
676.92	0.23
676.951	4.23
676.982	1.23
677.013	-3.77
677.044	25.23
677.074	6.23
677.105	-6.77
677.136	6.23
677.167	-4.77
677.197	0.23
677.228	6.23
677.259	-2.77
677.289	-5.77
677.32	-20.77
677.351	-12.77
677.382	-10.77
677.412	-8.77
677.443	-5.77
677.474	10.23
677.505	-2.77
677.535	-6.77
677.566	-13.77
677.597	-18.77
677.627	-24.77
677.658	-6.77
677.689	-17.77
677.72	2.23
677.75	0.23
677.781	12.23
677.812	12.23
677.842	-6.77
677.873	-1.77
677.904	-10.77
677.934	3.23
677.965	4.23
677.996	-20.77
678.026	-7.77
678.057	-1.77
678.088	1.23
678.118	11.23
678.149	-4.77
678.18	6.23
678.21	3.23
678.241	4.23
678.272	0.23
678.302	-16.77
678.333	-1.77
678.363	15.23
678.394	-0.77
678.425	0.23
678.455	-9.77
678.486	7.23
678.517	-7.77
678.547	13.23
678.578	-5.77
678.608	-16.77
678.639	6.23
678.67	13.23
678.7	-10.77
678.731	-2.77
678.761	4.23
678.792	-8.77
678.823	1.23
678.853	-4.77
678.884	-18.77
678.914	11.23
678.945	-13.77
678.975	-7.77
679.006	23.23
679.037	-10.77
679.067	23.23
679.098	9.23
679.128	-4.77
679.159	-14.77
679.189	-7.77
679.22	-18.77
679.25	-1.77
679.281	6.23
679.312	-3.77
679.342	-7.77
679.373	25.23
679.403	-2.77
679.434	1.23
679.464	12.23
679.495	3.23
679.525	-11.77
679.556	-1.77
679.586	6.23
679.617	7.23
679.647	-6.77
679.678	6.23
679.708	3.23
679.739	0.23
679.769	5.23
679.8	-16.77
679.83	-20.77
679.861	0.23
679.891	-15.77
679.922	-12.77
679.952	-9.77
679.983	14.23
680.013	1.23
680.044	-1.77
680.074	0.23
680.105	7.23
680.135	6.23
680.165	10.23
680.196	9.23
680.226	0.23
680.257	16.23
680.287	6.23
680.318	-7.77
680.348	-12.77
680.379	28.23
680.409	1.23
680.439	-10.77
680.47	-8.77
680.5	-3.77
680.531	0.23
680.561	5.23
680.592	7.23
680.622	17.23
680.652	0.23
680.683	-1.77
680.713	-17.77
680.744	1.23
680.774	-2.77
680.804	24.23
680.835	-4.77
680.865	-22.77
680.896	10.23
680.926	19.23
680.956	9.23
680.987	2.23
681.017	-3.77
681.047	0.23
681.078	-9.77
681.108	-3.77
681.139	6.23
681.169	4.23
681.199	-3.77
681.23	2.23
681.26	-5.77
681.29	-4.77
681.321	-11.77
681.351	-4.77
681.381	-15.77
681.412	-3.77
681.442	-8.77
681.472	15.23
681.503	3.23
681.533	1.23
681.563	3.23
681.594	3.23
681.624	2.23
681.654	-12.77
681.685	-0.77
681.715	-3.77
681.745	1.23
681.775	-19.77
681.806	2.23
681.836	9.23
681.866	-6.77
681.897	4.23
681.927	16.23
681.957	-14.77
681.987	10.23
682.018	2.23
682.048	-1.77
682.078	-1.77
682.109	18.23
682.139	7.23
682.169	12.23
682.199	-4.77
682.23	-6.77
682.26	3.23
682.29	-3.77
682.32	2.23
682.351	-8.77
682.381	-14.77
682.411	0.23
682.441	-11.77
682.472	-5.77
682.502	-7.77
682.532	-1.77
682.562	14.23
682.592	7.23
682.623	-1.77
682.653	-0.77
682.683	-4.77
682.713	-6.77
682.743	0.23
682.774	15.23
682.804	0.23
682.834	12.23
682.864	-4.77
682.894	3.23
682.925	-22.77
682.955	-4.77
682.985	2.23
683.015	16.23
683.045	12.23
683.076	-1.77
683.106	-8.77
683.136	0.23
683.166	-11.77
683.196	2.23
683.226	15.23
683.257	-1.77
683.287	2.23
683.317	-17.77
683.347	-10.77
683.377	2.23
683.407	4.23
683.437	7.23
683.468	20.23
683.498	2.23
683.528	14.23
683.558	9.23
683.588	-9.77
683.618	-6.77
683.648	-1.77
683.678	-3.77
683.708	4.23
683.739	6.23
683.769	1.23
683.799	2.23
683.829	-1.77
683.859	-6.77
683.889	10.23
683.919	-4.77
683.949	10.23
683.979	-14.77
684.009	5.23
684.039	11.23
684.07	-4.77
684.1	8.23
684.13	-7.77
684.16	5.23
684.19	4.23
684.22	-6.77
684.25	-0.77
684.28	-7.77
684.31	4.23
684.34	20.23
684.37	2.23
684.4	5.23
684.43	-13.77
684.46	-5.77
684.49	2.23
684.52	6.23
684.55	14.23
684.58	0.23
684.61	-0.77
684.64	8.23
684.67	-4.77
684.7	-6.77
684.73	11.23
684.76	9.23
684.79	15.23
684.82	1.23
684.85	-9.77
684.88	0.23
684.91	6.23
684.94	-1.77
684.97	-11.77
685	2.23
685.03	-6.77
685.06	1.23
685.09	-11.77
685.12	5.23
685.15	-23.77
685.18	-8.77
685.21	2.23
685.24	12.23
685.27	1.23
685.3	-1.77
685.33	-5.77
685.36	-12.77
685.39	-8.77
685.42	-6.77
685.45	1.23
685.48	1.23
685.51	-11.77
685.54	0.23
685.569	2.23
685.599	-16.77
685.629	14.23
685.659	-7.77
685.689	-4.77
685.719	6.23
685.749	2.23
685.779	-12.77
685.809	9.23
685.839	8.23
685.869	15.23
685.898	0.23
685.928	0.23
685.958	0.23
685.988	10.23
686.018	1.23
686.048	0.23
686.078	12.23
686.108	23.23
686.137	-10.77
686.167	21.23
686.197	-2.77
686.227	-11.77
686.257	32.23
686.287	6.23
686.317	1.23
686.346	-2.77
686.376	0.23
686.406	-14.77
686.436	1.23
686.466	-4.77
686.496	9.23
686.525	-0.77
686.555	0.23
686.585	12.23
686.615	38.23
686.645	-6.77
686.675	-7.77
686.704	-1.77
686.734	9.23
686.764	-1.77
686.794	-5.77
686.824	-9.77
686.853	-0.77
686.883	29.23
686.913	10.23
686.943	6.23
686.973	2.23
687.002	-0.77
687.032	6.23
687.062	-8.77
687.092	14.23
687.121	-3.77
687.151	3.23
687.181	0.23
687.211	4.23
687.24	-9.77
687.27	1.23
687.3	-14.77
687.33	12.23
687.359	-15.77
687.389	10.23
687.419	-4.77
687.449	6.23
687.478	-11.77
687.508	-5.77
687.538	8.23
687.568	10.23
687.597	-23.77
687.627	-8.77
687.657	-1.77
687.686	-7.77
687.716	22.23
687.746	2.23
687.776	-7.77
687.805	-8.77
687.835	-7.77
687.865	8.23
687.894	2.23
687.924	-19.77
687.954	10.23
687.983	-3.77
688.013	8.23
688.043	3.23
688.072	-3.77
688.102	15.23
688.132	-1.77
688.161	-0.77
688.191	3.23
688.221	11.23
688.25	-7.77
688.28	19.23
688.31	21.23
688.339	7.23
688.369	-14.77
688.399	-15.77
688.428	-12.77
688.458	6.23
688.488	-2.77
688.517	-6.77
688.547	-14.77
688.576	46.23
688.606	20.23
688.636	-7.77
688.665	-6.77
688.695	10.23
688.725	21.23
688.754	6.23
688.784	1.23
688.813	8.23
688.843	22.23
688.873	-1.77
688.902	2.23
688.932	-14.77
688.961	-12.77
688.991	17.23
689.02	12.23
689.05	-1.77
689.08	7.23
689.109	13.23
689.139	0.23
689.168	-1.77
689.198	-0.77
689.227	6.23
689.257	18.23
689.287	25.23
689.316	14.23
689.346	-18.77
689.375	-6.77
689.405	8.23
689.434	-21.77
689.464	14.23
689.493	4.23
689.523	-7.77
689.552	-4.77
689.582	-6.77
689.611	12.23
689.641	14.23
689.67	8.23
689.7	7.23
689.73	13.23
689.759	17.23
689.789	5.23
689.818	4.23
689.848	-10.77
689.877	3.23
689.906	-4.77
689.936	-11.77
689.965	3.23
689.995	6.23
690.024	1.23
690.054	-6.77
690.083	-9.77
690.113	9.23
690.142	7.23
690.172	3.23
690.201	6.23
690.231	-17.77
690.26	8.23
690.29	3.23
690.319	24.23
690.348	-6.77
690.378	1.23
690.407	12.23
690.437	-1.77
690.466	9.23
690.496	6.23
690.525	11.23
690.555	-1.77
690.584	3.23
690.613	-3.77
690.643	12.23
690.672	11.23
690.702	-1.77
690.731	1.23
690.76	12.23
690.79	9.23
690.819	-13.77
690.849	-7.77
690.878	-2.77
690.907	2.23
690.937	13.23
690.966	14.23
690.996	4.23
691.025	-0.77
691.054	-0.77
691.084	4.23
691.113	-0.77
691.142	4.23
691.172	7.23
691.201	16.23
691.23	-2.77
691.26	11.23
691.289	5.23
691.319	1.23
691.348	3.23
691.377	3.23
691.407	14.23
691.436	-1.77
691.465	1.23
691.495	1.23
691.524	-0.77
691.553	-1.77
691.583	-6.77
691.612	12.23
691.641	1.23
691.67	2.23
691.7	26.23
691.729	-9.77
691.758	-9.77
691.788	-19.77
691.817	-14.77
691.846	-1.77
691.876	1.23
691.905	10.23
691.934	-4.77
691.963	-0.77
691.993	8.23
692.022	-5.77
692.051	-13.77
692.081	-5.77
692.11	10.23
692.139	7.23
692.168	-3.77
692.198	14.23
692.227	8.23
692.256	-5.77
692.285	-1.77
692.315	-14.77
692.344	3.23
692.373	-12.77
692.402	-17.77
692.432	-17.77
692.461	-1.77
692.49	0.23
692.519	-8.77
692.548	4.23
692.578	1.23
692.607	-8.77
692.636	-7.77
692.665	11.23
692.694	-1.77
692.724	8.23
692.753	5.23
692.782	28.23
692.811	1.23
692.84	2.23
692.87	-4.77
692.899	-4.77
692.928	-6.77
692.957	9.23
692.986	6.23
693.016	-10.77
693.045	8.23
693.074	21.23
693.103	6.23
693.132	2.23
693.161	9.23
693.191	2.23
693.22	-5.77
693.249	-5.77
693.278	4.23
693.307	18.23
693.336	1.23
693.365	-11.77
693.395	-5.77
693.424	-7.77
693.453	26.23
693.482	3.23
693.511	5.23
693.54	3.23
693.569	11.23
693.598	-0.77
693.628	11.23
693.657	15.23
693.686	10.23
693.715	9.23
693.744	-4.77
693.773	12.23
693.802	11.23
693.831	-6.77
693.86	18.23
693.889	3.23
693.919	18.23
693.948	-0.77
693.977	-13.77
694.006	-2.77
694.035	1.23
694.064	-8.77
694.093	-4.77
694.122	1.23
694.151	-24.77
694.18	6.23
694.209	14.23
694.238	7.23
694.267	33.23
694.296	16.23
694.325	6.23
694.354	6.23
694.383	10.23
694.412	1.23
694.441	-3.77
694.471	-1.77
694.5	-6.77
694.529	3.23
694.558	18.23
694.587	13.23
694.616	5.23
694.645	-16.77
694.674	16.23
694.703	17.23
694.732	2.23
694.761	10.23
694.79	15.23
694.819	-10.77
694.848	-4.77
694.877	11.23
694.906	15.23
694.935	4.23
694.963	10.23
694.992	0.23
695.021	2.23
695.05	-1.77
695.079	5.23
695.108	8.23
695.137	8.23
695.166	0.23
695.195	-1.77
695.224	5.23
695.253	-0.77
695.282	-16.77
695.311	-4.77
695.34	8.23
695.369	-13.77
695.398	-8.77
695.427	14.23
695.456	9.23
695.485	0.23
695.513	-3.77
695.542	4.23
695.571	5.23
695.6	0.23
695.629	-2.77
695.658	5.23
695.687	-2.77
695.716	5.23
695.745	15.23
695.774	-10.77
695.802	-13.77
695.831	-5.77
695.86	2.23
695.889	5.23
695.918	-12.77
695.947	0.23
695.976	5.23
696.005	6.23
696.033	7.23
696.062	8.23
696.091	-5.77
696.12	1.23
696.149	16.23
696.178	1.23
696.207	6.23
696.235	-17.77
696.264	7.23
696.293	2.23
696.322	16.23
696.351	1.23
696.38	-21.77
696.408	-8.77
696.437	12.23
696.466	8.23
696.495	18.23
696.524	12.23
696.553	7.23
696.581	3.23
696.61	2.23
696.639	-4.77
696.668	2.23
696.697	-16.77
696.725	4.23
696.754	7.23
696.783	3.23
696.812	10.23
696.84	3.23
696.869	2.23
696.898	9.23
696.927	6.23
696.956	6.23
696.984	2.23
697.013	4.23
697.042	0.23
697.071	4.23
697.099	19.23
697.128	11.23
697.157	-1.77
697.186	0.23
697.214	-9.77
697.243	1.23
697.272	-14.77
697.301	-1.77
697.329	4.23
697.358	8.23
697.387	20.23
697.415	13.23
697.444	13.23
697.473	2.23
697.502	-16.77
697.53	3.23
697.559	12.23
697.588	-0.77
697.616	-2.77
697.645	-0.77
697.674	18.23
697.703	3.23
697.731	4.23
697.76	10.23
697.789	-2.77
697.817	-9.77
697.846	15.23
697.875	9.23
697.903	18.23
697.932	10.23
697.961	2.23
697.989	5.23
698.018	4.23
698.047	-3.77
698.075	16.23
698.104	3.23
698.133	5.23
698.161	-7.77
698.19	5.23
698.218	0.23
698.247	-0.77
698.276	-11.77
698.304	1.23
698.333	24.23
698.362	2.23
698.39	-5.77
698.419	-2.77
698.447	8.23
698.476	6.23
698.505	-5.77
698.533	14.23
698.562	7.23
698.591	-9.77
698.619	1.23
698.648	-8.77
698.676	-2.77
698.705	-6.77
698.733	-13.77
698.762	-0.77
698.791	-9.77
698.819	-5.77
698.848	-2.77
698.876	6.23
698.905	-1.77
698.933	11.23
698.962	3.23
698.991	3.23
699.019	0.23
699.048	-1.77
699.076	1.23
699.105	0.23
699.133	-1.77
699.162	5.23
699.19	14.23
699.219	-0.77
699.248	3.23
699.276	1.23
699.305	-13.77
699.333	10.23
699.362	-5.77
699.39	11.23
699.419	-9.77
699.447	14.23
699.476	2.23
699.504	7.23
699.533	-5.77
699.561	-7.77
699.59	-0.77
699.618	-12.77
699.647	5.23
699.675	5.23
699.704	7.23
699.732	3.23
699.761	0.23
699.789	-8.77
699.818	0.23
699.846	0.23
699.874	1.23
699.903	-1.77
699.931	14.23
699.96	9.23
699.988	-10.77
700.017	-1.77
700.045	2.23
700.074	-2.77
700.102	-1.77
700.13	-6.77
700.159	-2.77
700.187	3.23
700.216	-10.77
700.244	-1.77
700.273	2.23
700.301	24.23
700.329	17.23
700.358	32.23
700.386	1.23
700.415	9.23
700.443	3.23
700.472	3.23
700.5	2.23
700.528	10.23
700.557	0.23
700.585	1.23
700.614	-9.77
700.642	15.23
700.67	12.23
700.699	10.23
700.727	8.23
700.755	4.23
700.784	5.23
700.812	10.23
700.841	9.23
700.869	-5.77
700.897	-13.77
700.926	1.23
700.954	8.23
700.982	-1.77
701.011	4.23
701.039	10.23
701.067	-4.77
701.096	2.23
701.124	-4.77
701.152	-4.77
701.181	-10.77
701.209	-12.77
701.237	5.23
701.266	-3.77
701.294	-9.77
701.322	-0.77
701.351	6.23
701.379	10.23
701.407	0.23
701.435	-9.77
701.464	19.23
701.492	28.23
701.52	3.23
701.549	14.23
701.577	-4.77
701.605	-9.77
701.634	19.23
701.662	14.23
701.69	-13.77
701.718	-12.77
701.747	-7.77
701.775	9.23
701.803	10.23
701.831	11.23
701.86	-7.77
701.888	-5.77
701.916	-3.77
701.944	-9.77
701.973	-12.77
702.001	-23.77
702.029	-7.77
702.057	-6.77
702.086	-11.77
702.114	-11.77
702.142	7.23
702.17	-11.77
702.199	13.23
702.227	-15.77
702.255	2.23
702.283	-14.77
702.311	8.23
702.34	2.23
702.368	-2.77
702.396	-4.77
702.424	14.23
702.452	-8.77
702.481	-4.77
702.509	6.23
702.537	20.23
702.565	4.23
702.593	-8.77
702.621	3.23
702.65	-2.77
702.678	9.23
702.706	23.23
702.734	8.23
702.762	4.23
702.79	-16.77
702.819	8.23
702.847	0.23
702.875	10.23
702.903	4.23
702.931	-11.77
702.959	1.23
702.988	-8.77
703.016	-14.77
703.044	-0.77
703.072	-0.77
703.1	5.23
703.128	-10.77
703.156	-14.77
703.184	-1.77
703.212	14.23
703.241	3.23
703.269	1.23
703.297	9.23
703.325	8.23
703.353	-14.77
703.381	-9.77
703.409	-4.77
703.437	-7.77
703.465	3.23
703.493	-15.77
703.522	6.23
703.55	4.23
703.578	3.23
703.606	-13.77
703.634	-8.77
703.662	-1.77
703.69	11.23
703.718	6.23
703.746	16.23
703.774	-22.77
703.802	22.23
703.83	-5.77
703.858	-8.77
703.886	-6.77
703.914	-4.77
703.942	6.23
703.97	5.23
703.998	-12.77
704.027	1.23
704.055	6.23
704.083	-11.77
704.111	-12.77
704.139	-16.77
704.167	1.23
704.195	11.23
704.223	0.23
704.251	2.23
704.279	10.23
704.307	5.23
704.335	-16.77
704.363	14.23
704.391	-11.77
704.419	-9.77
704.447	-5.77
704.475	2.23
704.503	-1.77
704.531	11.23
704.558	-6.77
704.586	1.23
704.614	1.23
704.642	10.23
704.67	16.23
704.698	2.23
704.726	17.23
704.754	-5.77
704.782	-10.77
704.81	5.23
704.838	16.23
704.866	5.23
704.894	-12.77
704.922	2.23
704.95	21.23
704.978	11.23
705.006	-7.77
705.034	2.23
705.061	6.23
705.089	-14.77
705.117	-17.77
705.145	0.23
705.173	21.23
705.201	-1.77
705.229	-1.77
705.257	-0.77
705.285	26.23
705.313	16.23
705.34	10.23
705.368	8.23
705.396	9.23
705.424	10.23
705.452	-12.77
705.48	-1.77
705.508	-11.77
705.536	-5.77
705.563	-4.77
705.591	0.23
705.619	7.23
705.647	7.23
705.675	13.23
705.703	3.23
705.731	-10.77
705.758	-0.77
705.786	-2.77
705.814	25.23
705.842	5.23
705.87	25.23
705.898	20.23
705.925	1.23
705.953	7.23
705.981	-12.77
706.009	-0.77
706.037	-0.77
706.065	-17.77
706.092	-25.77
706.12	-5.77
706.148	1.23
706.176	-2.77
706.204	10.23
706.231	-1.77
706.259	-3.77
706.287	-2.77
706.315	6.23
706.342	5.23
706.37	-1.77
706.398	-9.77
706.426	-1.77
706.454	-2.77
706.481	6.23
706.509	-5.77
706.537	-9.77
706.565	4.23
706.592	11.23
706.62	-0.77
706.648	2.23
706.676	-15.77
706.703	-10.77
706.731	-8.77
706.759	-8.77
706.787	11.23
706.814	-10.77
706.842	6.23
706.87	0.23
706.897	2.23
706.925	-2.77
706.953	7.23
706.981	10.23
707.008	4.23
707.036	9.23
707.064	-0.77
707.091	-4.77
707.119	5.23
707.147	-7.77
707.174	7.23
707.202	13.23
707.23	-6.77
707.258	-2.77
707.285	-23.77
707.313	-0.77
707.341	-20.77
707.368	-3.77
707.396	-6.77
707.424	6.23
707.451	-10.77
707.479	-1.77
707.507	-1.77
707.534	-23.77
707.562	-2.77
707.59	-11.77
707.617	-7.77
707.645	8.23
707.672	9.23
707.7	-11.77
707.728	10.23
707.755	-6.77
707.783	-15.77
707.811	2.23
707.838	4.23
707.866	9.23
707.893	3.23
707.921	-20.77
707.949	0.23
707.976	10.23
708.004	13.23
708.031	-11.77
708.059	-9.77
708.087	-10.77
708.114	0.23
708.142	-13.77
708.169	-8.77
708.197	-8.77
708.225	-10.77
708.252	-17.77
708.28	-3.77
708.307	-11.77
708.335	-5.77
708.362	-1.77
708.39	-15.77
708.418	-0.77
708.445	-4.77
708.473	-1.77
708.5	-17.77
708.528	2.23
708.555	-12.77
708.583	-4.77
708.61	-8.77
708.638	6.23
708.665	-5.77
708.693	-9.77
708.72	-8.77
708.748	6.23
708.776	4.23
708.803	20.23
708.831	9.23
708.858	9.23
708.886	18.23
708.913	2.23
708.941	7.23
708.968	11.23
708.996	6.23
709.023	22.23
709.051	-8.77
709.078	-7.77
709.105	-2.77
709.133	-1.77
709.16	-6.77
709.188	2.23
709.215	-3.77
709.243	8.23
709.27	-0.77
709.298	3.23
709.325	1.23
709.353	13.23
709.38	5.23
709.408	13.23
709.435	-2.77
709.462	-5.77
709.49	-0.77
709.517	-7.77
709.545	-12.77
709.572	-7.77
709.6	-0.77
709.627	-9.77
709.655	-1.77
709.682	-16.77
709.709	3.23
709.737	-3.77
709.764	-9.77
709.792	6.23
709.819	2.23
709.846	-9.77
709.874	7.23
709.901	11.23
709.929	18.23
709.956	6.23
709.983	-5.77
710.011	-11.77
710.038	-4.77
710.066	-3.77
710.093	14.23
710.12	1.23
710.148	-8.77
710.175	-7.77
710.202	-18.77
710.23	-2.77
710.257	1.23
710.284	-0.77
710.312	7.23
710.339	1.23
710.366	-9.77
710.394	-21.77
710.421	-1.77
710.448	2.23
710.476	-26.77
710.503	2.23
710.53	16.23
710.558	7.23
710.585	14.23
710.612	4.23
710.64	10.23
710.667	-5.77
710.694	-4.77
710.722	-8.77
710.749	7.23
710.776	-2.77
710.804	22.23
710.831	-5.77
710.858	-0.77
710.885	2.23
710.913	-4.77
710.94	-6.77
710.967	-3.77
710.995	2.23
711.022	-5.77
711.049	3.23
711.076	-10.77
711.104	-10.77
711.131	-17.77
711.158	-2.77
711.185	10.23
711.213	-20.77
711.24	-5.77
711.267	-20.77
711.294	-4.77
711.322	10.23
711.349	-9.77
711.376	-6.77
711.403	4.23
711.431	-8.77
711.458	-4.77
711.485	-2.77
711.512	2.23
711.54	-8.77
711.567	-5.77
711.594	9.23
711.621	-5.77
711.648	-0.77
711.676	-7.77
711.703	-7.77
711.73	-8.77
711.757	9.23
711.784	-2.77
711.812	-1.77
711.839	-8.77
711.866	-3.77
711.893	-15.77
711.92	3.23
711.947	14.23
711.975	10.23
712.002	-4.77
712.029	-7.77
712.056	11.23
712.083	2.23
712.11	-14.77
712.138	4.23
712.165	0.23
712.192	7.23
712.219	-4.77
712.246	-22.77
712.273	-16.77
712.3	-7.77
712.328	-7.77
712.355	7.23
712.382	-21.77
712.409	13.23
712.436	-5.77
712.463	4.23
712.49	-5.77
712.517	7.23
712.544	-1.77
712.572	-5.77
712.599	-15.77
712.626	0.23
712.653	2.23
712.68	-5.77
712.707	13.23
712.734	-2.77
712.761	-3.77
712.788	-7.77
712.815	-0.77
712.842	19.23
712.87	-2.77
712.897	0.23
712.924	-5.77
712.951	5.23
712.978	-1.77
713.005	11.23
713.032	12.23
713.059	-1.77
713.086	-9.77
713.113	-15.77
713.14	-20.77
713.167	-6.77
713.194	14.23
713.221	-3.77
713.248	7.23
713.275	-13.77
713.302	-15.77
713.329	14.23
713.356	10.23
713.383	6.23
713.41	2.23
713.437	-12.77
713.464	-9.77
713.491	-2.77
713.518	1.23
713.545	3.23
713.572	-14.77
713.599	12.23
713.626	-4.77
713.653	2.23
713.68	-10.77
713.707	-13.77
713.734	-3.77
713.761	4.23
713.788	-8.77
713.815	5.23
713.842	-5.77
713.869	-8.77
713.896	-9.77
713.923	-2.77
713.95	-0.77
713.977	0.23
714.004	7.23
714.031	-1.77
714.058	-12.77
714.085	-14.77
714.112	5.23
714.139	-1.77
714.165	1.23
714.192	-15.77
714.219	-4.77
714.246	1.23
714.273	5.23
714.3	-4.77
714.327	16.23
714.354	2.23
714.381	1.23
714.408	3.23
714.435	2.23
714.461	-18.77
714.488	-1.77
714.515	-11.77
714.542	-18.77
714.569	-8.77
714.596	-16.77
714.623	-6.77
714.65	-11.77
714.677	-1.77
714.703	3.23
714.73	18.23
714.757	-3.77
714.784	4.23
714.811	-20.77
714.838	0.23
714.865	-6.77
714.891	3.23
714.918	-15.77
714.945	-25.77
714.972	-22.77
714.999	7.23
715.026	-5.77
715.052	13.23
715.079	-2.77
715.106	4.23
715.133	2.23
715.16	-9.77
715.187	0.23
715.213	3.23
715.24	5.23
715.267	-4.77
715.294	4.23
715.321	-7.77
715.347	-6.77
715.374	-1.77
715.401	4.23
715.428	-16.77
715.455	-14.77
715.481	-5.77
715.508	3.23
715.535	0.23
715.562	19.23
715.588	12.23
715.615	-19.77
715.642	2.23
715.669	6.23
715.695	-24.77
715.722	-4.77
715.749	7.23
715.776	11.23
715.802	9.23
715.829	-7.77
715.856	-9.77
715.883	10.23
715.909	-4.77
715.936	3.23
715.963	-2.77
715.99	-4.77
716.016	-8.77
716.043	5.23
716.07	-10.77
716.096	-4.77
716.123	17.23
716.15	6.23
716.177	-5.77
716.203	0.23
716.23	-1.77
716.257	17.23
716.283	8.23
716.31	-6.77
716.337	-4.77
716.363	-6.77
716.39	2.23
716.417	5.23
716.443	9.23
716.47	11.23
716.497	14.23
716.523	2.23
716.55	0.23
716.577	9.23
716.603	-7.77
716.63	14.23
716.657	12.23
716.683	-7.77
716.71	-7.77
716.737	-0.77
716.763	-7.77
716.79	-11.77
716.817	2.23
716.843	6.23
716.87	-4.77
716.897	-0.77
716.923	12.23
716.95	4.23
716.976	-8.77
717.003	6.23
717.03	14.23
717.056	15.23
717.083	7.23
717.109	-1.77
717.136	2.23
717.163	-5.77
717.189	10.23
717.216	-0.77
717.242	5.23
717.269	1.23
717.296	-5.77
717.322	7.23
717.349	9.23
717.375	8.23
717.402	-6.77
717.428	-4.77
717.455	7.23
717.481	2.23
717.508	-5.77
717.535	3.23
717.561	-13.77
717.588	-6.77
717.614	-11.77
717.641	6.23
717.667	9.23
717.694	4.23
717.72	5.23
717.747	-4.77
717.773	-12.77
717.8	2.23
717.826	4.23
717.853	4.23
717.88	2.23
717.906	-20.77
717.933	2.23
717.959	-8.77
717.986	1.23
718.012	-7.77
718.039	19.23
718.065	-7.77
718.092	3.23
718.118	-11.77
718.144	5.23
718.171	21.23
718.197	4.23
718.224	-1.77
718.25	-2.77
718.277	-4.77
718.303	5.23
718.33	1.23
718.356	-12.77
718.383	-9.77
718.409	-7.77
718.436	2.23
718.462	2.23
718.489	-2.77
718.515	10.23
718.541	33.23
718.568	3.23
718.594	9.23
718.621	3.23
718.647	-10.77
718.674	-0.77
718.7	6.23
718.726	-0.77
718.753	10.23
718.779	8.23
718.806	4.23
718.832	-12.77
718.858	-9.77
718.885	-7.77
718.911	-6.77
718.938	10.23
718.964	-2.77
718.99	-0.77
719.017	2.23
719.043	22.23
719.07	4.23
719.096	-13.77
719.122	15.23
719.149	5.23
719.175	-10.77
719.201	4.23
719.228	0.23
719.254	-7.77
719.281	3.23
719.307	0.23
719.333	7.23
719.36	6.23
719.386	-6.77
719.412	5.23
719.439	-22.77
719.465	-16.77
719.491	-2.77
719.518	2.23
719.544	-14.77
719.57	13.23
719.597	-1.77
719.623	14.23
719.649	12.23
719.675	-7.77
719.702	-11.77
719.728	8.23
719.754	-2.77
719.781	6.23
719.807	4.23
719.833	-2.77
719.86	1.23
719.886	-0.77
719.912	3.23
719.938	-0.77
719.965	4.23
719.991	3.23
720.017	-1.77
720.044	-3.77
720.07	-4.77
720.096	2.23
720.122	-2.77
720.149	9.23
720.175	16.23
720.201	4.23
720.227	7.23
720.254	1.23
720.28	-7.77
720.306	-10.77
720.332	1.23
720.359	9.23
720.385	19.23
720.411	-0.77
720.437	17.23
720.463	-1.77
720.49	23.23
720.516	-13.77
720.542	-14.77
720.568	-5.77
720.595	2.23
720.621	-2.77
720.647	-6.77
720.673	3.23
720.699	-9.77
720.725	17.23
720.752	14.23
720.778	3.23
720.804	-5.77
720.83	-1.77
720.856	1.23
720.883	-2.77
720.909	-7.77
720.935	-1.77
720.961	11.23
720.987	9.23
721.013	-4.77
721.04	-1.77
721.066	-13.77
721.092	-3.77
721.118	10.23
721.144	-1.77
721.17	-9.77
721.196	-9.77
721.223	-0.77
721.249	-0.77
721.275	21.23
721.301	3.23
721.327	11.23
721.353	6.23
721.379	14.23
721.405	6.23
721.432	19.23
721.458	-10.77
721.484	-0.77
721.51	-6.77
721.536	-1.77
721.562	3.23
721.588	6.23
721.614	2.23
721.64	-12.77
721.666	-7.77
721.693	-7.77
721.719	3.23
721.745	-5.77
721.771	-19.77
721.797	-1.77
721.823	7.23
721.849	13.23
721.875	6.23
721.901	15.23
721.927	-0.77
721.953	5.23
721.979	34.23
722.005	10.23
722.031	3.23
722.057	-8.77
722.083	-1.77
722.109	-2.77
722.135	1.23
722.161	5.23
722.187	-4.77
722.214	-0.77
722.24	1.23
722.266	-14.77
722.292	0.23
722.318	17.23
722.344	3.23
722.37	5.23
722.396	10.23
722.422	-2.77
722.448	-1.77
722.474	-0.77
722.5	12.23
722.526	0.23
722.552	5.23
722.578	-2.77
722.603	4.23
722.629	6.23
722.655	18.23
722.681	-1.77
722.707	-7.77
722.733	5.23
722.759	-7.77
722.785	2.23
722.811	1.23
722.837	8.23
722.863	12.23
722.889	6.23
722.915	2.23
722.941	-7.77
722.967	7.23
722.993	22.23
723.019	-4.77
723.045	3.23
723.071	3.23
723.097	10.23
723.122	18.23
723.148	1.23
723.174	-4.77
723.2	20.23
723.226	-2.77
723.252	18.23
723.278	-4.77
723.304	-12.77
723.33	6.23
723.356	-7.77
723.381	-24.77
723.407	-10.77
723.433	0.23
723.459	-3.77
723.485	6.23
723.511	15.23
723.537	0.23
723.563	-6.77
723.588	-1.77
723.614	1.23
723.64	0.23
723.666	1.23
723.692	7.23
723.718	-2.77
723.744	-23.77
723.769	-10.77
723.795	-0.77
723.821	12.23
723.847	-0.77
723.873	-10.77
723.899	0.23
723.924	3.23
723.95	-9.77
723.976	-15.77
724.002	2.23
724.028	-5.77
724.053	-1.77
724.079	-1.77
724.105	-17.77
724.131	5.23
724.157	1.23
724.182	5.23
724.208	12.23
724.234	10.23
724.26	-9.77
724.286	-8.77
724.311	6.23
724.337	-11.77
724.363	-0.77
724.389	6.23
724.415	3.23
724.44	9.23
724.466	-2.77
724.492	4.23
724.518	14.23
724.543	5.23
724.569	8.23
724.595	9.23
724.621	-1.77
724.646	-24.77
724.672	-4.77
724.698	-7.77
724.723	6.23
724.749	10.23
724.775	14.23
724.801	11.23
724.826	-1.77
724.852	1.23
724.878	-8.77
724.904	-19.77
724.929	8.23
724.955	-9.77
724.981	-3.77
725.006	-15.77
725.032	-6.77
725.058	2.23
725.083	3.23
725.109	6.23
725.135	14.23
725.161	3.23
725.186	7.23
725.212	-9.77
725.238	-0.77
725.263	7.23
725.289	-18.77
725.315	-6.77
725.34	-10.77
725.366	4.23
725.392	13.23
725.417	0.23
725.443	-9.77
725.468	14.23
725.494	6.23
725.52	25.23
725.545	6.23
725.571	-2.77
725.597	-0.77
725.622	-0.77
725.648	-4.77
725.674	12.23
725.699	2.23
725.725	-0.77
725.75	25.23
725.776	-8.77
725.802	2.23
725.827	6.23
725.853	-0.77
725.878	11.23
725.904	-6.77
725.93	5.23
725.955	-14.77
725.981	-12.77
726.006	0.23
726.032	3.23
726.057	5.23
726.083	11.23
726.109	15.23
726.134	-2.77
726.16	-11.77
726.185	-5.77
726.211	-2.77
726.236	0.23
726.262	-5.77
726.288	3.23
726.313	16.23
726.339	-0.77
726.364	3.23
726.39	-0.77
726.415	3.23
726.441	-2.77
726.466	1.23
726.492	-4.77
726.517	16.23
726.543	-5.77
726.568	-12.77
726.594	-7.77
726.619	-6.77
726.645	11.23
726.67	5.23
726.696	-2.77
726.721	-5.77
726.747	-16.77
726.772	-5.77
726.798	-9.77
726.823	10.23
726.849	2.23
726.874	3.23
726.9	25.23
726.925	-5.77
726.951	-0.77
726.976	7.23
727.002	-6.77
727.027	3.23
727.053	19.23
727.078	-7.77
727.104	10.23
727.129	-10.77
727.155	3.23
727.18	-3.77
727.205	7.23
727.231	-12.77
727.256	-0.77
727.282	-0.77
727.307	19.23
727.333	-0.77
727.358	-2.77
727.383	-3.77
727.409	-6.77
727.434	12.23
727.46	-2.77
727.485	-8.77
727.511	-2.77
727.536	-18.77
727.561	-20.77
727.587	-2.77
727.612	-11.77
727.637	1.23
727.663	-9.77
727.688	6.23
727.714	-10.77
727.739	-2.77
727.764	-1.77
727.79	4.23
727.815	-0.77
727.841	12.23
727.866	-10.77
727.891	-0.77
727.917	-8.77
727.942	-16.77
727.967	-6.77
727.993	-1.77
728.018	8.23
728.043	-1.77
728.069	1.23
728.094	22.23
728.119	-1.77
728.145	12.23
728.17	-5.77
728.195	-10.77
728.221	23.23
728.246	11.23
728.271	-11.77
728.297	-6.77
728.322	6.23
728.347	9.23
728.373	7.23
728.398	-1.77
728.423	0.23
728.448	9.23
728.474	5.23
728.499	-2.77
728.524	-24.77
728.55	-17.77
728.575	-4.77
728.6	-8.77
728.625	-1.77
728.651	3.23
728.676	-5.77
728.701	-1.77
728.727	-10.77
728.752	10.23
728.777	-3.77
728.802	-6.77
728.828	-13.77
728.853	-10.77
728.878	5.23
728.903	-30.77
728.929	-8.77
728.954	-16.77
728.979	-12.77
729.004	-3.77
729.03	-2.77
729.055	1.23
729.08	-9.77
729.105	-7.77
729.13	13.23
729.156	-2.77
729.181	1.23
729.206	-14.77
729.231	-14.77
729.256	6.23
729.282	-2.77
729.307	-13.77
729.332	-7.77
729.357	-6.77
729.382	-9.77
729.408	-13.77
729.433	-1.77
729.458	1.23
729.483	13.23
729.508	16.23
729.533	20.23
729.559	4.23
729.584	-1.77
729.609	12.23
729.634	-6.77
729.659	-3.77
729.684	-12.77
729.71	-1.77
729.735	-5.77
729.76	-4.77
729.785	-9.77
729.81	17.23
729.835	-0.77
729.86	-3.77
729.886	15.23
729.911	-8.77
729.936	-9.77
729.961	3.23
729.986	-11.77
730.011	7.23
730.036	3.23
730.061	-13.77
730.086	-1.77
730.112	5.23
730.137	17.23
730.162	-11.77
730.187	-4.77
730.212	-6.77
730.237	-17.77
730.262	-3.77
730.287	0.23
730.312	11.23
730.337	4.23
730.362	13.23
730.387	-0.77
730.413	0.23
730.438	-1.77
730.463	5.23
730.488	-1.77
730.513	-12.77
730.538	-11.77
730.563	2.23
730.588	14.23
730.613	9.23
730.638	4.23
730.663	-14.77
730.688	30.23
730.713	8.23
730.738	7.23
730.763	4.23
730.788	-10.77
730.813	-4.77
730.838	-2.77
730.863	-2.77
730.888	-7.77
730.913	-5.77
730.938	-6.77
730.963	2.23
730.988	-5.77
731.013	25.23
731.038	-12.77
731.063	-4.77
731.088	2.23
731.113	-0.77
731.138	-6.77
731.163	0.23
731.188	-14.77
731.213	-2.77
731.238	-2.77
731.263	-4.77
731.288	9.23
731.313	8.23
731.338	-0.77
731.363	-10.77
731.388	-1.77
731.413	-1.77
731.438	8.23
731.463	1.23
731.487	-2.77
731.512	3.23
731.537	-5.77
731.562	-14.77
731.587	0.23
731.612	-3.77
731.637	3.23
731.662	0.23
731.687	-2.77
731.712	-25.77
731.737	3.23
731.762	3.23
731.786	-0.77
731.811	15.23
731.836	3.23
731.861	-3.77
731.886	-4.77
731.911	15.23
731.936	8.23
731.961	-9.77
731.986	-1.77
732.01	-5.77
732.035	9.23
732.06	18.23
732.085	-16.77
732.11	12.23
732.135	-8.77
732.16	1.23
732.184	-7.77
732.209	4.23
732.234	5.23
732.259	-13.77
732.284	7.23
732.309	-4.77
732.334	-6.77
732.358	-9.77
732.383	-12.77
732.408	-8.77
732.433	5.23
732.458	1.23
732.482	2.23
732.507	-1.77
732.532	-2.77
732.557	-1.77
732.582	-8.77
732.607	2.23
732.631	-16.77
732.656	-8.77
732.681	3.23
732.706	-2.77
732.73	-6.77
732.755	-17.77
732.78	-8.77
732.805	17.23
732.83	-8.77
732.854	-7.77
732.879	-1.77
732.904	-4.77
732.929	-8.77
732.953	2.23
732.978	-2.77
733.003	-9.77
733.028	-6.77
733.052	-4.77
733.077	0.23
733.102	12.23
733.127	-10.77
733.151	-4.77
733.176	11.23
733.201	-9.77
733.226	-19.77
733.25	3.23
733.275	8.23
733.3	9.23
733.324	23.23
733.349	8.23
733.374	1.23
733.399	-6.77
733.423	-4.77
733.448	-10.77
733.473	-15.77
733.497	-13.77
733.522	-5.77
733.547	18.23
733.571	4.23
733.596	9.23
733.621	3.23
733.646	5.23
733.67	23.23
733.695	-8.77
733.72	-4.77
733.744	12.23
733.769	4.23
733.794	-7.77
733.818	0.23
733.843	-17.77
733.867	-7.77
733.892	-14.77
733.917	-1.77
733.941	10.23
733.966	3.23
733.991	-1.77
734.015	7.23
734.04	-0.77
734.065	7.23
734.089	-5.77
734.114	-13.77
734.138	10.23
734.163	-1.77
734.188	-15.77
734.212	4.23
734.237	-6.77
734.261	-5.77
734.286	7.23
734.311	2.23
734.335	-11.77
734.36	0.23
734.384	12.23
734.409	3.23
734.434	-18.77
734.458	-3.77
734.483	-12.77
734.507	-15.77
734.532	1.23
734.556	-10.77
734.581	3.23
734.606	4.23
734.63	-4.77
734.655	-5.77
734.679	2.23
734.704	1.23
734.728	-0.77
734.753	-11.77
734.777	4.23
734.802	2.23
734.826	5.23
734.851	-1.77
734.876	-7.77
734.9	-10.77
734.925	-5.77
734.949	-6.77
734.974	-4.77
734.998	8.23
735.023	-16.77
735.047	-16.77
735.072	10.23
735.096	-8.77
735.121	-12.77
735.145	-15.77
735.17	5.23
735.194	-2.77
735.219	1.23
735.243	11.23
735.268	12.23
735.292	6.23
735.317	-1.77
735.341	13.23
735.365	10.23
735.39	16.23
735.414	-2.77
735.439	7.23
735.463	4.23
735.488	3.23
735.512	-0.77
735.537	-6.77
735.561	5.23
735.586	-9.77
735.61	-9.77
735.634	8.23
735.659	5.23
735.683	10.23
735.708	-8.77
735.732	-4.77
735.757	-8.77
735.781	-9.77
735.805	-1.77
735.83	0.23
735.854	-3.77
735.879	-5.77
735.903	10.23
735.927	11.23
735.952	7.23
735.976	2.23
736.001	6.23
736.025	2.23
736.049	3.23
736.074	-9.77
736.098	-17.77
736.123	-1.77
736.147	-14.77
736.171	-9.77
736.196	15.23
736.22	-12.77
736.244	12.23
736.269	1.23
736.293	-6.77
736.317	-5.77
736.342	12.23
736.366	15.23
736.39	14.23
736.415	-5.77
736.439	-0.77
736.463	0.23
736.488	12.23
736.512	11.23
736.536	-0.77
736.561	14.23
736.585	-12.77
736.609	-0.77
736.634	-14.77
736.658	12.23
736.682	-2.77
736.707	-11.77
736.731	-20.77
736.755	6.23
736.78	16.23
736.804	13.23
736.828	-5.77
736.852	-7.77
736.877	-7.77
736.901	-4.77
736.925	-3.77
736.949	14.23
736.974	-6.77
736.998	-3.77
737.022	1.23
737.047	-1.77
737.071	-8.77
737.095	17.23
737.119	27.23
737.144	4.23
737.168	2.23
737.192	-5.77
737.216	3.23
737.241	-8.77
737.265	1.23
737.289	0.23
737.313	-16.77
737.337	-12.77
737.362	-6.77
737.386	-11.77
737.41	-11.77
737.434	2.23
737.459	5.23
737.483	4.23
737.507	11.23
737.531	7.23
737.555	8.23
737.58	9.23
737.604	-2.77
737.628	-10.77
737.652	-5.77
737.676	-4.77
737.701	-0.77
737.725	0.23
737.749	3.23
737.773	-6.77
737.797	-5.77
737.821	5.23
737.846	11.23
737.87	12.23
737.894	-16.77
737.918	-13.77
737.942	9.23
737.966	19.23
737.99	6.23
738.015	6.23
738.039	20.23
738.063	1.23
738.087	12.23
738.111	9.23
738.135	13.23
738.159	9.23
738.184	-2.77
738.208	22.23
738.232	-11.77
738.256	18.23
738.28	7.23
738.304	26.23
738.328	0.23
738.352	-1.77
738.376	-4.77
738.4	5.23
738.425	7.23
738.449	-16.77
738.473	-5.77
738.497	1.23
738.521	5.23
738.545	4.23
738.569	2.23
738.593	22.23
738.617	-1.77
738.641	-4.77
738.665	-0.77
738.689	3.23
738.713	2.23
738.737	-5.77
738.762	9.23
738.786	7.23
738.81	-8.77
738.834	13.23
738.858	-0.77
738.882	17.23
738.906	-1.77
738.93	5.23
738.954	-4.77
738.978	10.23
739.002	-0.77
739.026	1.23
739.05	6.23
739.074	-8.77
739.098	16.23
739.122	10.23
739.146	15.23
739.17	10.23
739.194	-2.77
739.218	-5.77
739.242	-10.77
739.266	-8.77
739.29	6.23
739.314	8.23
739.338	-11.77
739.362	3.23
739.386	7.23
739.41	-0.77
739.434	-14.77
739.458	7.23
739.482	9.23
739.506	2.23
739.53	-21.77
739.554	6.23
739.577	-14.77
739.601	-0.77
739.625	-7.77
739.649	0.23
739.673	-7.77
739.697	3.23
739.721	-1.77
739.745	7.23
739.769	9.23
739.793	10.23
739.817	13.23
739.841	-13.77
739.865	1.23
739.889	-0.77
739.912	23.23
739.936	-4.77
739.96	-17.77
739.984	2.23
740.008	13.23
740.032	-18.77
740.056	-0.77
740.08	2.23
740.104	-5.77
740.127	6.23
740.151	5.23
740.175	11.23
740.199	15.23
740.223	46.23
740.247	10.23
740.271	-0.77
740.295	-8.77
740.318	-2.77
740.342	-12.77
740.366	13.23
740.39	4.23
740.414	-13.77
740.438	-10.77
740.461	16.23
740.485	1.23
740.509	-6.77
740.533	7.23
740.557	-4.77
740.581	-0.77
740.604	-14.77
740.628	-1.77
740.652	-0.77
740.676	-6.77
740.7	18.23
740.723	-2.77
740.747	-11.77
740.771	2.23
740.795	-2.77
740.819	9.23
740.842	1.23
740.866	-1.77
740.89	-4.77
740.914	-4.77
740.938	-6.77
740.961	23.23
740.985	-11.77
741.009	0.23
741.033	-12.77
741.056	-3.77
741.08	-10.77
741.104	-10.77
741.128	4.23
741.151	-5.77
741.175	3.23
741.199	18.23
741.223	13.23
741.246	-14.77
741.27	0.23
741.294	11.23
741.318	-2.77
741.341	-1.77
741.365	-14.77
741.389	4.23
741.413	7.23
741.436	20.23
741.46	14.23
741.484	20.23
741.507	13.23
741.531	14.23
741.555	4.23
741.579	-4.77
741.602	-4.77
741.626	-2.77
741.65	-5.77
741.673	0.23
741.697	6.23
741.721	1.23
741.744	-10.77
741.768	-2.77
741.792	-7.77
741.815	-0.77
741.839	15.23
741.863	3.23
741.886	-4.77
741.91	-2.77
741.934	6.23
741.957	-13.77
741.981	-6.77
742.005	-0.77
742.028	-2.77
742.052	1.23
742.075	15.23
742.099	20.23
742.123	-1.77
742.146	6.23
742.17	1.23
742.194	-7.77
742.217	-7.77
742.241	-3.77
742.264	10.23
742.288	15.23
742.312	4.23
742.335	2.23
742.359	6.23
742.382	6.23
742.406	-2.77
742.43	-8.77
742.453	18.23
742.477	-2.77
742.5	13.23
742.524	-11.77
742.548	-19.77
742.571	-6.77
742.595	-10.77
742.618	-22.77
742.642	-1.77
742.665	-1.77
742.689	-4.77
742.712	10.23
742.736	9.23
742.76	-9.77
742.783	-0.77
742.807	-0.77
742.83	17.23
742.854	-4.77
742.877	-8.77
742.901	-3.77
742.924	-14.77
742.948	1.23
742.971	4.23
742.995	1.23
743.018	7.23
743.042	-9.77
743.065	-4.77
743.089	-20.77
743.112	2.23
743.136	2.23
743.159	-3.77
743.183	-8.77
743.206	10.23
743.23	-9.77
743.253	1.23
743.277	11.23
743.3	-16.77
743.324	-7.77
743.347	-9.77
743.371	29.23
743.394	5.23
743.418	-4.77
743.441	-0.77
743.465	5.23
743.488	-6.77
743.512	-18.77
743.535	9.23
743.558	-0.77
743.582	-7.77
743.605	15.23
743.629	2.23
743.652	-1.77
743.676	-7.77
743.699	-0.77
743.723	-6.77
743.746	1.23
743.769	-4.77
743.793	23.23
743.816	-2.77
743.84	7.23
743.863	-7.77
743.886	8.23
743.91	10.23
743.933	18.23
743.957	19.23
743.98	3.23
744.003	1.23
744.027	4.23
744.05	-14.77
744.074	-7.77
744.097	-22.77
744.12	-17.77
744.144	-13.77
744.167	-0.77
744.19	5.23
744.214	13.23
744.237	-2.77
744.26	7.23
744.284	6.23
744.307	0.23
744.331	-1.77
744.354	-6.77
744.377	-2.77
744.401	-3.77
744.424	-7.77
744.447	-2.77
744.471	-7.77
