Data from HighRes_H2_15_09_11_07_2024_HR4C61891__123__15-11-08-701.txt Node

Date: Thu Nov 07 15:11:08 EST 2024
User: crc00042
Spectrometer: HR4C6189
Trigger mode: 4
Integration Time (sec): 1.000000E-1
Scans to average: 1
Electric dark correction enabled: true
Nonlinearity correction enabled: false
Boxcar width: 0
XAxis mode: Wavelengths
Number of Pixels in Spectrum: 3648
>>>>>Begin Spectral Data<<<<<
639.567	-29.54
639.602	-29.54
639.636	-29.54
639.67	-24.54
639.704	-22.54
639.738	0.46
639.773	18.46
639.807	-14.54
639.841	-0.54
639.875	-4.54
639.909	-7.54
639.943	4.46
639.978	-3.54
640.012	1.46
640.046	15.46
640.08	2.46
640.114	-1.54
640.148	-10.54
640.182	-18.54
640.217	4.46
640.251	9.46
640.285	5.46
640.319	-6.54
640.353	4.46
640.387	8.46
640.421	-6.54
640.455	-7.54
640.49	4.46
640.524	-10.54
640.558	16.46
640.592	-7.54
640.626	-1.54
640.66	-7.54
640.694	5.46
640.728	0.46
640.762	12.46
640.796	29.46
640.83	23.46
640.865	-13.54
640.899	3.46
640.933	4.46
640.967	-6.54
641.001	6.46
641.035	9.46
641.069	-3.54
641.103	-23.54
641.137	-4.54
641.171	-13.54
641.205	4.46
641.239	2.46
641.273	6.46
641.307	19.46
641.341	-0.54
641.375	-7.54
641.409	-1.54
641.443	0.46
641.477	2.46
641.511	-2.54
641.545	7.46
641.579	2.46
641.614	6.46
641.648	3.46
641.682	-8.54
641.716	8.46
641.75	22.46
641.784	6.46
641.818	9.46
641.852	-0.54
641.886	4.46
641.919	34.46
641.953	4.46
641.987	-15.54
642.021	1.46
642.055	-2.54
642.089	-1.54
642.123	-13.54
642.157	-1.54
642.191	0.46
642.225	10.46
642.259	7.46
642.293	-0.54
642.327	7.46
642.361	-11.54
642.395	6.46
642.429	13.46
642.463	9.46
642.497	4.46
642.531	8.46
642.565	-12.54
642.599	20.46
642.633	-1.54
642.666	20.46
642.7	12.46
642.734	19.46
642.768	0.46
642.802	-6.54
642.836	-3.54
642.87	-0.54
642.904	-2.54
642.938	16.46
642.972	3.46
643.005	-5.54
643.039	9.46
643.073	-2.54
643.107	8.46
643.141	6.46
643.175	-3.54
643.209	-4.54
643.243	3.46
643.276	3.46
643.31	0.46
643.344	11.46
643.378	-6.54
643.412	1.46
643.446	3.46
643.48	-15.54
643.513	7.46
643.547	3.46
643.581	-8.54
643.615	22.46
643.649	-4.54
643.683	11.46
643.716	7.46
643.75	7.46
643.784	0.46
643.818	0.46
643.852	8.46
643.886	10.46
643.919	8.46
643.953	2.46
643.987	9.46
644.021	8.46
644.055	14.46
644.088	4.46
644.122	-7.54
644.156	7.46
644.19	12.46
644.224	-3.54
644.257	6.46
644.291	8.46
644.325	11.46
644.359	3.46
644.392	8.46
644.426	3.46
644.46	-7.54
644.494	21.46
644.527	6.46
644.561	13.46
644.595	-3.54
644.629	-0.54
644.662	3.46
644.696	3.46
644.73	-6.54
644.764	7.46
644.797	-7.54
644.831	5.46
644.865	14.46
644.899	7.46
644.932	22.46
644.966	2.46
645	1.46
645.033	11.46
645.067	-0.54
645.101	6.46
645.135	3.46
645.168	3.46
645.202	-5.54
645.236	8.46
645.269	3.46
645.303	-8.54
645.337	-14.54
645.37	2.46
645.404	4.46
645.438	16.46
645.471	-4.54
645.505	24.46
645.539	-5.54
645.572	-26.54
645.606	-8.54
645.64	19.46
645.673	10.46
645.707	23.46
645.741	3.46
645.774	-20.54
645.808	2.46
645.842	-15.54
645.875	2.46
645.909	-5.54
645.943	3.46
645.976	5.46
646.01	1.46
646.043	18.46
646.077	9.46
646.111	2.46
646.144	-1.54
646.178	14.46
646.212	-23.54
646.245	-7.54
646.279	11.46
646.312	14.46
646.346	20.46
646.38	9.46
646.413	14.46
646.447	8.46
646.48	-0.54
646.514	7.46
646.547	-2.54
646.581	7.46
646.615	4.46
646.648	1.46
646.682	10.46
646.715	-2.54
646.749	9.46
646.782	-8.54
646.816	-3.54
646.85	17.46
646.883	-9.54
646.917	3.46
646.95	-0.54
646.984	9.46
647.017	-8.54
647.051	8.46
647.084	2.46
647.118	-2.54
647.151	-7.54
647.185	2.46
647.218	-20.54
647.252	7.46
647.285	18.46
647.319	-16.54
647.353	0.46
647.386	27.46
647.42	6.46
647.453	-1.54
647.487	-9.54
647.52	-3.54
647.553	9.46
647.587	14.46
647.62	0.46
647.654	6.46
647.687	19.46
647.721	0.46
647.754	9.46
647.788	-0.54
647.821	7.46
647.855	-7.54
647.888	6.46
647.922	21.46
647.955	20.46
647.989	14.46
648.022	6.46
648.055	-7.54
648.089	-10.54
648.122	13.46
648.156	1.46
648.189	-6.54
648.223	8.46
648.256	22.46
648.29	0.46
648.323	3.46
648.356	0.46
648.39	13.46
648.423	5.46
648.457	-15.54
648.49	-1.54
648.523	27.46
648.557	5.46
648.59	9.46
648.624	8.46
648.657	-1.54
648.69	16.46
648.724	11.46
648.757	21.46
648.791	15.46
648.824	5.46
648.857	11.46
648.891	14.46
648.924	2.46
648.957	32.46
648.991	-7.54
649.024	10.46
649.057	-2.54
649.091	-16.54
649.124	12.46
649.158	9.46
649.191	17.46
649.224	-4.54
649.258	4.46
649.291	12.46
649.324	6.46
649.358	14.46
649.391	24.46
649.424	11.46
649.458	5.46
649.491	-8.54
649.524	-6.54
649.557	0.46
649.591	-8.54
649.624	10.46
649.657	-1.54
649.691	-5.54
649.724	11.46
649.757	12.46
649.791	-6.54
649.824	27.46
649.857	24.46
649.89	10.46
649.924	-4.54
649.957	6.46
649.99	-24.54
650.023	5.46
650.057	10.46
650.09	-14.54
650.123	3.46
650.157	26.46
650.19	14.46
650.223	8.46
650.256	-3.54
650.29	1.46
650.323	4.46
650.356	1.46
650.389	-2.54
650.423	-10.54
650.456	-10.54
650.489	11.46
650.522	14.46
650.555	18.46
650.589	19.46
650.622	-7.54
650.655	24.46
650.688	-12.54
650.721	2.46
650.755	16.46
650.788	25.46
650.821	3.46
650.854	25.46
650.887	4.46
650.921	4.46
650.954	-0.54
650.987	6.46
651.02	-10.54
651.053	-6.54
651.087	-6.54
651.12	2.46
651.153	-3.54
651.186	-6.54
651.219	-18.54
651.252	4.46
651.286	13.46
651.319	3.46
651.352	7.46
651.385	-7.54
651.418	9.46
651.451	16.46
651.484	2.46
651.518	-1.54
651.551	24.46
651.584	-1.54
651.617	17.46
651.65	16.46
651.683	10.46
651.716	5.46
651.749	-9.54
651.783	8.46
651.816	9.46
651.849	10.46
651.882	9.46
651.915	-4.54
651.948	6.46
651.981	2.46
652.014	-19.54
652.047	-1.54
652.08	-7.54
652.114	-1.54
652.147	0.46
652.18	8.46
652.213	21.46
652.246	-3.54
652.279	-4.54
652.312	13.46
652.345	-2.54
652.378	23.46
652.411	25.46
652.444	14.46
652.477	13.46
652.51	4.46
652.543	-7.54
652.576	18.46
652.609	-0.54
652.642	-6.54
652.675	22.46
652.709	0.46
652.742	5.46
652.775	-2.54
652.808	13.46
652.841	-1.54
652.874	5.46
652.907	4.46
652.94	-12.54
652.973	-16.54
653.006	5.46
653.039	2.46
653.072	9.46
653.105	10.46
653.138	-6.54
653.171	8.46
653.204	7.46
653.237	9.46
653.27	-6.54
653.303	8.46
653.336	19.46
653.368	-6.54
653.401	21.46
653.434	-14.54
653.467	10.46
653.5	3.46
653.533	-18.54
653.566	5.46
653.599	0.46
653.632	1.46
653.665	-4.54
653.698	-11.54
653.731	1.46
653.764	20.46
653.797	8.46
653.83	-2.54
653.863	14.46
653.896	2.46
653.929	0.46
653.961	14.46
653.994	-7.54
654.027	-9.54
654.06	-1.54
654.093	9.46
654.126	12.46
654.159	-7.54
654.192	-15.54
654.225	3.46
654.258	-3.54
654.29	7.46
654.323	10.46
654.356	6.46
654.389	22.46
654.422	19.46
654.455	0.46
654.488	-3.54
654.521	-11.54
654.553	8.46
654.586	20.46
654.619	1.46
654.652	-6.54
654.685	11.46
654.718	-0.54
654.751	17.46
654.783	2.46
654.816	19.46
654.849	11.46
654.882	-1.54
654.915	-6.54
654.948	-1.54
654.98	17.46
655.013	4.46
655.046	-2.54
655.079	-1.54
655.112	6.46
655.144	0.46
655.177	4.46
655.21	15.46
655.243	9.46
655.276	5.46
655.308	-1.54
655.341	7.46
655.374	0.46
655.407	0.46
655.44	5.46
655.472	14.46
655.505	20.46
655.538	0.46
655.571	8.46
655.603	24.46
655.636	12.46
655.669	9.46
655.702	16.46
655.734	4.46
655.767	10.46
655.8	11.46
655.833	29.46
655.865	20.46
655.898	20.46
655.931	24.46
655.964	32.46
655.996	54.46
656.029	49.46
656.062	52.46
656.095	74.46
656.127	54.46
656.16	81.46
656.193	138.46
656.225	173.46
656.258	286.46
656.291	504.46
656.324	1091.46
656.356	3367.46
656.389	7558.46
656.422	6092.46
656.454	2083.46
656.487	704.46
656.52	260.46
656.552	124.46
656.585	65.46
656.618	56.46
656.65	40.46
656.683	15.46
656.716	23.46
656.748	25.46
656.781	11.46
656.814	-2.54
656.846	4.46
656.879	-2.54
656.912	12.46
656.944	-10.54
656.977	-20.54
657.01	4.46
657.042	2.46
657.075	13.46
657.108	0.46
657.14	4.46
657.173	20.46
657.205	22.46
657.238	12.46
657.271	16.46
657.303	2.46
657.336	-8.54
657.369	-14.54
657.401	-21.54
657.434	-8.54
657.466	17.46
657.499	-5.54
657.532	7.46
657.564	8.46
657.597	4.46
657.629	7.46
657.662	-8.54
657.694	5.46
657.727	-6.54
657.76	31.46
657.792	-9.54
657.825	-6.54
657.857	-3.54
657.89	17.46
657.922	26.46
657.955	2.46
657.987	11.46
658.02	5.46
658.053	20.46
658.085	-4.54
658.118	13.46
658.15	1.46
658.183	15.46
658.215	-8.54
658.248	-8.54
658.28	-17.54
658.313	14.46
658.345	25.46
658.378	-0.54
658.41	-7.54
658.443	3.46
658.475	-6.54
658.508	-7.54
658.54	13.46
658.573	1.46
658.605	14.46
658.638	2.46
658.67	7.46
658.703	-6.54
658.735	-5.54
658.768	2.46
658.8	-7.54
658.833	20.46
658.865	1.46
658.898	26.46
658.93	12.46
658.963	1.46
658.995	-11.54
659.028	5.46
659.06	-7.54
659.092	-5.54
659.125	1.46
659.157	9.46
659.19	14.46
659.222	13.46
659.255	2.46
659.287	-7.54
659.32	-15.54
659.352	2.46
659.384	7.46
659.417	-7.54
659.449	12.46
659.482	10.46
659.514	-16.54
659.546	-9.54
659.579	-8.54
659.611	-3.54
659.644	2.46
659.676	-6.54
659.708	-6.54
659.741	-21.54
659.773	14.46
659.806	9.46
659.838	8.46
659.87	9.46
659.903	-3.54
659.935	-8.54
659.967	7.46
660	4.46
660.032	-3.54
660.065	14.46
660.097	14.46
660.129	4.46
660.162	-3.54
660.194	1.46
660.226	4.46
660.259	1.46
660.291	1.46
660.323	-2.54
660.356	12.46
660.388	11.46
660.42	9.46
660.453	20.46
660.485	15.46
660.517	15.46
660.55	21.46
660.582	0.46
660.614	17.46
660.647	6.46
660.679	-7.54
660.711	2.46
660.743	-16.54
660.776	-8.54
660.808	5.46
660.84	7.46
660.873	5.46
660.905	20.46
660.937	4.46
660.969	3.46
661.002	-16.54
661.034	16.46
661.066	14.46
661.099	8.46
661.131	13.46
661.163	8.46
661.195	0.46
661.228	14.46
661.26	7.46
661.292	0.46
661.324	11.46
661.357	6.46
661.389	13.46
661.421	13.46
661.453	-0.54
661.485	3.46
661.518	-0.54
661.55	-8.54
661.582	-20.54
661.614	-15.54
661.647	-17.54
661.679	3.46
661.711	3.46
661.743	-7.54
661.775	-13.54
661.808	0.46
661.84	-19.54
661.872	6.46
661.904	0.46
661.936	5.46
661.969	-8.54
662.001	-0.54
662.033	9.46
662.065	-5.54
662.097	9.46
662.129	3.46
662.162	-10.54
662.194	-5.54
662.226	-20.54
662.258	4.46
662.29	-3.54
662.322	-3.54
662.355	2.46
662.387	21.46
662.419	14.46
662.451	10.46
662.483	19.46
662.515	-0.54
662.547	-10.54
662.58	-6.54
662.612	-27.54
662.644	-41.54
662.676	-15.54
662.708	23.46
662.74	-8.54
662.772	-14.54
662.804	-3.54
662.836	7.46
662.869	1.46
662.901	26.46
662.933	22.46
662.965	15.46
662.997	19.46
663.029	-13.54
663.061	-5.54
663.093	3.46
663.125	17.46
663.157	4.46
663.189	4.46
663.221	18.46
663.254	-12.54
663.286	14.46
663.318	4.46
663.35	16.46
663.382	-7.54
663.414	9.46
663.446	-4.54
663.478	-7.54
663.51	19.46
663.542	-3.54
663.574	10.46
663.606	2.46
663.638	-5.54
663.67	9.46
663.702	4.46
663.734	-13.54
663.766	12.46
663.798	-5.54
663.83	8.46
663.862	24.46
663.894	15.46
663.926	8.46
663.958	1.46
663.99	3.46
664.022	-15.54
664.054	11.46
664.086	-6.54
664.118	-7.54
664.15	-6.54
664.182	-5.54
664.214	-1.54
664.246	6.46
664.278	5.46
664.31	18.46
664.342	0.46
664.374	-6.54
664.406	0.46
664.438	-7.54
664.47	1.46
664.502	-0.54
664.534	3.46
664.566	-19.54
664.598	8.46
664.63	-2.54
664.662	1.46
664.693	-6.54
664.725	7.46
664.757	16.46
664.789	-21.54
664.821	-5.54
664.853	12.46
664.885	-7.54
664.917	-2.54
664.949	28.46
664.981	19.46
665.013	5.46
665.045	-5.54
665.076	-0.54
665.108	5.46
665.14	-0.54
665.172	6.46
665.204	10.46
665.236	0.46
665.268	12.46
665.3	-7.54
665.331	-15.54
665.363	7.46
665.395	0.46
665.427	-7.54
665.459	1.46
665.491	-0.54
665.523	9.46
665.555	-0.54
665.586	-5.54
665.618	12.46
665.65	-2.54
665.682	-2.54
665.714	9.46
665.746	-6.54
665.777	5.46
665.809	7.46
665.841	-6.54
665.873	3.46
665.905	-16.54
665.937	8.46
665.968	17.46
666	5.46
666.032	-14.54
666.064	11.46
666.096	-3.54
666.127	12.46
666.159	16.46
666.191	4.46
666.223	1.46
666.255	-3.54
666.286	3.46
666.318	9.46
666.35	21.46
666.382	-1.54
666.413	-8.54
666.445	-18.54
666.477	-8.54
666.509	-6.54
666.54	6.46
666.572	-3.54
666.604	6.46
666.636	7.46
666.667	10.46
666.699	17.46
666.731	-0.54
666.763	-5.54
666.794	-1.54
666.826	10.46
666.858	0.46
666.89	17.46
666.921	2.46
666.953	2.46
666.985	10.46
667.017	26.46
667.048	11.46
667.08	0.46
667.112	-5.54
667.143	-9.54
667.175	7.46
667.207	4.46
667.238	7.46
667.27	4.46
667.302	-1.54
667.334	-6.54
667.365	15.46
667.397	1.46
667.429	21.46
667.46	8.46
667.492	-19.54
667.524	-5.54
667.555	-2.54
667.587	-5.54
667.619	-11.54
667.65	-18.54
667.682	12.46
667.714	9.46
667.745	-11.54
667.777	1.46
667.808	17.46
667.84	-3.54
667.872	-1.54
667.903	37.46
667.935	-0.54
667.967	14.46
667.998	7.46
668.03	-0.54
668.061	23.46
668.093	1.46
668.125	1.46
668.156	6.46
668.188	-9.54
668.22	-6.54
668.251	2.46
668.283	6.46
668.314	12.46
668.346	2.46
668.377	2.46
668.409	-14.54
668.441	9.46
668.472	4.46
668.504	16.46
668.535	4.46
668.567	4.46
668.599	1.46
668.63	4.46
668.662	-8.54
668.693	24.46
668.725	6.46
668.756	8.46
668.788	1.46
668.819	5.46
668.851	5.46
668.882	-12.54
668.914	-8.54
668.946	9.46
668.977	-13.54
669.009	5.46
669.04	3.46
669.072	-10.54
669.103	2.46
669.135	-5.54
669.166	19.46
669.198	3.46
669.229	8.46
669.261	9.46
669.292	-1.54
669.324	2.46
669.355	10.46
669.387	-2.54
669.418	12.46
669.45	-4.54
669.481	2.46
669.513	1.46
669.544	4.46
669.576	8.46
669.607	20.46
669.639	22.46
669.67	1.46
669.701	1.46
669.733	-13.54
669.764	-7.54
669.796	5.46
669.827	1.46
669.859	-0.54
669.89	1.46
669.922	6.46
669.953	11.46
669.985	-5.54
670.016	12.46
670.047	1.46
670.079	-0.54
670.11	0.46
670.142	-7.54
670.173	3.46
670.204	-7.54
670.236	-5.54
670.267	-11.54
670.299	9.46
670.33	8.46
670.362	18.46
670.393	-7.54
670.424	7.46
670.456	-6.54
670.487	8.46
670.518	-3.54
670.55	-8.54
670.581	-1.54
670.613	7.46
670.644	-0.54
670.675	-5.54
670.707	0.46
670.738	7.46
670.769	-4.54
670.801	-8.54
670.832	-4.54
670.864	-10.54
670.895	-9.54
670.926	-6.54
670.958	-4.54
670.989	6.46
671.02	-0.54
671.052	1.46
671.083	-4.54
671.114	-0.54
671.146	9.46
671.177	-9.54
671.208	-4.54
671.24	-23.54
671.271	4.46
671.302	17.46
671.333	-18.54
671.365	-3.54
671.396	-9.54
671.427	5.46
671.459	2.46
671.49	1.46
671.521	-7.54
671.553	-4.54
671.584	-0.54
671.615	0.46
671.646	3.46
671.678	4.46
671.709	0.46
671.74	-14.54
671.771	-14.54
671.803	-18.54
671.834	4.46
671.865	-3.54
671.896	14.46
671.928	2.46
671.959	-11.54
671.99	-12.54
672.021	-17.54
672.053	-12.54
672.084	3.46
672.115	7.46
672.146	-10.54
672.178	1.46
672.209	12.46
672.24	-16.54
672.271	32.46
672.303	2.46
672.334	-7.54
672.365	-26.54
672.396	2.46
672.427	-7.54
672.459	3.46
672.49	17.46
672.521	-13.54
672.552	-3.54
672.583	7.46
672.615	10.46
672.646	12.46
672.677	0.46
672.708	0.46
672.739	-0.54
672.77	0.46
672.802	-1.54
672.833	-15.54
672.864	6.46
672.895	-22.54
672.926	6.46
672.957	-16.54
672.989	9.46
673.02	3.46
673.051	6.46
673.082	17.46
673.113	6.46
673.144	16.46
673.175	4.46
673.206	1.46
673.238	-4.54
673.269	2.46
673.3	3.46
673.331	10.46
673.362	4.46
673.393	6.46
673.424	5.46
673.455	15.46
673.487	3.46
673.518	9.46
673.549	5.46
673.58	-14.54
673.611	5.46
673.642	4.46
673.673	-26.54
673.704	14.46
673.735	-6.54
673.766	-11.54
673.797	-6.54
673.828	3.46
673.86	-3.54
673.891	-14.54
673.922	-9.54
673.953	1.46
673.984	-4.54
674.015	11.46
674.046	-1.54
674.077	21.46
674.108	4.46
674.139	-10.54
674.17	-0.54
674.201	-16.54
674.232	-11.54
674.263	-11.54
674.294	-13.54
674.325	-2.54
674.356	-2.54
674.387	4.46
674.418	6.46
674.449	-15.54
674.48	-14.54
674.511	0.46
674.542	12.46
674.573	9.46
674.604	4.46
674.635	-2.54
674.666	4.46
674.697	9.46
674.728	-8.54
674.759	2.46
674.79	-8.54
674.821	-3.54
674.852	-13.54
674.883	-4.54
674.914	-8.54
674.945	-7.54
674.976	2.46
675.007	-21.54
675.038	-15.54
675.069	-7.54
675.1	-7.54
675.131	-1.54
675.162	-12.54
675.193	-9.54
675.224	-22.54
675.254	5.46
675.285	-8.54
675.316	5.46
675.347	1.46
675.378	-20.54
675.409	-0.54
675.44	14.46
675.471	-10.54
675.502	-27.54
675.533	-2.54
675.564	-2.54
675.595	-4.54
675.625	4.46
675.656	0.46
675.687	-0.54
675.718	-3.54
675.749	-5.54
675.78	3.46
675.811	2.46
675.842	17.46
675.873	9.46
675.903	11.46
675.934	-4.54
675.965	-1.54
675.996	-1.54
676.027	-0.54
676.058	-8.54
676.089	6.46
676.119	2.46
676.15	3.46
676.181	0.46
676.212	-9.54
676.243	6.46
676.274	-4.54
676.304	9.46
676.335	-3.54
676.366	-7.54
676.397	-18.54
676.428	4.46
676.459	-2.54
676.489	6.46
676.52	16.46
676.551	-10.54
676.582	0.46
676.613	-5.54
676.643	-15.54
676.674	2.46
676.705	-13.54
676.736	0.46
676.767	19.46
676.797	23.46
676.828	-1.54
676.859	20.46
676.89	-3.54
676.92	-1.54
676.951	-3.54
676.982	10.46
677.013	-0.54
677.044	11.46
677.074	1.46
677.105	-13.54
677.136	-5.54
677.167	0.46
677.197	20.46
677.228	4.46
677.259	3.46
677.289	-7.54
677.32	-23.54
677.351	-8.54
677.382	-19.54
677.412	-2.54
677.443	4.46
677.474	-0.54
677.505	-10.54
677.535	-2.54
677.566	9.46
677.597	-11.54
677.627	-9.54
677.658	4.46
677.689	11.46
677.72	11.46
677.75	-4.54
677.781	-3.54
677.812	11.46
677.842	4.46
677.873	0.46
677.904	-10.54
677.934	-14.54
677.965	-10.54
677.996	-26.54
678.026	-1.54
678.057	2.46
678.088	-5.54
678.118	2.46
678.149	-7.54
678.18	10.46
678.21	4.46
678.241	0.46
678.272	-21.54
678.302	-3.54
678.333	11.46
678.363	16.46
678.394	3.46
678.425	12.46
678.455	19.46
678.486	19.46
678.517	-7.54
678.547	-1.54
678.578	7.46
678.608	-2.54
678.639	1.46
678.67	2.46
678.7	6.46
678.731	2.46
678.761	-3.54
678.792	8.46
678.823	2.46
678.853	11.46
678.884	-7.54
678.914	-3.54
678.945	8.46
678.975	-11.54
679.006	3.46
679.037	-7.54
679.067	14.46
679.098	21.46
679.128	-10.54
679.159	2.46
679.189	10.46
679.22	-4.54
679.25	12.46
679.281	-1.54
679.312	7.46
679.342	2.46
679.373	23.46
679.403	1.46
679.434	12.46
679.464	5.46
679.495	6.46
679.525	10.46
679.556	0.46
679.586	13.46
679.617	15.46
679.647	6.46
679.678	3.46
679.708	16.46
679.739	2.46
679.769	3.46
679.8	-3.54
679.83	-2.54
679.861	10.46
679.891	5.46
679.922	-8.54
679.952	-0.54
679.983	5.46
680.013	-4.54
680.044	-9.54
680.074	1.46
680.105	0.46
680.135	11.46
680.165	8.46
680.196	8.46
680.226	7.46
680.257	-2.54
680.287	3.46
680.318	-6.54
680.348	-4.54
680.379	8.46
680.409	-3.54
680.439	3.46
680.47	-5.54
680.5	-2.54
680.531	-21.54
680.561	6.46
680.592	7.46
680.622	11.46
680.652	9.46
680.683	6.46
680.713	0.46
680.744	-7.54
680.774	-7.54
680.804	12.46
680.835	-9.54
680.865	-6.54
680.896	12.46
680.926	10.46
680.956	-2.54
680.987	10.46
681.017	-17.54
681.047	2.46
681.078	11.46
681.108	4.46
681.139	1.46
681.169	5.46
681.199	4.46
681.23	7.46
681.26	0.46
681.29	8.46
681.321	-3.54
681.351	-5.54
681.381	7.46
681.412	5.46
681.442	2.46
681.472	21.46
681.503	8.46
681.533	5.46
681.563	6.46
681.594	-4.54
681.624	3.46
681.654	2.46
681.685	5.46
681.715	16.46
681.745	-6.54
681.775	3.46
681.806	-7.54
681.836	5.46
681.866	0.46
681.897	-0.54
681.927	3.46
681.957	-11.54
681.987	10.46
682.018	-6.54
682.048	-15.54
682.078	9.46
682.109	17.46
682.139	16.46
682.169	4.46
682.199	8.46
682.23	-2.54
682.26	-10.54
682.29	-13.54
682.32	7.46
682.351	-5.54
682.381	-3.54
682.411	-7.54
682.441	1.46
682.472	-11.54
682.502	10.46
682.532	-4.54
682.562	0.46
682.592	11.46
682.623	10.46
682.653	-2.54
682.683	-10.54
682.713	4.46
682.743	12.46
682.774	24.46
682.804	2.46
682.834	19.46
682.864	11.46
682.894	10.46
682.925	-8.54
682.955	-3.54
682.985	-15.54
683.015	11.46
683.045	11.46
683.076	-12.54
683.106	-11.54
683.136	-10.54
683.166	-9.54
683.196	-1.54
683.226	-7.54
683.257	-2.54
683.287	7.46
683.317	-11.54
683.347	-8.54
683.377	1.46
683.407	5.46
683.437	9.46
683.468	18.46
683.498	-15.54
683.528	-4.54
683.558	14.46
683.588	-9.54
683.618	-11.54
683.648	-0.54
683.678	8.46
683.708	10.46
683.739	-4.54
683.769	-9.54
683.799	8.46
683.829	3.46
683.859	-7.54
683.889	14.46
683.919	6.46
683.949	8.46
683.979	3.46
684.009	6.46
684.039	4.46
684.07	-13.54
684.1	26.46
684.13	5.46
684.16	11.46
684.19	4.46
684.22	-0.54
684.25	15.46
684.28	1.46
684.31	11.46
684.34	9.46
684.37	8.46
684.4	-12.54
684.43	20.46
684.46	1.46
684.49	1.46
684.52	4.46
684.55	10.46
684.58	11.46
684.61	16.46
684.64	10.46
684.67	8.46
684.7	-0.54
684.73	1.46
684.76	-1.54
684.79	12.46
684.82	-3.54
684.85	-10.54
684.88	8.46
684.91	5.46
684.94	4.46
684.97	-9.54
685	-10.54
685.03	-12.54
685.06	-6.54
685.09	-13.54
685.12	22.46
685.15	9.46
685.18	5.46
685.21	-3.54
685.24	12.46
685.27	17.46
685.3	4.46
685.33	-5.54
685.36	-6.54
685.39	10.46
685.42	-6.54
685.45	3.46
685.48	1.46
685.51	-0.54
685.54	4.46
685.569	10.46
685.599	4.46
685.629	-0.54
685.659	5.46
685.689	14.46
685.719	-4.54
685.749	4.46
685.779	1.46
685.809	12.46
685.839	18.46
685.869	2.46
685.898	25.46
685.928	1.46
685.958	0.46
685.988	12.46
686.018	2.46
686.048	1.46
686.078	20.46
686.108	15.46
686.137	0.46
686.167	21.46
686.197	-10.54
686.227	-1.54
686.257	31.46
686.287	15.46
686.317	-4.54
686.346	-5.54
686.376	-11.54
686.406	-2.54
686.436	10.46
686.466	-5.54
686.496	7.46
686.525	9.46
686.555	-11.54
686.585	11.46
686.615	29.46
686.645	26.46
686.675	6.46
686.704	-2.54
686.734	1.46
686.764	7.46
686.794	10.46
686.824	11.46
686.853	15.46
686.883	18.46
686.913	20.46
686.943	0.46
686.973	-7.54
687.002	1.46
687.032	19.46
687.062	8.46
687.092	9.46
687.121	1.46
687.151	4.46
687.181	13.46
687.211	15.46
687.24	5.46
687.27	15.46
687.3	-0.54
687.33	2.46
687.359	0.46
687.389	13.46
687.419	-2.54
687.449	-0.54
687.478	11.46
687.508	-5.54
687.538	2.46
687.568	0.46
687.597	-9.54
687.627	9.46
687.657	14.46
687.686	12.46
687.716	25.46
687.746	-5.54
687.776	-4.54
687.805	2.46
687.835	18.46
687.865	5.46
687.894	9.46
687.924	4.46
687.954	-15.54
687.983	-6.54
688.013	6.46
688.043	0.46
688.072	3.46
688.102	11.46
688.132	-3.54
688.161	2.46
688.191	-7.54
688.221	21.46
688.25	2.46
688.28	-3.54
688.31	16.46
688.339	5.46
688.369	4.46
688.399	-5.54
688.428	-6.54
688.458	12.46
688.488	3.46
688.517	4.46
688.547	5.46
688.576	35.46
688.606	24.46
688.636	-15.54
688.665	2.46
688.695	13.46
688.725	20.46
688.754	11.46
688.784	4.46
688.813	8.46
688.843	10.46
688.873	13.46
688.902	1.46
688.932	9.46
688.961	7.46
688.991	8.46
689.02	21.46
689.05	-0.54
689.08	15.46
689.109	21.46
689.139	0.46
689.168	6.46
689.198	11.46
689.227	13.46
689.257	-4.54
689.287	19.46
689.316	22.46
689.346	5.46
689.375	-3.54
689.405	3.46
689.434	1.46
689.464	8.46
689.493	12.46
689.523	-7.54
689.552	-4.54
689.582	9.46
689.611	0.46
689.641	1.46
689.67	-8.54
689.7	1.46
689.73	16.46
689.759	-2.54
689.789	23.46
689.818	-0.54
689.848	2.46
689.877	28.46
689.906	-4.54
689.936	-16.54
689.965	7.46
689.995	7.46
690.024	5.46
690.054	1.46
690.083	0.46
690.113	5.46
690.142	7.46
690.172	6.46
690.201	1.46
690.231	9.46
690.26	14.46
690.29	6.46
690.319	5.46
690.348	1.46
690.378	8.46
690.407	14.46
690.437	3.46
690.466	-3.54
690.496	2.46
690.525	7.46
690.555	5.46
690.584	2.46
690.613	2.46
690.643	-2.54
690.672	-6.54
690.702	0.46
690.731	-2.54
690.76	-4.54
690.79	-7.54
690.819	1.46
690.849	9.46
690.878	9.46
690.907	-6.54
690.937	18.46
690.966	15.46
690.996	1.46
691.025	6.46
691.054	14.46
691.084	6.46
691.113	6.46
691.142	18.46
691.172	0.46
691.201	9.46
691.23	7.46
691.26	21.46
691.289	14.46
691.319	2.46
691.348	8.46
691.377	19.46
691.407	2.46
691.436	4.46
691.465	5.46
691.495	2.46
691.524	-14.54
691.553	-1.54
691.583	3.46
691.612	19.46
691.641	9.46
691.67	-6.54
691.7	0.46
691.729	-10.54
691.758	4.46
691.788	-10.54
691.817	-7.54
691.846	-4.54
691.876	11.46
691.905	6.46
691.934	-1.54
691.963	20.46
691.993	-6.54
692.022	-5.54
692.051	-5.54
692.081	10.46
692.11	10.46
692.139	9.46
692.168	8.46
692.198	11.46
692.227	6.46
692.256	0.46
692.285	-1.54
692.315	-13.54
692.344	4.46
692.373	-5.54
692.402	-7.54
692.432	-1.54
692.461	-3.54
692.49	-9.54
692.519	-6.54
692.548	13.46
692.578	12.46
692.607	3.46
692.636	-16.54
692.665	8.46
692.694	-16.54
692.724	-6.54
692.753	0.46
692.782	15.46
692.811	10.46
692.84	-5.54
692.87	-2.54
692.899	0.46
692.928	-7.54
692.957	8.46
692.986	7.46
693.016	6.46
693.045	10.46
693.074	-3.54
693.103	-3.54
693.132	15.46
693.161	3.46
693.191	3.46
693.22	-11.54
693.249	0.46
693.278	5.46
693.307	0.46
693.336	-8.54
693.365	-0.54
693.395	2.46
693.424	7.46
693.453	13.46
693.482	-0.54
693.511	17.46
693.54	13.46
693.569	4.46
693.598	-7.54
693.628	16.46
693.657	16.46
693.686	23.46
693.715	1.46
693.744	22.46
693.773	24.46
693.802	7.46
693.831	8.46
693.86	25.46
693.889	-12.54
693.919	-8.54
693.948	-2.54
693.977	10.46
694.006	4.46
694.035	7.46
694.064	-0.54
694.093	-9.54
694.122	-2.54
694.151	1.46
694.18	5.46
694.209	19.46
694.238	13.46
694.267	16.46
694.296	13.46
694.325	11.46
694.354	6.46
694.383	6.46
694.412	2.46
694.441	-4.54
694.471	3.46
694.5	-7.54
694.529	17.46
694.558	28.46
694.587	12.46
694.616	-3.54
694.645	17.46
694.674	27.46
694.703	12.46
694.732	-3.54
694.761	12.46
694.79	20.46
694.819	-6.54
694.848	4.46
694.877	31.46
694.906	25.46
694.935	2.46
694.963	22.46
694.992	-3.54
695.021	12.46
695.05	11.46
695.079	3.46
695.108	-12.54
695.137	12.46
695.166	1.46
695.195	6.46
695.224	-1.54
695.253	-5.54
695.282	17.46
695.311	17.46
695.34	3.46
695.369	9.46
695.398	4.46
695.427	26.46
695.456	4.46
695.485	2.46
695.513	0.46
695.542	-0.54
695.571	-5.54
695.6	19.46
695.629	4.46
695.658	9.46
695.687	9.46
695.716	8.46
695.745	21.46
695.774	5.46
695.802	-13.54
695.831	5.46
695.86	3.46
695.889	3.46
695.918	18.46
695.947	11.46
695.976	-6.54
696.005	21.46
696.033	15.46
696.062	20.46
696.091	7.46
696.12	0.46
696.149	17.46
696.178	0.46
696.207	8.46
696.235	-2.54
696.264	9.46
696.293	7.46
696.322	13.46
696.351	20.46
696.38	6.46
696.408	2.46
696.437	3.46
696.466	4.46
696.495	13.46
696.524	9.46
696.553	5.46
696.581	-9.54
696.61	-2.54
696.639	-9.54
696.668	-10.54
696.697	-16.54
696.725	9.46
696.754	10.46
696.783	1.46
696.812	-3.54
696.84	2.46
696.869	10.46
696.898	-3.54
696.927	-8.54
696.956	1.46
696.984	-7.54
697.013	-2.54
697.042	11.46
697.071	16.46
697.099	25.46
697.128	17.46
697.157	8.46
697.186	-7.54
697.214	-10.54
697.243	2.46
697.272	6.46
697.301	0.46
697.329	7.46
697.358	7.46
697.387	27.46
697.415	28.46
697.444	14.46
697.473	8.46
697.502	1.46
697.53	1.46
697.559	-3.54
697.588	6.46
697.616	-17.54
697.645	-0.54
697.674	12.46
697.703	7.46
697.731	16.46
697.76	-13.54
697.789	0.46
697.817	9.46
697.846	24.46
697.875	5.46
697.903	6.46
697.932	2.46
697.961	-11.54
697.989	9.46
698.018	16.46
698.047	14.46
698.075	19.46
698.104	0.46
698.133	2.46
698.161	-2.54
698.19	-6.54
698.218	-16.54
698.247	-5.54
698.276	-5.54
698.304	10.46
698.333	-2.54
698.362	-0.54
698.39	20.46
698.419	16.46
698.447	16.46
698.476	-3.54
698.505	0.46
698.533	17.46
698.562	5.46
698.591	-4.54
698.619	-0.54
698.648	11.46
698.676	1.46
698.705	1.46
698.733	-14.54
698.762	-1.54
698.791	-0.54
698.819	5.46
698.848	5.46
698.876	-2.54
698.905	0.46
698.933	10.46
698.962	7.46
698.991	-3.54
699.019	24.46
699.048	5.46
699.076	-3.54
699.105	4.46
699.133	1.46
699.162	11.46
699.19	13.46
699.219	7.46
699.248	4.46
699.276	2.46
699.305	5.46
699.333	7.46
699.362	11.46
699.39	18.46
699.419	3.46
699.447	-4.54
699.476	8.46
699.504	10.46
699.533	-6.54
699.561	-22.54
699.59	2.46
699.618	4.46
699.647	1.46
699.675	5.46
699.704	20.46
699.732	-11.54
699.761	-11.54
699.789	-7.54
699.818	5.46
699.846	6.46
699.874	9.46
699.903	-4.54
699.931	-7.54
699.96	3.46
699.988	3.46
700.017	-2.54
700.045	0.46
700.074	-2.54
700.102	-1.54
700.13	-9.54
700.159	3.46
700.187	18.46
700.216	0.46
700.244	7.46
700.273	17.46
700.301	15.46
700.329	2.46
700.358	13.46
700.386	4.46
700.415	1.46
700.443	0.46
700.472	-4.54
700.5	12.46
700.528	4.46
700.557	6.46
700.585	3.46
700.614	11.46
700.642	3.46
700.67	22.46
700.699	5.46
700.727	8.46
700.755	-11.54
700.784	-0.54
700.812	0.46
700.841	-0.54
700.869	-9.54
700.897	1.46
700.926	-0.54
700.954	6.46
700.982	4.46
701.011	-1.54
701.039	8.46
701.067	9.46
701.096	7.46
701.124	3.46
701.152	9.46
701.181	8.46
701.209	-6.54
701.237	1.46
701.266	-6.54
701.294	-4.54
701.322	5.46
701.351	10.46
701.379	9.46
701.407	12.46
701.435	7.46
701.464	8.46
701.492	19.46
701.52	-9.54
701.549	5.46
701.577	-6.54
701.605	-16.54
701.634	0.46
701.662	17.46
701.69	-3.54
701.718	-6.54
701.747	19.46
701.775	-12.54
701.803	3.46
701.831	8.46
701.86	3.46
701.888	7.46
701.916	1.46
701.944	-2.54
701.973	5.46
702.001	-8.54
702.029	0.46
702.057	-0.54
702.086	-6.54
702.114	-0.54
702.142	5.46
702.17	-12.54
702.199	-1.54
702.227	-2.54
702.255	9.46
702.283	3.46
702.311	11.46
702.34	-6.54
702.368	-0.54
702.396	4.46
702.424	0.46
702.452	-2.54
702.481	-7.54
702.509	4.46
702.537	1.46
702.565	17.46
702.593	-9.54
702.621	-2.54
702.65	16.46
702.678	7.46
702.706	-3.54
702.734	3.46
702.762	9.46
702.79	8.46
702.819	11.46
702.847	6.46
702.875	1.46
702.903	6.46
702.931	-3.54
702.959	1.46
702.988	4.46
703.016	-5.54
703.044	8.46
703.072	3.46
703.1	-2.54
703.128	-0.54
703.156	-9.54
703.184	-7.54
703.212	14.46
703.241	2.46
703.269	-3.54
703.297	6.46
703.325	-3.54
703.353	-5.54
703.381	-13.54
703.409	-4.54
703.437	-8.54
703.465	-3.54
703.493	-16.54
703.522	8.46
703.55	5.46
703.578	-3.54
703.606	-12.54
703.634	-8.54
703.662	-9.54
703.69	7.46
703.718	-3.54
703.746	21.46
703.774	12.46
703.802	8.46
703.83	-6.54
703.858	6.46
703.886	-10.54
703.914	-10.54
703.942	17.46
703.97	-3.54
703.998	4.46
704.027	21.46
704.055	3.46
704.083	10.46
704.111	-8.54
704.139	-17.54
704.167	8.46
704.195	4.46
704.223	0.46
704.251	-7.54
704.279	5.46
704.307	8.46
704.335	-2.54
704.363	21.46
704.391	-0.54
704.419	-16.54
704.447	0.46
704.475	-2.54
704.503	-10.54
704.531	13.46
704.558	-4.54
704.586	-7.54
704.614	10.46
704.642	12.46
704.67	-29.54
704.698	-3.54
704.726	-2.54
704.754	0.46
704.782	13.46
704.81	-1.54
704.838	10.46
704.866	20.46
704.894	-11.54
704.922	-15.54
704.95	11.46
704.978	4.46
705.006	18.46
705.034	23.46
705.061	-16.54
705.089	7.46
705.117	-3.54
705.145	-1.54
705.173	-3.54
705.201	18.46
705.229	12.46
705.257	-0.54
705.285	4.46
705.313	14.46
705.34	5.46
705.368	-5.54
705.396	12.46
705.424	4.46
705.452	-2.54
705.48	-0.54
705.508	-0.54
705.536	-10.54
705.563	3.46
705.591	-4.54
705.619	11.46
705.647	6.46
705.675	12.46
705.703	-0.54
705.731	-1.54
705.758	-6.54
705.786	-1.54
705.814	17.46
705.842	8.46
705.87	19.46
705.898	24.46
705.925	4.46
705.953	4.46
705.981	-9.54
706.009	16.46
706.037	10.46
706.065	4.46
706.092	5.46
706.12	15.46
706.148	-7.54
706.176	7.46
706.204	12.46
706.231	-5.54
706.259	-5.54
706.287	-16.54
706.315	-4.54
706.342	7.46
706.37	3.46
706.398	7.46
706.426	11.46
706.454	9.46
706.481	19.46
706.509	0.46
706.537	1.46
706.565	8.46
706.592	-5.54
706.62	-11.54
706.648	4.46
706.676	-5.54
706.703	6.46
706.731	-0.54
706.759	7.46
706.787	6.46
706.814	6.46
706.842	-5.54
706.87	-12.54
706.897	-5.54
706.925	-12.54
706.953	6.46
706.981	16.46
707.008	6.46
707.036	0.46
707.064	3.46
707.091	-14.54
707.119	3.46
707.147	11.46
707.174	-14.54
707.202	12.46
707.23	-0.54
707.258	8.46
707.285	-7.54
707.313	-1.54
707.341	0.46
707.368	-4.54
707.396	3.46
707.424	18.46
707.451	-2.54
707.479	9.46
707.507	10.46
707.534	2.46
707.562	15.46
707.59	-10.54
707.617	-14.54
707.645	-2.54
707.672	-3.54
707.7	-3.54
707.728	22.46
707.755	2.46
707.783	-0.54
707.811	8.46
707.838	5.46
707.866	8.46
707.893	-15.54
707.921	-4.54
707.949	-9.54
707.976	14.46
708.004	13.46
708.031	1.46
708.059	-9.54
708.087	7.46
708.114	-0.54
708.142	-8.54
708.169	-25.54
708.197	-6.54
708.225	-3.54
708.252	-1.54
708.28	3.46
708.307	8.46
708.335	-2.54
708.362	-16.54
708.39	-15.54
708.418	0.46
708.445	-3.54
708.473	-13.54
708.5	-8.54
708.528	-7.54
708.555	-12.54
708.583	-12.54
708.61	-13.54
708.638	9.46
708.665	0.46
708.693	2.46
708.72	-16.54
708.748	-10.54
708.776	-4.54
708.803	11.46
708.831	8.46
708.858	24.46
708.886	1.46
708.913	3.46
708.941	4.46
708.968	10.46
708.996	5.46
709.023	30.46
709.051	3.46
709.078	-0.54
709.105	3.46
709.133	4.46
709.16	10.46
709.188	8.46
709.215	0.46
709.243	0.46
709.27	-16.54
709.298	-19.54
709.325	-11.54
709.353	-10.54
709.38	-0.54
709.408	5.46
709.435	5.46
709.462	5.46
709.49	6.46
709.517	-4.54
709.545	18.46
709.572	0.46
709.6	14.46
709.627	4.46
709.655	8.46
709.682	-1.54
709.709	5.46
709.737	17.46
709.764	-15.54
709.792	16.46
709.819	1.46
709.846	5.46
709.874	5.46
709.901	-2.54
709.929	7.46
709.956	2.46
709.983	-14.54
710.011	-8.54
710.038	-7.54
710.066	13.46
710.093	7.46
710.12	7.46
710.148	-4.54
710.175	-3.54
710.202	-6.54
710.23	-12.54
710.257	-4.54
710.284	2.46
710.312	4.46
710.339	15.46
710.366	-3.54
710.394	2.46
710.421	4.46
710.448	-3.54
710.476	-4.54
710.503	3.46
710.53	5.46
710.558	20.46
710.585	10.46
710.612	4.46
710.64	-12.54
710.667	-3.54
710.694	-11.54
710.722	11.46
710.749	-5.54
710.776	7.46
710.804	16.46
710.831	10.46
710.858	11.46
710.885	1.46
710.913	-10.54
710.94	13.46
710.967	-0.54
710.995	-8.54
711.022	-7.54
711.049	2.46
711.076	6.46
711.104	0.46
711.131	-10.54
711.158	2.46
711.185	-1.54
711.213	-11.54
711.24	-4.54
711.267	-4.54
711.294	0.46
711.322	12.46
711.349	-3.54
711.376	-10.54
711.403	0.46
711.431	8.46
711.458	-8.54
711.485	3.46
711.512	19.46
711.54	5.46
711.567	18.46
711.594	0.46
711.621	5.46
711.648	2.46
711.676	1.46
711.703	10.46
711.73	-10.54
711.757	-5.54
711.784	-7.54
711.812	0.46
711.839	-5.54
711.866	-5.54
711.893	-9.54
711.92	17.46
711.947	6.46
711.975	9.46
712.002	0.46
712.029	6.46
712.056	0.46
712.083	12.46
712.11	-5.54
712.138	-6.54
712.165	15.46
712.192	-3.54
712.219	-16.54
712.246	-6.54
712.273	-3.54
712.3	-6.54
712.328	11.46
712.355	-2.54
712.382	-11.54
712.409	2.46
712.436	-7.54
712.463	12.46
712.49	7.46
712.517	8.46
712.544	-11.54
712.572	9.46
712.599	-11.54
712.626	3.46
712.653	-1.54
712.68	-21.54
712.707	12.46
712.734	8.46
712.761	-0.54
712.788	11.46
712.815	4.46
712.842	8.46
712.87	4.46
712.897	-6.54
712.924	-11.54
712.951	1.46
712.978	7.46
713.005	10.46
713.032	11.46
713.059	-5.54
713.086	4.46
713.113	-13.54
713.14	-21.54
713.167	-3.54
713.194	18.46
713.221	2.46
713.248	16.46
713.275	-13.54
713.302	7.46
713.329	7.46
713.356	-0.54
713.383	-5.54
713.41	2.46
713.437	-7.54
713.464	17.46
713.491	20.46
713.518	11.46
713.545	6.46
713.572	11.46
713.599	9.46
713.626	7.46
713.653	-2.54
713.68	-8.54
713.707	-2.54
713.734	12.46
713.761	-4.54
713.788	-2.54
713.815	22.46
713.842	0.46
713.869	-0.54
713.896	-0.54
713.923	-8.54
713.95	-6.54
713.977	8.46
714.004	-2.54
714.031	8.46
714.058	9.46
714.085	2.46
714.112	-4.54
714.139	12.46
714.165	2.46
714.192	3.46
714.219	-3.54
714.246	4.46
714.273	-6.54
714.3	1.46
714.327	-4.54
714.354	1.46
714.381	-3.54
714.408	6.46
714.435	-0.54
714.461	-6.54
714.488	7.46
714.515	-6.54
714.542	-5.54
714.569	-8.54
714.596	-15.54
714.623	7.46
714.65	-9.54
714.677	4.46
714.703	1.46
714.73	-1.54
714.757	4.46
714.784	10.46
714.811	3.46
714.838	-8.54
714.865	-5.54
714.891	13.46
714.918	7.46
714.945	-20.54
714.972	16.46
714.999	13.46
715.026	-8.54
715.052	17.46
715.079	11.46
715.106	11.46
715.133	10.46
715.16	9.46
715.187	7.46
715.213	14.46
715.24	-4.54
715.267	4.46
715.294	0.46
715.321	-2.54
715.347	3.46
715.374	-0.54
715.401	-3.54
715.428	-9.54
715.455	4.46
715.481	-2.54
715.508	17.46
715.535	-10.54
715.562	16.46
715.588	4.46
715.615	7.46
715.642	11.46
715.669	11.46
715.695	6.46
715.722	-6.54
715.749	6.46
715.776	4.46
715.802	-1.54
715.829	8.46
715.856	-3.54
715.883	19.46
715.909	-14.54
715.936	0.46
715.963	-8.54
715.99	-8.54
716.016	-5.54
716.043	1.46
716.07	-1.54
716.096	-18.54
716.123	0.46
716.15	-5.54
716.177	-6.54
716.203	12.46
716.23	18.46
716.257	12.46
716.283	17.46
716.31	7.46
716.337	6.46
716.363	5.46
716.39	8.46
716.417	7.46
716.443	-3.54
716.47	13.46
716.497	9.46
716.523	-0.54
716.55	11.46
716.577	19.46
716.603	-13.54
716.63	5.46
716.657	30.46
716.683	-2.54
716.71	4.46
716.737	-5.54
716.763	8.46
716.79	12.46
716.817	9.46
716.843	8.46
716.87	-3.54
716.897	-2.54
716.923	7.46
716.95	-0.54
716.976	-6.54
717.003	8.46
717.03	12.46
717.056	-5.54
717.083	-4.54
717.109	9.46
717.136	19.46
717.163	-8.54
717.189	7.46
717.216	-6.54
717.242	-3.54
717.269	6.46
717.296	1.46
717.322	-4.54
717.349	9.46
717.375	3.46
717.402	4.46
717.428	-0.54
717.455	16.46
717.481	10.46
717.508	14.46
717.535	4.46
717.561	2.46
717.588	-4.54
717.614	-7.54
717.641	-11.54
717.667	-3.54
717.694	7.46
717.72	2.46
717.747	12.46
717.773	-1.54
717.8	13.46
717.826	8.46
717.853	4.46
717.88	2.46
717.906	14.46
717.933	6.46
717.959	-12.54
717.986	3.46
718.012	-4.54
718.039	22.46
718.065	-0.54
718.092	13.46
718.118	-0.54
718.144	-6.54
718.171	1.46
718.197	14.46
718.224	3.46
718.25	18.46
718.277	6.46
718.303	-0.54
718.33	14.46
718.356	0.46
718.383	-1.54
718.409	-0.54
718.436	-6.54
718.462	11.46
718.489	2.46
718.515	20.46
718.541	11.46
718.568	12.46
718.594	2.46
718.621	9.46
718.647	9.46
718.674	16.46
718.7	28.46
718.726	0.46
718.753	0.46
718.779	6.46
718.806	-6.54
718.832	-3.54
718.858	11.46
718.885	1.46
718.911	4.46
718.938	6.46
718.964	-5.54
718.99	-3.54
719.017	5.46
719.043	-8.54
719.07	6.46
719.096	-2.54
719.122	6.46
719.149	-3.54
719.175	9.46
719.201	9.46
719.228	-6.54
719.254	-9.54
719.281	1.46
719.307	3.46
719.333	-19.54
719.36	8.46
719.386	6.46
719.412	3.46
719.439	-4.54
719.465	-8.54
719.491	-14.54
719.518	1.46
719.544	4.46
719.57	-2.54
719.597	-10.54
719.623	-7.54
719.649	-0.54
719.675	-12.54
719.702	1.46
719.728	5.46
719.754	-2.54
719.781	-1.54
719.807	10.46
719.833	-2.54
719.86	-6.54
719.886	-10.54
719.912	-0.54
719.938	-9.54
719.965	-4.54
719.991	5.46
720.017	5.46
720.044	-4.54
720.07	0.46
720.096	12.46
720.122	8.46
720.149	12.46
720.175	17.46
720.201	-0.54
720.227	11.46
720.254	-5.54
720.28	2.46
720.306	-7.54
720.332	0.46
720.359	-6.54
720.385	17.46
720.411	10.46
720.437	0.46
720.463	6.46
720.49	7.46
720.516	-6.54
720.542	-22.54
720.568	2.46
720.595	7.46
720.621	-6.54
720.647	-8.54
720.673	8.46
720.699	-5.54
720.725	-10.54
720.752	-6.54
720.778	10.46
720.804	9.46
720.83	5.46
720.856	2.46
720.883	-6.54
720.909	7.46
720.935	-2.54
720.961	2.46
720.987	7.46
721.013	7.46
721.04	-3.54
721.066	-3.54
721.092	-1.54
721.118	10.46
721.144	-3.54
721.17	-2.54
721.196	-2.54
721.223	-7.54
721.249	1.46
721.275	7.46
721.301	-3.54
721.327	7.46
721.353	0.46
721.379	6.46
721.405	-3.54
721.432	22.46
721.458	-10.54
721.484	3.46
721.51	-12.54
721.536	8.46
721.562	-0.54
721.588	-8.54
721.614	-11.54
721.64	2.46
721.666	-6.54
721.693	2.46
721.719	-5.54
721.745	-14.54
721.771	-0.54
721.797	-6.54
721.823	-2.54
721.849	2.46
721.875	-0.54
721.901	-0.54
721.927	-10.54
721.953	1.46
721.979	3.46
722.005	-5.54
722.031	-12.54
722.057	4.46
722.083	9.46
722.109	0.46
722.135	3.46
722.161	20.46
722.187	6.46
722.214	2.46
722.24	3.46
722.266	-0.54
722.292	-1.54
722.318	7.46
722.344	15.46
722.37	15.46
722.396	7.46
722.422	0.46
722.448	11.46
722.474	-12.54
722.5	5.46
722.526	-0.54
722.552	-10.54
722.578	-11.54
722.603	8.46
722.629	3.46
722.655	6.46
722.681	-4.54
722.707	-0.54
722.733	-2.54
722.759	-7.54
722.785	5.46
722.811	-1.54
722.837	-10.54
722.863	-0.54
722.889	-0.54
722.915	10.46
722.941	2.46
722.967	8.46
722.993	14.46
723.019	4.46
723.045	4.46
723.071	1.46
723.097	7.46
723.122	0.46
723.148	-12.54
723.174	2.46
723.2	20.46
723.226	6.46
723.252	6.46
723.278	-6.54
723.304	-15.54
723.33	-2.54
723.356	-6.54
723.381	-12.54
723.407	-22.54
723.433	1.46
723.459	-3.54
723.485	0.46
723.511	-5.54
723.537	-5.54
723.563	6.46
723.588	5.46
723.614	5.46
723.64	1.46
723.666	-3.54
723.692	9.46
723.718	-4.54
723.744	-0.54
723.769	-8.54
723.795	-8.54
723.821	9.46
723.847	-10.54
723.873	4.46
723.899	2.46
723.924	-0.54
723.95	0.46
723.976	-16.54
724.002	-3.54
724.028	-3.54
724.053	-8.54
724.079	-0.54
724.105	4.46
724.131	-3.54
724.157	-9.54
724.182	-11.54
724.208	-10.54
724.234	-8.54
724.26	-4.54
724.286	15.46
724.311	-7.54
724.337	-13.54
724.363	-6.54
724.389	4.46
724.415	-3.54
724.44	8.46
724.466	-2.54
724.492	-8.54
724.518	8.46
724.543	-1.54
724.569	-1.54
724.595	3.46
724.621	-4.54
724.646	3.46
724.672	-0.54
724.698	-0.54
724.723	-2.54
724.749	-14.54
724.775	3.46
724.801	-0.54
724.826	-24.54
724.852	-12.54
724.878	-11.54
724.904	-27.54
724.929	-6.54
724.955	-9.54
724.981	-0.54
725.006	-3.54
725.032	-3.54
725.058	28.46
725.083	-5.54
725.109	1.46
725.135	-6.54
725.161	-12.54
725.186	-2.54
725.212	4.46
725.238	4.46
725.263	-9.54
725.289	-8.54
725.315	-11.54
725.34	-7.54
725.366	13.46
725.392	-4.54
725.417	4.46
725.443	6.46
725.468	7.46
725.494	11.46
725.52	16.46
725.545	4.46
725.571	-9.54
725.597	1.46
725.622	16.46
725.648	4.46
725.674	16.46
725.699	5.46
725.725	7.46
725.75	15.46
725.776	-3.54
725.802	15.46
725.827	6.46
725.853	-0.54
725.878	7.46
725.904	-9.54
725.93	-8.54
725.955	-14.54
725.981	-12.54
726.006	5.46
726.032	32.46
726.057	-6.54
726.083	-15.54
726.109	4.46
726.134	-0.54
726.16	-2.54
726.185	3.46
726.211	4.46
726.236	-19.54
726.262	3.46
726.288	1.46
726.313	12.46
726.339	13.46
726.364	13.46
726.39	9.46
726.415	-0.54
726.441	3.46
726.466	-11.54
726.492	0.46
726.517	9.46
726.543	-2.54
726.568	-20.54
726.594	-3.54
726.619	19.46
726.645	1.46
726.67	-13.54
726.696	3.46
726.721	-13.54
726.747	-1.54
726.772	-6.54
726.798	-9.54
726.823	19.46
726.849	-2.54
726.874	16.46
726.9	15.46
726.925	17.46
726.951	0.46
726.976	5.46
727.002	-4.54
727.027	-4.54
727.053	16.46
727.078	5.46
727.104	2.46
727.129	-12.54
727.155	-10.54
727.18	1.46
727.205	-4.54
727.231	-11.54
727.256	-0.54
727.282	11.46
727.307	25.46
727.333	7.46
727.358	4.46
727.383	-9.54
727.409	-6.54
727.434	4.46
727.46	0.46
727.485	-2.54
727.511	-6.54
727.536	-8.54
727.561	11.46
727.587	4.46
727.612	0.46
727.637	4.46
727.663	2.46
727.688	5.46
727.714	-8.54
727.739	-4.54
727.764	-2.54
727.79	-4.54
727.815	-10.54
727.841	13.46
727.866	11.46
727.891	-10.54
727.917	-16.54
727.942	-4.54
727.967	-0.54
727.993	-8.54
728.018	-0.54
728.043	1.46
728.069	4.46
728.094	0.46
728.119	4.46
728.145	18.46
728.17	1.46
728.195	14.46
728.221	12.46
728.246	-2.54
728.271	-7.54
728.297	-1.54
728.322	-9.54
728.347	4.46
728.373	-0.54
728.398	0.46
728.423	-13.54
728.448	0.46
728.474	-11.54
728.499	14.46
728.524	-0.54
728.55	-2.54
728.575	12.46
728.6	5.46
728.625	9.46
728.651	7.46
728.676	-9.54
728.701	-10.54
728.727	-8.54
728.752	-7.54
728.777	-0.54
728.802	3.46
728.828	1.46
728.853	2.46
728.878	1.46
728.903	-4.54
728.929	-28.54
728.954	-6.54
728.979	2.46
729.004	-3.54
729.03	-1.54
729.055	8.46
729.08	-12.54
729.105	-14.54
729.13	24.46
729.156	-5.54
729.181	-4.54
729.206	-21.54
729.231	-1.54
729.256	6.46
729.282	-9.54
729.307	-8.54
729.332	-9.54
729.357	-12.54
729.382	-11.54
729.408	-6.54
729.433	11.46
729.458	-7.54
729.483	10.46
729.508	12.46
729.533	18.46
729.559	1.46
729.584	-2.54
729.609	11.46
729.634	7.46
729.659	-7.54
729.684	-5.54
729.71	7.46
729.735	-2.54
729.76	11.46
729.785	8.46
729.81	12.46
729.835	-0.54
729.86	-10.54
729.886	14.46
729.911	3.46
729.936	4.46
729.961	25.46
729.986	-2.54
730.011	-7.54
730.036	-0.54
730.061	8.46
730.086	-5.54
730.112	3.46
730.137	9.46
730.162	5.46
730.187	-7.54
730.212	21.46
730.237	-16.54
730.262	8.46
730.287	8.46
730.312	7.46
730.337	3.46
730.362	21.46
730.387	1.46
730.413	-4.54
730.438	3.46
730.463	3.46
730.488	-6.54
730.513	-9.54
730.538	5.46
730.563	13.46
730.588	28.46
730.613	4.46
730.638	-0.54
730.663	-5.54
730.688	16.46
730.713	13.46
730.738	0.46
730.763	7.46
730.788	-5.54
730.813	-0.54
730.838	0.46
730.863	10.46
730.888	-10.54
730.913	-22.54
730.938	-7.54
730.963	-4.54
730.988	14.46
731.013	27.46
731.038	1.46
731.063	-6.54
731.088	-9.54
731.113	-0.54
731.138	6.46
731.163	-9.54
731.188	-0.54
731.213	7.46
731.238	16.46
731.263	-4.54
731.288	-0.54
731.313	-7.54
731.338	-4.54
731.363	-12.54
731.388	-1.54
731.413	3.46
731.438	15.46
731.463	5.46
731.487	-1.54
731.512	-1.54
731.537	-6.54
731.562	-4.54
731.587	6.46
731.612	-7.54
731.637	-6.54
731.662	19.46
731.687	20.46
731.712	-19.54
731.737	3.46
731.762	-1.54
731.786	16.46
731.811	9.46
731.836	2.46
731.861	-0.54
731.886	-6.54
731.911	-9.54
731.936	-3.54
731.961	-8.54
731.986	-10.54
732.01	-1.54
732.035	-3.54
732.06	7.46
732.085	0.46
732.11	-7.54
732.135	-8.54
732.16	8.46
732.184	11.46
732.209	-2.54
732.234	-15.54
732.259	-12.54
732.284	9.46
732.309	-6.54
732.334	9.46
732.358	-2.54
732.383	-1.54
732.408	-8.54
732.433	2.46
732.458	9.46
732.482	3.46
732.507	0.46
732.532	5.46
732.557	0.46
732.582	21.46
732.607	8.46
732.631	9.46
732.656	1.46
732.681	8.46
732.706	2.46
732.73	1.46
732.755	-7.54
732.78	3.46
732.805	16.46
732.83	10.46
732.854	-0.54
732.879	13.46
732.904	2.46
732.929	-2.54
732.953	-0.54
732.978	-5.54
733.003	-9.54
733.028	-4.54
733.052	3.46
733.077	-0.54
733.102	-0.54
733.127	6.46
733.151	0.46
733.176	20.46
733.201	8.46
733.226	-6.54
733.25	6.46
733.275	11.46
733.3	1.46
733.324	16.46
733.349	0.46
733.374	13.46
733.399	-12.54
733.423	8.46
733.448	-2.54
733.473	-0.54
733.497	-0.54
733.522	-11.54
733.547	9.46
733.571	27.46
733.596	15.46
733.621	4.46
733.646	7.46
733.67	8.46
733.695	3.46
733.72	9.46
733.744	7.46
733.769	6.46
733.794	14.46
733.818	-6.54
733.843	-2.54
733.867	-0.54
733.892	3.46
733.917	4.46
733.941	-0.54
733.966	-13.54
733.991	-12.54
734.015	23.46
734.04	12.46
734.065	4.46
734.089	-1.54
734.114	-20.54
734.138	-1.54
734.163	-0.54
734.188	0.46
734.212	-4.54
734.237	13.46
734.261	9.46
734.286	4.46
734.311	0.46
734.335	-2.54
734.36	-5.54
734.384	-7.54
734.409	0.46
734.434	1.46
734.458	10.46
734.483	2.46
734.507	-11.54
734.532	6.46
734.556	12.46
734.581	-9.54
734.606	14.46
734.63	-1.54
734.655	12.46
734.679	-6.54
734.704	-11.54
734.728	11.46
734.753	6.46
734.777	-1.54
734.802	-2.54
734.826	15.46
734.851	8.46
734.876	7.46
734.9	-6.54
734.925	7.46
734.949	9.46
734.974	3.46
734.998	1.46
735.023	7.46
735.047	1.46
735.072	21.46
735.096	3.46
735.121	13.46
735.145	-5.54
735.17	1.46
735.194	16.46
735.219	11.46
735.243	11.46
735.268	13.46
735.292	7.46
735.317	3.46
735.341	4.46
735.365	-10.54
735.39	1.46
735.414	10.46
735.439	6.46
735.463	-1.54
735.488	6.46
735.512	11.46
735.537	-1.54
735.561	5.46
735.586	8.46
735.61	14.46
735.634	-10.54
735.659	9.46
735.683	16.46
735.708	-0.54
735.732	-3.54
735.757	8.46
735.781	10.46
735.805	11.46
735.83	-6.54
735.854	7.46
735.879	-0.54
735.903	-2.54
735.927	7.46
735.952	1.46
735.976	-2.54
736.001	-6.54
736.025	0.46
736.049	4.46
736.074	7.46
736.098	12.46
736.123	8.46
736.147	-6.54
736.171	-5.54
736.196	11.46
736.22	5.46
736.244	8.46
736.269	-2.54
736.293	1.46
736.317	1.46
736.342	14.46
736.366	6.46
736.39	2.46
736.415	4.46
736.439	3.46
736.463	12.46
736.488	21.46
736.512	-2.54
736.536	3.46
736.561	2.46
736.585	-3.54
736.609	16.46
736.634	7.46
736.658	17.46
736.682	-3.54
736.707	-1.54
736.731	0.46
736.755	4.46
736.78	0.46
736.804	18.46
736.828	22.46
736.852	13.46
736.877	-0.54
736.901	22.46
736.925	1.46
736.949	4.46
736.974	-8.54
736.998	-13.54
737.022	4.46
737.047	-3.54
737.071	-1.54
737.095	2.46
737.119	36.46
737.144	24.46
737.168	-5.54
737.192	6.46
737.216	3.46
737.241	-1.54
737.265	-0.54
737.289	0.46
737.313	-5.54
737.337	12.46
737.362	9.46
737.386	1.46
737.41	-11.54
737.434	-4.54
737.459	0.46
737.483	4.46
737.507	13.46
737.531	15.46
737.555	-8.54
737.58	10.46
737.604	15.46
737.628	-3.54
737.652	-0.54
737.676	-14.54
737.701	8.46
737.725	-2.54
737.749	8.46
737.773	9.46
737.797	4.46
737.821	-3.54
737.846	-0.54
737.87	28.46
737.894	-4.54
737.918	6.46
737.942	-2.54
737.966	16.46
737.99	3.46
738.015	-0.54
738.039	7.46
738.063	-2.54
738.087	14.46
738.111	-0.54
738.135	13.46
738.159	5.46
738.184	6.46
738.208	7.46
738.232	-2.54
738.256	15.46
738.28	2.46
738.304	20.46
738.328	3.46
738.352	9.46
738.376	-4.54
738.4	-2.54
738.425	11.46
738.449	-10.54
738.473	4.46
738.497	3.46
738.521	-4.54
738.545	2.46
738.569	2.46
738.593	15.46
738.617	19.46
738.641	7.46
738.665	4.46
738.689	0.46
738.713	16.46
738.737	10.46
738.762	18.46
738.786	4.46
738.81	-12.54
738.834	6.46
738.858	-6.54
738.882	10.46
738.906	-8.54
738.93	1.46
738.954	5.46
738.978	-7.54
739.002	1.46
739.026	4.46
739.05	3.46
739.074	-8.54
739.098	28.46
739.122	31.46
739.146	14.46
739.17	2.46
739.194	12.46
739.218	3.46
739.242	-3.54
739.266	10.46
739.29	19.46
739.314	-3.54
739.338	19.46
739.362	0.46
739.386	6.46
739.41	-15.54
739.434	-6.54
739.458	21.46
739.482	3.46
739.506	3.46
739.53	-2.54
739.554	2.46
739.577	-14.54
739.601	5.46
739.625	-0.54
739.649	5.46
739.673	-6.54
739.697	11.46
739.721	10.46
739.745	15.46
739.769	18.46
739.793	3.46
739.817	-0.54
739.841	-15.54
739.865	-3.54
739.889	-15.54
739.912	8.46
739.936	12.46
739.96	-3.54
739.984	12.46
740.008	5.46
740.032	-6.54
740.056	-2.54
740.08	-6.54
740.104	-12.54
740.127	-4.54
740.151	12.46
740.175	20.46
740.199	15.46
740.223	56.46
740.247	0.46
740.271	14.46
740.295	-9.54
740.318	-2.54
740.342	-9.54
740.366	-15.54
740.39	-0.54
740.414	-2.54
740.438	-8.54
740.461	11.46
740.485	14.46
740.509	2.46
740.533	14.46
740.557	-0.54
740.581	4.46
740.604	-13.54
740.628	-15.54
740.652	3.46
740.676	2.46
740.7	7.46
740.723	-12.54
740.747	-2.54
740.771	4.46
740.795	0.46
740.819	21.46
740.842	-0.54
740.866	8.46
740.89	6.46
740.914	-10.54
740.938	-22.54
740.961	14.46
740.985	-5.54
741.009	-10.54
741.033	16.46
741.056	14.46
741.08	4.46
741.104	7.46
741.128	6.46
741.151	22.46
741.175	4.46
741.199	-2.54
741.223	5.46
741.246	-2.54
741.27	15.46
741.294	1.46
741.318	-3.54
741.341	-4.54
741.365	-4.54
741.389	13.46
741.413	14.46
741.436	22.46
741.46	11.46
741.484	12.46
741.507	18.46
741.531	18.46
741.555	11.46
741.579	5.46
741.602	9.46
741.626	12.46
741.65	-5.54
741.673	-0.54
741.697	7.46
741.721	9.46
741.744	-15.54
741.768	-7.54
741.792	-6.54
741.815	-4.54
741.839	10.46
741.863	3.46
741.886	6.46
741.91	4.46
741.934	-12.54
741.957	-11.54
741.981	17.46
742.005	-5.54
742.028	6.46
742.052	-9.54
742.075	-2.54
742.099	21.46
742.123	4.46
742.146	1.46
742.17	-7.54
742.194	-7.54
742.217	1.46
742.241	-11.54
742.264	-0.54
742.288	31.46
742.312	5.46
742.335	-8.54
742.359	-2.54
742.382	21.46
742.406	10.46
742.43	-4.54
742.453	9.46
742.477	-9.54
742.5	3.46
742.524	-9.54
742.548	-8.54
742.571	3.46
742.595	-7.54
742.618	-15.54
742.642	-10.54
742.665	4.46
742.689	-0.54
742.712	-3.54
742.736	1.46
742.76	1.46
742.783	-2.54
742.807	16.46
742.83	7.46
742.854	-20.54
742.877	6.46
742.901	8.46
742.924	-18.54
742.948	0.46
742.971	7.46
742.995	11.46
743.018	-12.54
743.042	-14.54
743.065	-3.54
743.089	-16.54
743.112	-0.54
743.136	9.46
743.159	-10.54
743.183	-0.54
743.206	16.46
743.23	2.46
743.253	16.46
743.277	3.46
743.3	-3.54
743.324	-3.54
743.347	-16.54
743.371	1.46
743.394	4.46
743.418	26.46
743.441	12.46
743.465	-0.54
743.488	-10.54
743.512	-8.54
743.535	12.46
743.558	2.46
743.582	9.46
743.605	12.46
743.629	14.46
743.652	4.46
743.676	-2.54
743.699	8.46
743.723	14.46
743.746	4.46
743.769	8.46
743.793	6.46
743.816	-4.54
743.84	11.46
743.863	-1.54
743.886	15.46
743.91	19.46
743.933	22.46
743.957	4.46
743.98	8.46
744.003	-7.54
744.027	6.46
744.05	0.46
744.074	3.46
744.097	-9.54
744.12	2.46
744.144	-13.54
744.167	10.46
744.19	-10.54
744.214	-0.54
744.237	-5.54
744.26	20.46
744.284	-6.54
744.307	-8.54
744.331	6.46
744.354	-8.54
744.377	-4.54
744.401	0.46
744.424	-2.54
744.447	-3.54
744.471	1.46
