Data from HighRes_H2_15_09_11_07_2024_HR4C61891__118__15-11-08-201.txt Node

Date: Thu Nov 07 15:11:08 EST 2024
User: crc00042
Spectrometer: HR4C6189
Trigger mode: 4
Integration Time (sec): 1.000000E-1
Scans to average: 1
Electric dark correction enabled: true
Nonlinearity correction enabled: false
Boxcar width: 0
XAxis mode: Wavelengths
Number of Pixels in Spectrum: 3648
>>>>>Begin Spectral Data<<<<<
639.567	-57.85
639.602	-57.85
639.636	-57.85
639.67	-36.85
639.704	-10.85
639.738	0.15
639.773	4.15
639.807	-26.85
639.841	4.15
639.875	12.15
639.909	-3.85
639.943	-10.85
639.978	3.15
640.012	14.15
640.046	9.15
640.08	7.15
640.114	-7.85
640.148	-4.85
640.182	-2.85
640.217	0.15
640.251	14.15
640.285	-5.85
640.319	-4.85
640.353	-0.85
640.387	-3.85
640.421	-9.85
640.455	7.15
640.49	0.15
640.524	6.15
640.558	-4.85
640.592	-2.85
640.626	-0.85
640.66	-0.85
640.694	-2.85
640.728	13.15
640.762	5.15
640.796	23.15
640.83	16.15
640.865	-4.85
640.899	2.15
640.933	9.15
640.967	-5.85
641.001	9.15
641.035	-2.85
641.069	-12.85
641.103	-11.85
641.137	-13.85
641.171	-1.85
641.205	7.15
641.239	10.15
641.273	15.15
641.307	6.15
641.341	-16.85
641.375	7.15
641.409	7.15
641.443	9.15
641.477	-5.85
641.511	-0.85
641.545	14.15
641.579	9.15
641.614	-0.85
641.648	22.15
641.682	-9.85
641.716	24.15
641.75	15.15
641.784	8.15
641.818	15.15
641.852	-15.85
641.886	5.15
641.919	16.15
641.953	6.15
641.987	-0.85
642.021	4.15
642.055	16.15
642.089	0.15
642.123	-10.85
642.157	-3.85
642.191	-2.85
642.225	15.15
642.259	-6.85
642.293	13.15
642.327	20.15
642.361	-1.85
642.395	26.15
642.429	4.15
642.463	6.15
642.497	20.15
642.531	-7.85
642.565	-23.85
642.599	9.15
642.633	-9.85
642.666	11.15
642.7	16.15
642.734	4.15
642.768	-21.85
642.802	-1.85
642.836	3.15
642.87	-2.85
642.904	14.15
642.938	8.15
642.972	20.15
643.005	3.15
643.039	19.15
643.073	2.15
643.107	2.15
643.141	2.15
643.175	-3.85
643.209	-6.85
643.243	2.15
643.276	6.15
643.31	5.15
643.344	9.15
643.378	-3.85
643.412	-1.85
643.446	6.15
643.48	0.15
643.513	6.15
643.547	10.15
643.581	-9.85
643.615	-11.85
643.649	-0.85
643.683	9.15
643.716	1.15
643.75	14.15
643.784	-14.85
643.818	15.15
643.852	-6.85
643.886	6.15
643.919	7.15
643.953	-4.85
643.987	-6.85
644.021	13.15
644.055	17.15
644.088	-7.85
644.122	-9.85
644.156	-7.85
644.19	6.15
644.224	-9.85
644.257	-8.85
644.291	-6.85
644.325	3.15
644.359	-10.85
644.392	26.15
644.426	22.15
644.46	3.15
644.494	9.15
644.527	9.15
644.561	2.15
644.595	15.15
644.629	-4.85
644.662	-3.85
644.696	8.15
644.73	10.15
644.764	16.15
644.797	10.15
644.831	12.15
644.865	17.15
644.899	5.15
644.932	12.15
644.966	7.15
645	10.15
645.033	22.15
645.067	11.15
645.101	28.15
645.135	11.15
645.168	1.15
645.202	-2.85
645.236	3.15
645.269	14.15
645.303	-4.85
645.337	-10.85
645.37	2.15
645.404	0.15
645.438	6.15
645.471	-5.85
645.505	8.15
645.539	17.15
645.572	5.15
645.606	7.15
645.64	6.15
645.673	20.15
645.707	24.15
645.741	10.15
645.774	2.15
645.808	-10.85
645.842	-5.85
645.875	16.15
645.909	7.15
645.943	1.15
645.976	6.15
646.01	19.15
646.043	16.15
646.077	5.15
646.111	3.15
646.144	-5.85
646.178	11.15
646.212	-5.85
646.245	4.15
646.279	5.15
646.312	15.15
646.346	17.15
646.38	-6.85
646.413	-2.85
646.447	7.15
646.48	-7.85
646.514	8.15
646.547	7.15
646.581	1.15
646.615	4.15
646.648	-6.85
646.682	-4.85
646.715	-1.85
646.749	16.15
646.782	-4.85
646.816	-4.85
646.85	17.15
646.883	6.15
646.917	7.15
646.95	5.15
646.984	6.15
647.017	15.15
647.051	4.15
647.084	4.15
647.118	1.15
647.151	4.15
647.185	7.15
647.218	-8.85
647.252	12.15
647.285	11.15
647.319	2.15
647.353	0.15
647.386	18.15
647.42	20.15
647.453	8.15
647.487	7.15
647.52	11.15
647.553	7.15
647.587	14.15
647.62	6.15
647.654	2.15
647.687	25.15
647.721	28.15
647.754	6.15
647.788	16.15
647.821	1.15
647.855	3.15
647.888	7.15
647.922	2.15
647.955	6.15
647.989	-3.85
648.022	7.15
648.055	11.15
648.089	-12.85
648.122	9.15
648.156	-27.85
648.189	6.15
648.223	4.15
648.256	12.15
648.29	11.15
648.323	5.15
648.356	9.15
648.39	-1.85
648.423	2.15
648.457	-0.85
648.49	-7.85
648.523	24.15
648.557	8.15
648.59	-5.85
648.624	0.15
648.657	-11.85
648.69	1.15
648.724	10.15
648.757	18.15
648.791	7.15
648.824	5.15
648.857	13.15
648.891	-8.85
648.924	5.15
648.957	9.15
648.991	-16.85
649.024	13.15
649.057	6.15
649.091	-12.85
649.124	13.15
649.158	26.15
649.191	22.15
649.224	3.15
649.258	13.15
649.291	13.15
649.324	16.15
649.358	12.15
649.391	8.15
649.424	22.15
649.458	7.15
649.491	-2.85
649.524	-19.85
649.557	3.15
649.591	-16.85
649.624	36.15
649.657	-1.85
649.691	-4.85
649.724	2.15
649.757	-2.85
649.791	-9.85
649.824	6.15
649.857	5.15
649.89	9.15
649.924	-13.85
649.957	-0.85
649.99	-6.85
650.023	-4.85
650.057	1.15
650.09	10.15
650.123	-1.85
650.157	27.15
650.19	35.15
650.223	23.15
650.256	2.15
650.29	10.15
650.323	-1.85
650.356	7.15
650.389	-0.85
650.423	-9.85
650.456	-8.85
650.489	5.15
650.522	5.15
650.555	7.15
650.589	0.15
650.622	6.15
650.655	22.15
650.688	8.15
650.721	4.15
650.755	12.15
650.788	25.15
650.821	6.15
650.854	11.15
650.887	12.15
650.921	7.15
650.954	-0.85
650.987	7.15
651.02	1.15
651.053	5.15
651.087	-10.85
651.12	20.15
651.153	15.15
651.186	14.15
651.219	-11.85
651.252	3.15
651.286	17.15
651.319	7.15
651.352	4.15
651.385	10.15
651.418	3.15
651.451	14.15
651.484	7.15
651.518	-9.85
651.551	14.15
651.584	-3.85
651.617	20.15
651.65	17.15
651.683	14.15
651.716	-8.85
651.749	-6.85
651.783	3.15
651.816	5.15
651.849	12.15
651.882	7.15
651.915	2.15
651.948	-4.85
651.981	6.15
652.014	-24.85
652.047	-13.85
652.08	10.15
652.114	2.15
652.147	-4.85
652.18	6.15
652.213	29.15
652.246	5.15
652.279	-0.85
652.312	1.15
652.345	-0.85
652.378	0.15
652.411	7.15
652.444	8.15
652.477	-4.85
652.51	6.15
652.543	-13.85
652.576	17.15
652.609	14.15
652.642	2.15
652.675	23.15
652.709	8.15
652.742	9.15
652.775	15.15
652.808	16.15
652.841	1.15
652.874	11.15
652.907	9.15
652.94	0.15
652.973	-16.85
653.006	-0.85
653.039	15.15
653.072	7.15
653.105	-6.85
653.138	-0.85
653.171	4.15
653.204	-1.85
653.237	14.15
653.27	0.15
653.303	1.15
653.336	13.15
653.368	-16.85
653.401	-7.85
653.434	-10.85
653.467	4.15
653.5	-6.85
653.533	-10.85
653.566	-1.85
653.599	9.15
653.632	6.15
653.665	16.15
653.698	-16.85
653.731	-9.85
653.764	4.15
653.797	2.15
653.83	2.15
653.863	20.15
653.896	9.15
653.929	-5.85
653.961	6.15
653.994	18.15
654.027	-5.85
654.06	9.15
654.093	19.15
654.126	7.15
654.159	0.15
654.192	-7.85
654.225	0.15
654.258	-4.85
654.29	2.15
654.323	10.15
654.356	0.15
654.389	4.15
654.422	1.15
654.455	-0.85
654.488	18.15
654.521	-26.85
654.553	-8.85
654.586	27.15
654.619	7.15
654.652	-0.85
654.685	25.15
654.718	17.15
654.751	15.15
654.783	-13.85
654.816	13.15
654.849	-6.85
654.882	-8.85
654.915	0.15
654.948	6.15
654.98	-5.85
655.013	2.15
655.046	3.15
655.079	4.15
655.112	7.15
655.144	0.15
655.177	10.15
655.21	19.15
655.243	1.15
655.276	12.15
655.308	2.15
655.341	6.15
655.374	3.15
655.407	7.15
655.44	-1.85
655.472	8.15
655.505	9.15
655.538	20.15
655.571	11.15
655.603	6.15
655.636	13.15
655.669	9.15
655.702	0.15
655.734	10.15
655.767	29.15
655.8	7.15
655.833	31.15
655.865	36.15
655.898	29.15
655.931	36.15
655.964	51.15
655.996	67.15
656.029	83.15
656.062	59.15
656.095	74.15
656.127	72.15
656.16	91.15
656.193	126.15
656.225	160.15
656.258	266.15
656.291	483.15
656.324	1135.15
656.356	3364.15
656.389	7484.15
656.422	6039.15
656.454	2090.15
656.487	719.15
656.52	253.15
656.552	115.15
656.585	75.15
656.618	52.15
656.65	47.15
656.683	33.15
656.716	18.15
656.748	34.15
656.781	8.15
656.814	3.15
656.846	13.15
656.879	-6.85
656.912	0.15
656.944	-4.85
656.977	-3.85
657.01	8.15
657.042	7.15
657.075	24.15
657.108	-0.85
657.14	2.15
657.173	17.15
657.205	26.15
657.238	12.15
657.271	6.15
657.303	-13.85
657.336	13.15
657.369	17.15
657.401	5.15
657.434	14.15
657.466	-5.85
657.499	6.15
657.532	14.15
657.564	13.15
657.597	-3.85
657.629	11.15
657.662	11.15
657.694	-4.85
657.727	-17.85
657.76	9.15
657.792	-2.85
657.825	-6.85
657.857	3.15
657.89	0.15
657.922	25.15
657.955	4.15
657.987	9.15
658.02	27.15
658.053	18.15
658.085	8.15
658.118	0.15
658.15	11.15
658.183	16.15
658.215	-8.85
658.248	-5.85
658.28	8.15
658.313	25.15
658.345	17.15
658.378	7.15
658.41	-8.85
658.443	12.15
658.475	17.15
658.508	-3.85
658.54	6.15
658.573	-15.85
658.605	0.15
658.638	4.15
658.67	16.15
658.703	28.15
658.735	5.15
658.768	12.15
658.8	-8.85
658.833	23.15
658.865	-1.85
658.898	-0.85
658.93	14.15
658.963	5.15
658.995	-9.85
659.028	3.15
659.06	12.15
659.092	9.15
659.125	8.15
659.157	27.15
659.19	-11.85
659.222	3.15
659.255	0.15
659.287	-6.85
659.32	-0.85
659.352	9.15
659.384	30.15
659.417	5.15
659.449	16.15
659.482	11.15
659.514	0.15
659.546	6.15
659.579	9.15
659.611	10.15
659.644	1.15
659.676	5.15
659.708	11.15
659.741	-3.85
659.773	20.15
659.806	6.15
659.838	-4.85
659.87	13.15
659.903	-0.85
659.935	10.15
659.967	12.15
660	10.15
660.032	-20.85
660.065	25.15
660.097	5.15
660.129	-0.85
660.162	1.15
660.194	5.15
660.226	25.15
660.259	31.15
660.291	4.15
660.323	-4.85
660.356	-0.85
660.388	-10.85
660.42	-2.85
660.453	19.15
660.485	14.15
660.517	6.15
660.55	11.15
660.582	7.15
660.614	12.15
660.647	2.15
660.679	-2.85
660.711	13.15
660.743	6.15
660.776	-3.85
660.808	-7.85
660.84	-3.85
660.873	-0.85
660.905	1.15
660.937	4.15
660.969	-4.85
661.002	10.15
661.034	15.15
661.066	1.15
661.099	5.15
661.131	23.15
661.163	6.15
661.195	-4.85
661.228	10.15
661.26	10.15
661.292	4.15
661.324	14.15
661.357	11.15
661.389	2.15
661.421	12.15
661.453	6.15
661.485	-1.85
661.518	4.15
661.55	-16.85
661.582	-10.85
661.614	2.15
661.647	2.15
661.679	9.15
661.711	12.15
661.743	4.15
661.775	13.15
661.808	26.15
661.84	6.15
661.872	7.15
661.904	2.15
661.936	5.15
661.969	-22.85
662.001	7.15
662.033	17.15
662.065	4.15
662.097	10.15
662.129	9.15
662.162	5.15
662.194	4.15
662.226	-10.85
662.258	2.15
662.29	9.15
662.322	3.15
662.355	-2.85
662.387	12.15
662.419	5.15
662.451	15.15
662.483	9.15
662.515	-11.85
662.547	1.15
662.58	-0.85
662.612	3.15
662.644	-9.85
662.676	12.15
662.708	11.15
662.74	5.15
662.772	-7.85
662.804	15.15
662.836	36.15
662.869	2.15
662.901	9.15
662.933	8.15
662.965	6.15
662.997	5.15
663.029	-18.85
663.061	9.15
663.093	-3.85
663.125	6.15
663.157	15.15
663.189	3.15
663.221	-6.85
663.254	2.15
663.286	13.15
663.318	1.15
663.35	9.15
663.382	7.15
663.414	9.15
663.446	2.15
663.478	-8.85
663.51	27.15
663.542	-12.85
663.574	3.15
663.606	17.15
663.638	-0.85
663.67	-8.85
663.702	11.15
663.734	19.15
663.766	10.15
663.798	4.15
663.83	-4.85
663.862	14.15
663.894	16.15
663.926	11.15
663.958	22.15
663.99	-2.85
664.022	16.15
664.054	12.15
664.086	4.15
664.118	-4.85
664.15	-17.85
664.182	1.15
664.214	-0.85
664.246	14.15
664.278	25.15
664.31	8.15
664.342	14.15
664.374	4.15
664.406	-0.85
664.438	-10.85
664.47	3.15
664.502	-6.85
664.534	-12.85
664.566	-9.85
664.598	19.15
664.63	-19.85
664.662	2.15
664.693	2.15
664.725	1.15
664.757	-11.85
664.789	4.15
664.821	23.15
664.853	27.15
664.885	-9.85
664.917	-7.85
664.949	-2.85
664.981	22.15
665.013	-1.85
665.045	-13.85
665.076	-4.85
665.108	9.15
665.14	16.15
665.172	0.15
665.204	2.15
665.236	-7.85
665.268	13.15
665.3	8.15
665.331	-15.85
665.363	4.15
665.395	-2.85
665.427	-2.85
665.459	-8.85
665.491	-11.85
665.523	5.15
665.555	0.15
665.586	-0.85
665.618	9.15
665.65	-4.85
665.682	12.15
665.714	1.15
665.746	-7.85
665.777	-14.85
665.809	-4.85
665.841	-6.85
665.873	-10.85
665.905	2.15
665.937	24.15
665.968	13.15
666	10.15
666.032	1.15
666.064	-2.85
666.096	3.15
666.127	16.15
666.159	4.15
666.191	18.15
666.223	-1.85
666.255	-9.85
666.286	2.15
666.318	-8.85
666.35	24.15
666.382	15.15
666.413	-5.85
666.445	-26.85
666.477	-11.85
666.509	-2.85
666.54	-5.85
666.572	8.15
666.604	2.15
666.636	11.15
666.667	18.15
666.699	11.15
666.731	15.15
666.763	-9.85
666.794	4.15
666.826	7.15
666.858	-12.85
666.89	6.15
666.921	10.15
666.953	18.15
666.985	18.15
667.017	22.15
667.048	-13.85
667.08	9.15
667.112	6.15
667.143	-5.85
667.175	1.15
667.207	14.15
667.238	9.15
667.27	2.15
667.302	10.15
667.334	7.15
667.365	29.15
667.397	-1.85
667.429	-3.85
667.46	5.15
667.492	6.15
667.524	-0.85
667.555	2.15
667.587	4.15
667.619	-3.85
667.65	-7.85
667.682	6.15
667.714	16.15
667.745	18.15
667.777	4.15
667.808	0.15
667.84	12.15
667.872	-10.85
667.903	35.15
667.935	3.15
667.967	3.15
667.998	9.15
668.03	-6.85
668.061	2.15
668.093	6.15
668.125	14.15
668.156	-7.85
668.188	6.15
668.22	11.15
668.251	23.15
668.283	10.15
668.314	15.15
668.346	-4.85
668.377	2.15
668.409	0.15
668.441	14.15
668.472	2.15
668.504	10.15
668.535	19.15
668.567	30.15
668.599	11.15
668.63	12.15
668.662	11.15
668.693	16.15
668.725	0.15
668.756	15.15
668.788	-12.85
668.819	9.15
668.851	7.15
668.882	-8.85
668.914	4.15
668.946	-0.85
668.977	7.15
669.009	5.15
669.04	-11.85
669.072	-0.85
669.103	13.15
669.135	-5.85
669.166	6.15
669.198	16.15
669.229	4.15
669.261	-10.85
669.292	-4.85
669.324	6.15
669.355	10.15
669.387	5.15
669.418	10.15
669.45	6.15
669.481	14.15
669.513	7.15
669.544	10.15
669.576	-1.85
669.607	17.15
669.639	13.15
669.67	-6.85
669.701	8.15
669.733	-13.85
669.764	-5.85
669.796	1.15
669.827	-3.85
669.859	15.15
669.89	6.15
669.922	6.15
669.953	5.15
669.985	0.15
670.016	14.15
670.047	11.15
670.079	10.15
670.11	17.15
670.142	18.15
670.173	12.15
670.204	5.15
670.236	5.15
670.267	6.15
670.299	4.15
670.33	7.15
670.362	0.15
670.393	-11.85
670.424	19.15
670.456	2.15
670.487	-0.85
670.518	-4.85
670.55	-2.85
670.581	3.15
670.613	7.15
670.644	5.15
670.675	-3.85
670.707	-14.85
670.738	9.15
670.769	0.15
670.801	-5.85
670.832	1.15
670.864	-15.85
670.895	20.15
670.926	2.15
670.958	13.15
670.989	7.15
671.02	-6.85
671.052	3.15
671.083	-1.85
671.114	-13.85
671.146	21.15
671.177	3.15
671.208	-5.85
671.24	-16.85
671.271	3.15
671.302	10.15
671.333	-14.85
671.365	-9.85
671.396	-8.85
671.427	-0.85
671.459	20.15
671.49	6.15
671.521	21.15
671.553	7.15
671.584	16.15
671.615	-19.85
671.646	-8.85
671.678	-10.85
671.709	-9.85
671.74	-9.85
671.771	-0.85
671.803	-0.85
671.834	24.15
671.865	6.15
671.896	14.15
671.928	12.15
671.959	-1.85
671.99	1.15
672.021	-1.85
672.053	-8.85
672.084	8.15
672.115	1.15
672.146	-5.85
672.178	-0.85
672.209	7.15
672.24	14.15
672.271	14.15
672.303	-3.85
672.334	2.15
672.365	0.15
672.396	-2.85
672.427	16.15
672.459	22.15
672.49	32.15
672.521	11.15
672.552	11.15
672.583	18.15
672.615	-7.85
672.646	13.15
672.677	6.15
672.708	-7.85
672.739	7.15
672.77	15.15
672.802	0.15
672.833	-19.85
672.864	5.15
672.895	-7.85
672.926	-2.85
672.957	0.15
672.989	-12.85
673.02	9.15
673.051	-7.85
673.082	10.15
673.113	15.15
673.144	14.15
673.175	2.15
673.206	-8.85
673.238	-9.85
673.269	13.15
673.3	-2.85
673.331	14.15
673.362	1.15
673.393	2.15
673.424	6.15
673.455	17.15
673.487	-0.85
673.518	7.15
673.549	-0.85
673.58	2.15
673.611	3.15
673.642	4.15
673.673	-4.85
673.704	-0.85
673.735	-6.85
673.766	5.15
673.797	-3.85
673.828	11.15
673.86	-23.85
673.891	-5.85
673.922	3.15
673.953	7.15
673.984	7.15
674.015	7.15
674.046	7.15
674.077	9.15
674.108	0.15
674.139	3.15
674.17	-12.85
674.201	-10.85
674.232	-5.85
674.263	0.15
674.294	8.15
674.325	10.15
674.356	11.15
674.387	13.15
674.418	11.15
674.449	-9.85
674.48	-14.85
674.511	-2.85
674.542	6.15
674.573	-1.85
674.604	8.15
674.635	8.15
674.666	2.15
674.697	-0.85
674.728	-9.85
674.759	12.15
674.79	-8.85
674.821	-11.85
674.852	9.15
674.883	9.15
674.914	-1.85
674.945	-0.85
674.976	-15.85
675.007	-0.85
675.038	-9.85
675.069	-8.85
675.1	2.15
675.131	16.15
675.162	-5.85
675.193	-5.85
675.224	15.15
675.254	19.15
675.285	9.15
675.316	15.15
675.347	10.15
675.378	-6.85
675.409	-0.85
675.44	6.15
675.471	-3.85
675.502	-12.85
675.533	-9.85
675.564	5.15
675.595	-0.85
675.625	23.15
675.656	7.15
675.687	-9.85
675.718	-16.85
675.749	8.15
675.78	0.15
675.811	5.15
675.842	11.15
675.873	9.15
675.903	-4.85
675.934	6.15
675.965	6.15
675.996	3.15
676.027	6.15
676.058	0.15
676.089	6.15
676.119	8.15
676.15	-0.85
676.181	6.15
676.212	5.15
676.243	11.15
676.274	12.15
676.304	22.15
676.335	-3.85
676.366	7.15
676.397	9.15
676.428	-4.85
676.459	12.15
676.489	-0.85
676.52	8.15
676.551	-8.85
676.582	3.15
676.613	4.15
676.643	-18.85
676.674	16.15
676.705	2.15
676.736	20.15
676.767	32.15
676.797	10.15
676.828	11.15
676.859	7.15
676.89	0.15
676.92	6.15
676.951	9.15
676.982	3.15
677.013	-7.85
677.044	0.15
677.074	-8.85
677.105	-10.85
677.136	-1.85
677.167	-4.85
677.197	7.15
677.228	7.15
677.259	2.15
677.289	1.15
677.32	-1.85
677.351	-9.85
677.382	-6.85
677.412	-5.85
677.443	22.15
677.474	4.15
677.505	-12.85
677.535	15.15
677.566	-1.85
677.597	0.15
677.627	-7.85
677.658	0.15
677.689	1.15
677.72	8.15
677.75	-12.85
677.781	10.15
677.812	-5.85
677.842	14.15
677.873	-7.85
677.904	3.15
677.934	5.15
677.965	14.15
677.996	-2.85
678.026	2.15
678.057	7.15
678.088	5.15
678.118	3.15
678.149	-1.85
678.18	-3.85
678.21	0.15
678.241	8.15
678.272	4.15
678.302	1.15
678.333	12.15
678.363	3.15
678.394	2.15
678.425	1.15
678.455	-8.85
678.486	15.15
678.517	13.15
678.547	6.15
678.578	5.15
678.608	-3.85
678.639	20.15
678.67	15.15
678.7	0.15
678.731	-0.85
678.761	-5.85
678.792	4.15
678.823	-0.85
678.853	6.15
678.884	-2.85
678.914	10.15
678.945	6.15
678.975	-9.85
679.006	-6.85
679.037	-17.85
679.067	29.15
679.098	0.15
679.128	6.15
679.159	-8.85
679.189	7.15
679.22	-5.85
679.25	2.15
679.281	4.15
679.312	1.15
679.342	7.15
679.373	15.15
679.403	10.15
679.434	4.15
679.464	-6.85
679.495	4.15
679.525	5.15
679.556	-12.85
679.586	-0.85
679.617	5.15
679.647	-12.85
679.678	7.15
679.708	-4.85
679.739	-9.85
679.769	-6.85
679.8	-7.85
679.83	17.15
679.861	4.15
679.891	-8.85
679.922	-16.85
679.952	6.15
679.983	13.15
680.013	11.15
680.044	-8.85
680.074	6.15
680.105	8.15
680.135	0.15
680.165	-0.85
680.196	11.15
680.226	2.15
680.257	9.15
680.287	4.15
680.318	2.15
680.348	-15.85
680.379	2.15
680.409	-2.85
680.439	-3.85
680.47	2.15
680.5	6.15
680.531	2.15
680.561	9.15
680.592	22.15
680.622	24.15
680.652	2.15
680.683	5.15
680.713	8.15
680.744	13.15
680.774	0.15
680.804	18.15
680.835	-6.85
680.865	-22.85
680.896	11.15
680.926	14.15
680.956	4.15
680.987	6.15
681.017	-1.85
681.047	13.15
681.078	3.15
681.108	-2.85
681.139	-3.85
681.169	10.15
681.199	-2.85
681.23	1.15
681.26	6.15
681.29	-2.85
681.321	5.15
681.351	6.15
681.381	-20.85
681.412	7.15
681.442	14.15
681.472	20.15
681.503	18.15
681.533	7.15
681.563	-5.85
681.594	-0.85
681.624	19.15
681.654	-7.85
681.685	5.15
681.715	9.15
681.745	9.15
681.775	9.15
681.806	8.15
681.836	-0.85
681.866	4.15
681.897	14.15
681.927	7.15
681.957	-20.85
681.987	-0.85
682.018	-8.85
682.048	-3.85
682.078	11.15
682.109	5.15
682.139	14.15
682.169	14.15
682.199	3.15
682.23	-20.85
682.26	-9.85
682.29	-3.85
682.32	4.15
682.351	1.15
682.381	0.15
682.411	-4.85
682.441	-8.85
682.472	1.15
682.502	-5.85
682.532	-8.85
682.562	-17.85
682.592	-3.85
682.623	12.15
682.653	5.15
682.683	5.15
682.713	-5.85
682.743	0.15
682.774	-8.85
682.804	-1.85
682.834	0.15
682.864	3.15
682.894	4.15
682.925	0.15
682.955	13.15
682.985	-1.85
683.015	14.15
683.045	14.15
683.076	1.15
683.106	-3.85
683.136	-1.85
683.166	-3.85
683.196	-7.85
683.226	6.15
683.257	-7.85
683.287	-0.85
683.317	-5.85
683.347	-13.85
683.377	4.15
683.407	6.15
683.437	18.15
683.468	0.15
683.498	-11.85
683.528	-3.85
683.558	9.15
683.588	0.15
683.618	-12.85
683.648	7.15
683.678	12.15
683.708	3.15
683.739	13.15
683.769	8.15
683.799	2.15
683.829	18.15
683.859	-8.85
683.889	-2.85
683.919	-1.85
683.949	1.15
683.979	10.15
684.009	3.15
684.039	3.15
684.07	-12.85
684.1	11.15
684.13	-3.85
684.16	9.15
684.19	2.15
684.22	-2.85
684.25	-11.85
684.28	-4.85
684.31	15.15
684.34	5.15
684.37	-11.85
684.4	9.15
684.43	10.15
684.46	-1.85
684.49	4.15
684.52	6.15
684.55	14.15
684.58	14.15
684.61	1.15
684.64	6.15
684.67	15.15
684.7	4.15
684.73	-5.85
684.76	-16.85
684.79	20.15
684.82	-2.85
684.85	-15.85
684.88	-10.85
684.91	-1.85
684.94	3.15
684.97	-10.85
685	-2.85
685.03	10.15
685.06	-0.85
685.09	1.15
685.12	21.15
685.15	-8.85
685.18	-3.85
685.21	13.15
685.24	9.15
685.27	17.15
685.3	-5.85
685.33	0.15
685.36	0.15
685.39	1.15
685.42	-15.85
685.45	5.15
685.48	2.15
685.51	-14.85
685.54	19.15
685.569	20.15
685.599	-2.85
685.629	-9.85
685.659	9.15
685.689	-0.85
685.719	13.15
685.749	-0.85
685.779	10.15
685.809	16.15
685.839	1.15
685.869	8.15
685.898	22.15
685.928	11.15
685.958	-6.85
685.988	25.15
686.018	2.15
686.048	2.15
686.078	15.15
686.108	25.15
686.137	18.15
686.167	30.15
686.197	-12.85
686.227	6.15
686.257	37.15
686.287	34.15
686.317	14.15
686.346	-6.85
686.376	-10.85
686.406	1.15
686.436	6.15
686.466	4.15
686.496	19.15
686.525	0.15
686.555	-0.85
686.585	15.15
686.615	31.15
686.645	11.15
686.675	7.15
686.704	13.15
686.734	5.15
686.764	-6.85
686.794	8.15
686.824	3.15
686.853	15.15
686.883	11.15
686.913	8.15
686.943	2.15
686.973	-4.85
687.002	16.15
687.032	15.15
687.062	-10.85
687.092	4.15
687.121	2.15
687.151	7.15
687.181	7.15
687.211	-6.85
687.24	-0.85
687.27	-11.85
687.3	-6.85
687.33	11.15
687.359	-3.85
687.389	12.15
687.419	11.15
687.449	10.15
687.478	9.15
687.508	10.15
687.538	14.15
687.568	12.15
687.597	-0.85
687.627	7.15
687.657	-2.85
687.686	1.15
687.716	17.15
687.746	-1.85
687.776	-6.85
687.805	14.15
687.835	0.15
687.865	20.15
687.894	20.15
687.924	4.15
687.954	-1.85
687.983	-1.85
688.013	26.15
688.043	23.15
688.072	1.15
688.102	14.15
688.132	3.15
688.161	1.15
688.191	-3.85
688.221	17.15
688.25	6.15
688.28	3.15
688.31	3.15
688.339	1.15
688.369	-3.85
688.399	6.15
688.428	-6.85
688.458	0.15
688.488	-1.85
688.517	12.15
688.547	-9.85
688.576	32.15
688.606	10.15
688.636	5.15
688.665	9.15
688.695	14.15
688.725	15.15
688.754	7.15
688.784	12.15
688.813	13.15
688.843	-11.85
688.873	9.15
688.902	-2.85
688.932	2.15
688.961	11.15
688.991	27.15
689.02	19.15
689.05	6.15
689.08	25.15
689.109	8.15
689.139	-2.85
689.168	8.15
689.198	17.15
689.227	5.15
689.257	5.15
689.287	7.15
689.316	-10.85
689.346	-24.85
689.375	-15.85
689.405	5.15
689.434	-2.85
689.464	8.15
689.493	8.15
689.523	-8.85
689.552	2.15
689.582	0.15
689.611	0.15
689.641	6.15
689.67	14.15
689.7	11.15
689.73	22.15
689.759	-2.85
689.789	14.15
689.818	8.15
689.848	5.15
689.877	4.15
689.906	10.15
689.936	-9.85
689.965	2.15
689.995	-0.85
690.024	4.15
690.054	-10.85
690.083	-3.85
690.113	9.15
690.142	1.15
690.172	2.15
690.201	-4.85
690.231	15.15
690.26	29.15
690.29	3.15
690.319	19.15
690.348	2.15
690.378	-1.85
690.407	3.15
690.437	-6.85
690.466	10.15
690.496	0.15
690.525	20.15
690.555	-1.85
690.584	9.15
690.613	1.15
690.643	-5.85
690.672	4.15
690.702	11.15
690.731	1.15
690.76	7.15
690.79	-6.85
690.819	-5.85
690.849	3.15
690.878	-10.85
690.907	9.15
690.937	10.15
690.966	5.15
690.996	6.15
691.025	11.15
691.054	8.15
691.084	12.15
691.113	8.15
691.142	-1.85
691.172	5.15
691.201	16.15
691.23	4.15
691.26	21.15
691.289	5.15
691.319	-2.85
691.348	1.15
691.377	8.15
691.407	2.15
691.436	21.15
691.465	12.15
691.495	7.15
691.524	8.15
691.553	9.15
691.583	11.15
691.612	28.15
691.641	7.15
691.67	16.15
691.7	17.15
691.729	-15.85
691.758	15.15
691.788	10.15
691.817	0.15
691.846	4.15
691.876	-0.85
691.905	21.15
691.934	-1.85
691.963	7.15
691.993	25.15
692.022	-6.85
692.051	-6.85
692.081	20.15
692.11	26.15
692.139	8.15
692.168	8.15
692.198	14.15
692.227	17.15
692.256	13.15
692.285	7.15
692.315	-7.85
692.344	-2.85
692.373	-3.85
692.402	-5.85
692.432	-16.85
692.461	-4.85
692.49	0.15
692.519	-5.85
692.548	23.15
692.578	3.15
692.607	6.15
692.636	-1.85
692.665	21.15
692.694	9.15
692.724	9.15
692.753	-0.85
692.782	29.15
692.811	9.15
692.84	10.15
692.87	6.15
692.899	4.15
692.928	-5.85
692.957	0.15
692.986	24.15
693.016	10.15
693.045	22.15
693.074	-3.85
693.103	2.15
693.132	-1.85
693.161	10.15
693.191	1.15
693.22	-8.85
693.249	9.15
693.278	-6.85
693.307	13.15
693.336	-1.85
693.365	-3.85
693.395	0.15
693.424	6.15
693.453	16.15
693.482	-5.85
693.511	13.15
693.54	0.15
693.569	9.15
693.598	-0.85
693.628	21.15
693.657	25.15
693.686	18.15
693.715	13.15
693.744	5.15
693.773	16.15
693.802	-6.85
693.831	2.15
693.86	22.15
693.889	3.15
693.919	2.15
693.948	-2.85
693.977	13.15
694.006	6.15
694.035	3.15
694.064	-1.85
694.093	5.15
694.122	1.15
694.151	-0.85
694.18	21.15
694.209	19.15
694.238	8.15
694.267	13.15
694.296	13.15
694.325	8.15
694.354	22.15
694.383	17.15
694.412	10.15
694.441	19.15
694.471	-6.85
694.5	0.15
694.529	16.15
694.558	23.15
694.587	18.15
694.616	11.15
694.645	28.15
694.674	15.15
694.703	20.15
694.732	16.15
694.761	26.15
694.79	9.15
694.819	-3.85
694.848	-9.85
694.877	26.15
694.906	13.15
694.935	9.15
694.963	18.15
694.992	-2.85
695.021	-1.85
695.05	7.15
695.079	13.15
695.108	1.15
695.137	16.15
695.166	15.15
695.195	-15.85
695.224	10.15
695.253	5.15
695.282	6.15
695.311	5.15
695.34	14.15
695.369	14.15
695.398	3.15
695.427	29.15
695.456	4.15
695.485	3.15
695.513	14.15
695.542	10.15
695.571	-9.85
695.6	16.15
695.629	5.15
695.658	3.15
695.687	11.15
695.716	17.15
695.745	18.15
695.774	-2.85
695.802	4.15
695.831	12.15
695.86	21.15
695.889	17.15
695.918	13.15
695.947	1.15
695.976	5.15
696.005	7.15
696.033	7.15
696.062	20.15
696.091	6.15
696.12	11.15
696.149	20.15
696.178	-0.85
696.207	7.15
696.235	-7.85
696.264	11.15
696.293	9.15
696.322	3.15
696.351	12.15
696.38	-2.85
696.408	12.15
696.437	-7.85
696.466	9.15
696.495	9.15
696.524	15.15
696.553	7.15
696.581	10.15
696.61	-2.85
696.639	1.15
696.668	-8.85
696.697	-6.85
696.725	19.15
696.754	19.15
696.783	3.15
696.812	4.15
696.84	10.15
696.869	17.15
696.898	4.15
696.927	1.15
696.956	18.15
696.984	3.15
697.013	-7.85
697.042	9.15
697.071	5.15
697.099	25.15
697.128	13.15
697.157	7.15
697.186	8.15
697.214	12.15
697.243	-5.85
697.272	1.15
697.301	10.15
697.329	-5.85
697.358	5.15
697.387	20.15
697.415	-7.85
697.444	-4.85
697.473	-2.85
697.502	4.15
697.53	9.15
697.559	10.15
697.588	14.15
697.616	2.15
697.645	-0.85
697.674	10.15
697.703	-5.85
697.731	4.15
697.76	16.15
697.789	-6.85
697.817	2.15
697.846	27.15
697.875	4.15
697.903	36.15
697.932	34.15
697.961	8.15
697.989	11.15
698.018	3.15
698.047	-1.85
698.075	17.15
698.104	6.15
698.133	19.15
698.161	1.15
698.19	2.15
698.218	11.15
698.247	13.15
698.276	7.15
698.304	17.15
698.333	14.15
698.362	9.15
698.39	0.15
698.419	14.15
698.447	13.15
698.476	15.15
698.505	10.15
698.533	17.15
698.562	15.15
698.591	10.15
698.619	-10.85
698.648	-6.85
698.676	15.15
698.705	13.15
698.733	3.15
698.762	26.15
698.791	14.15
698.819	6.15
698.848	-5.85
698.876	5.15
698.905	12.15
698.933	14.15
698.962	9.15
698.991	3.15
699.019	14.15
699.048	7.15
699.076	10.15
699.105	-2.85
699.133	1.15
699.162	7.15
699.19	11.15
699.219	2.15
699.248	4.15
699.276	3.15
699.305	-3.85
699.333	17.15
699.362	13.15
699.39	18.15
699.419	1.15
699.447	11.15
699.476	15.15
699.504	0.15
699.533	1.15
699.561	-11.85
699.59	1.15
699.618	6.15
699.647	-8.85
699.675	15.15
699.704	8.15
699.732	10.15
699.761	23.15
699.789	-0.85
699.818	27.15
699.846	-1.85
699.874	1.15
699.903	6.15
699.931	-9.85
699.96	-6.85
699.988	-1.85
700.017	-2.85
700.045	5.15
700.074	7.15
700.102	6.15
700.13	7.15
700.159	5.15
700.187	20.15
700.216	13.15
700.244	5.15
700.273	-8.85
700.301	25.15
700.329	16.15
700.358	6.15
700.386	-0.85
700.415	-5.85
700.443	16.15
700.472	-6.85
700.5	1.15
700.528	6.15
700.557	5.15
700.585	6.15
700.614	12.15
700.642	13.15
700.67	21.15
700.699	24.15
700.727	3.15
700.755	3.15
700.784	2.15
700.812	14.15
700.841	16.15
700.869	-4.85
700.897	-8.85
700.926	-0.85
700.954	9.15
700.982	1.15
701.011	-8.85
701.039	2.15
701.067	8.15
701.096	8.15
701.124	0.15
701.152	22.15
701.181	-1.85
701.209	-7.85
701.237	1.15
701.266	7.15
701.294	1.15
701.322	12.15
701.351	14.15
701.379	-6.85
701.407	-6.85
701.435	6.15
701.464	21.15
701.492	20.15
701.52	-4.85
701.549	-6.85
701.577	-0.85
701.605	4.15
701.634	9.15
701.662	21.15
701.69	-10.85
701.718	-6.85
701.747	-0.85
701.775	-1.85
701.803	6.15
701.831	16.15
701.86	-11.85
701.888	2.15
701.916	6.15
701.944	7.15
701.973	-1.85
702.001	-1.85
702.029	2.15
702.057	0.15
702.086	-6.85
702.114	-5.85
702.142	10.15
702.17	-3.85
702.199	-0.85
702.227	-0.85
702.255	-3.85
702.283	-16.85
702.311	8.15
702.34	-0.85
702.368	-6.85
702.396	-4.85
702.424	9.15
702.452	1.15
702.481	3.15
702.509	5.15
702.537	4.15
702.565	6.15
702.593	-13.85
702.621	-6.85
702.65	16.15
702.678	16.15
702.706	19.15
702.734	-3.85
702.762	16.15
702.79	11.15
702.819	5.15
702.847	4.15
702.875	10.15
702.903	-2.85
702.931	1.15
702.959	8.15
702.988	-2.85
703.016	-6.85
703.044	-0.85
703.072	-6.85
703.1	3.15
703.128	-5.85
703.156	-0.85
703.184	12.15
703.212	34.15
703.241	6.15
703.269	3.15
703.297	3.15
703.325	14.15
703.353	-16.85
703.381	7.15
703.409	8.15
703.437	10.15
703.465	4.15
703.493	-13.85
703.522	19.15
703.55	7.15
703.578	15.15
703.606	-3.85
703.634	-3.85
703.662	-4.85
703.69	9.15
703.718	8.15
703.746	25.15
703.774	7.15
703.802	17.15
703.83	4.15
703.858	-2.85
703.886	-17.85
703.914	4.15
703.942	8.15
703.97	0.15
703.998	10.15
704.027	19.15
704.055	13.15
704.083	2.15
704.111	-11.85
704.139	11.15
704.167	1.15
704.195	1.15
704.223	2.15
704.251	-0.85
704.279	9.15
704.307	0.15
704.335	-6.85
704.363	5.15
704.391	11.15
704.419	0.15
704.447	-4.85
704.475	0.15
704.503	-4.85
704.531	20.15
704.558	4.15
704.586	-0.85
704.614	-5.85
704.642	2.15
704.67	-14.85
704.698	9.15
704.726	12.15
704.754	7.15
704.782	1.15
704.81	16.15
704.838	26.15
704.866	7.15
704.894	1.15
704.922	-3.85
704.95	-0.85
704.978	23.15
705.006	8.15
705.034	-3.85
705.061	-10.85
705.089	-4.85
705.117	-2.85
705.145	-9.85
705.173	3.15
705.201	-1.85
705.229	18.15
705.257	2.15
705.285	-0.85
705.313	-2.85
705.34	5.15
705.368	-7.85
705.396	14.15
705.424	17.15
705.452	-8.85
705.48	-1.85
705.508	-7.85
705.536	4.15
705.563	19.15
705.591	15.15
705.619	3.15
705.647	3.15
705.675	2.15
705.703	18.15
705.731	6.15
705.758	13.15
705.786	5.15
705.814	10.15
705.842	-5.85
705.87	10.15
705.898	19.15
705.925	4.15
705.953	-6.85
705.981	-12.85
706.009	-4.85
706.037	-2.85
706.065	-7.85
706.092	-4.85
706.12	-2.85
706.148	-6.85
706.176	4.15
706.204	25.15
706.231	14.15
706.259	-1.85
706.287	12.15
706.315	14.15
706.342	0.15
706.37	-0.85
706.398	-6.85
706.426	-6.85
706.454	-0.85
706.481	9.15
706.509	8.15
706.537	0.15
706.565	-1.85
706.592	6.15
706.62	-14.85
706.648	17.15
706.676	3.15
706.703	2.15
706.731	-3.85
706.759	-12.85
706.787	0.15
706.814	12.15
706.842	19.15
706.87	14.15
706.897	5.15
706.925	15.15
706.953	19.15
706.981	20.15
707.008	12.15
707.036	8.15
707.064	-4.85
707.091	-3.85
707.119	9.15
707.147	3.15
707.174	1.15
707.202	-2.85
707.23	-9.85
707.258	14.15
707.285	-5.85
707.313	-5.85
707.341	-1.85
707.368	-27.85
707.396	4.15
707.424	2.15
707.451	10.15
707.479	14.15
707.507	8.15
707.534	-0.85
707.562	1.15
707.59	-7.85
707.617	-4.85
707.645	-4.85
707.672	5.15
707.7	1.15
707.728	10.15
707.755	4.15
707.783	3.15
707.811	10.15
707.838	8.15
707.866	18.15
707.893	4.15
707.921	-1.85
707.949	-10.85
707.976	9.15
708.004	10.15
708.031	8.15
708.059	0.15
708.087	6.15
708.114	-3.85
708.142	-3.85
708.169	1.15
708.197	-7.85
708.225	1.15
708.252	-12.85
708.28	-2.85
708.307	4.15
708.335	1.15
708.362	-14.85
708.39	-11.85
708.418	-5.85
708.445	-13.85
708.473	-16.85
708.5	8.15
708.528	11.15
708.555	2.15
708.583	-3.85
708.61	-5.85
708.638	-0.85
708.665	4.15
708.693	6.15
708.72	-2.85
708.748	-4.85
708.776	5.15
708.803	19.15
708.831	16.15
708.858	10.15
708.886	14.15
708.913	6.15
708.941	3.15
708.968	14.15
708.996	-9.85
709.023	28.15
709.051	17.15
709.078	-1.85
709.105	9.15
709.133	-0.85
709.16	-1.85
709.188	7.15
709.215	1.15
709.243	3.15
709.27	-11.85
709.298	-7.85
709.325	4.15
709.353	13.15
709.38	2.15
709.408	2.15
709.435	11.15
709.462	9.15
709.49	-12.85
709.517	-1.85
709.545	3.15
709.572	4.15
709.6	6.15
709.627	6.15
709.655	3.15
709.682	-17.85
709.709	2.15
709.737	13.15
709.764	11.15
709.792	2.15
709.819	-8.85
709.846	-4.85
709.874	-3.85
709.901	9.15
709.929	11.15
709.956	11.15
709.983	-4.85
710.011	5.15
710.038	-3.85
710.066	4.15
710.093	8.15
710.12	10.15
710.148	-4.85
710.175	-9.85
710.202	-11.85
710.23	14.15
710.257	-3.85
710.284	23.15
710.312	4.15
710.339	-16.85
710.366	-10.85
710.394	-3.85
710.421	2.15
710.448	11.15
710.476	-7.85
710.503	-2.85
710.53	25.15
710.558	29.15
710.585	8.15
710.612	1.15
710.64	1.15
710.667	3.15
710.694	-4.85
710.722	-9.85
710.749	-7.85
710.776	7.15
710.804	25.15
710.831	13.15
710.858	12.15
710.885	2.15
710.913	0.15
710.94	16.15
710.967	28.15
710.995	7.15
711.022	2.15
711.049	0.15
711.076	-6.85
711.104	11.15
711.131	-10.85
711.158	-4.85
711.185	6.15
711.213	-4.85
711.24	-2.85
711.267	-4.85
711.294	-21.85
711.322	3.15
711.349	2.15
711.376	13.15
711.403	16.15
711.431	1.15
711.458	13.15
711.485	8.15
711.512	11.15
711.54	-0.85
711.567	-14.85
711.594	0.15
711.621	-2.85
711.648	-6.85
711.676	7.15
711.703	0.15
711.73	-10.85
711.757	12.15
711.784	-2.85
711.812	12.15
711.839	7.15
711.866	9.15
711.893	-9.85
711.92	-2.85
711.947	-0.85
711.975	-4.85
712.002	-15.85
712.029	10.15
712.056	19.15
712.083	12.15
712.11	-6.85
712.138	11.15
712.165	9.15
712.192	6.15
712.219	-1.85
712.246	-9.85
712.273	-2.85
712.3	4.15
712.328	8.15
712.355	1.15
712.382	-3.85
712.409	4.15
712.436	-10.85
712.463	15.15
712.49	17.15
712.517	-1.85
712.544	-14.85
712.572	9.15
712.599	2.15
712.626	13.15
712.653	15.15
712.68	-9.85
712.707	6.15
712.734	9.15
712.761	12.15
712.788	-1.85
712.815	21.15
712.842	7.15
712.87	-7.85
712.897	-7.85
712.924	-14.85
712.951	7.15
712.978	6.15
713.005	-4.85
713.032	14.15
713.059	2.15
713.086	-6.85
713.113	-15.85
713.14	-5.85
713.167	-1.85
713.194	9.15
713.221	-8.85
713.248	8.15
713.275	4.15
713.302	-1.85
713.329	11.15
713.356	17.15
713.383	-3.85
713.41	-2.85
713.437	-8.85
713.464	3.15
713.491	15.15
713.518	9.15
713.545	0.15
713.572	18.15
713.599	22.15
713.626	-6.85
713.653	13.15
713.68	-4.85
713.707	3.15
713.734	2.15
713.761	-0.85
713.788	4.15
713.815	29.15
713.842	12.15
713.869	9.15
713.896	23.15
713.923	3.15
713.95	-3.85
713.977	-3.85
714.004	3.15
714.031	6.15
714.058	-5.85
714.085	7.15
714.112	26.15
714.139	3.15
714.165	-8.85
714.192	-2.85
714.219	4.15
714.246	2.15
714.273	-4.85
714.3	1.15
714.327	1.15
714.354	15.15
714.381	15.15
714.408	-1.85
714.435	6.15
714.461	-1.85
714.488	17.15
714.515	-6.85
714.542	-9.85
714.569	1.15
714.596	0.15
714.623	-6.85
714.65	-10.85
714.677	16.15
714.703	11.15
714.73	11.15
714.757	11.15
714.784	11.15
714.811	-5.85
714.838	-4.85
714.865	3.15
714.891	11.15
714.918	9.15
714.945	-9.85
714.972	1.15
714.999	21.15
715.026	3.15
715.052	21.15
715.079	-5.85
715.106	-11.85
715.133	1.15
715.16	-9.85
715.187	5.15
715.213	11.15
715.24	-1.85
715.267	-1.85
715.294	4.15
715.321	5.15
715.347	-0.85
715.374	1.15
715.401	-1.85
715.428	-0.85
715.455	1.15
715.481	5.15
715.508	27.15
715.535	2.15
715.562	26.15
715.588	6.15
715.615	3.15
715.642	-0.85
715.669	10.15
715.695	-5.85
715.722	-9.85
715.749	11.15
715.776	-3.85
715.802	12.15
715.829	2.15
715.856	-0.85
715.883	12.15
715.909	-4.85
715.936	-3.85
715.963	5.15
715.99	-12.85
716.016	5.15
716.043	1.15
716.07	-7.85
716.096	8.15
716.123	-4.85
716.15	-6.85
716.177	-4.85
716.203	5.15
716.23	3.15
716.257	-7.85
716.283	14.15
716.31	2.15
716.337	7.15
716.363	3.15
716.39	-3.85
716.417	1.15
716.443	4.15
716.47	9.15
716.497	7.15
716.523	9.15
716.55	7.15
716.577	16.15
716.603	-1.85
716.63	-0.85
716.657	14.15
716.683	-8.85
716.71	-5.85
716.737	-4.85
716.763	14.15
716.79	8.15
716.817	13.15
716.843	1.15
716.87	5.15
716.897	3.15
716.923	24.15
716.95	-0.85
716.976	-12.85
717.003	-0.85
717.03	3.15
717.056	0.15
717.083	-4.85
717.109	10.15
717.136	8.15
717.163	2.15
717.189	4.15
717.216	-3.85
717.242	-4.85
717.269	3.15
717.296	6.15
717.322	24.15
717.349	21.15
717.375	6.15
717.402	-8.85
717.428	4.15
717.455	10.15
717.481	0.15
717.508	30.15
717.535	18.15
717.561	17.15
717.588	1.15
717.614	1.15
717.641	12.15
717.667	2.15
717.694	-5.85
717.72	10.15
717.747	3.15
717.773	-1.85
717.8	14.15
717.826	13.15
717.853	2.15
717.88	13.15
717.906	6.15
717.933	-0.85
717.959	4.15
717.986	17.15
718.012	-4.85
718.039	12.15
718.065	12.15
718.092	20.15
718.118	2.15
718.144	1.15
718.171	3.15
718.197	30.15
718.224	6.15
718.25	3.15
718.277	13.15
718.303	9.15
718.33	5.15
718.356	-6.85
718.383	-6.85
718.409	5.15
718.436	1.15
718.462	-1.85
718.489	-0.85
718.515	25.15
718.541	2.15
718.568	0.15
718.594	5.15
718.621	37.15
718.647	17.15
718.674	9.15
718.7	-5.85
718.726	-5.85
718.753	16.15
718.779	7.15
718.806	-0.85
718.832	13.15
718.858	16.15
718.885	0.15
718.911	10.15
718.938	18.15
718.964	11.15
718.99	6.15
719.017	11.15
719.043	12.15
719.07	2.15
719.096	-4.85
719.122	27.15
719.149	-4.85
719.175	7.15
719.201	-13.85
719.228	-0.85
719.254	-4.85
719.281	-3.85
719.307	0.15
719.333	5.15
719.36	-0.85
719.386	-5.85
719.412	-1.85
719.439	-16.85
719.465	16.15
719.491	4.15
719.518	9.15
719.544	5.15
719.57	21.15
719.597	2.15
719.623	-6.85
719.649	6.15
719.675	10.15
719.702	12.15
719.728	11.15
719.754	-9.85
719.781	12.15
719.807	1.15
719.833	-0.85
719.86	-7.85
719.886	-4.85
719.912	9.15
719.938	14.15
719.965	-3.85
719.991	13.15
720.017	19.15
720.044	-1.85
720.07	10.15
720.096	20.15
720.122	1.15
720.149	0.15
720.175	25.15
720.201	-4.85
720.227	5.15
720.254	13.15
720.28	10.15
720.306	5.15
720.332	2.15
720.359	10.15
720.385	1.15
720.411	7.15
720.437	8.15
720.463	-1.85
720.49	25.15
720.516	-9.85
720.542	-0.85
720.568	11.15
720.595	17.15
720.621	7.15
720.647	1.15
720.673	5.15
720.699	3.15
720.725	5.15
720.752	13.15
720.778	15.15
720.804	7.15
720.83	6.15
720.856	6.15
720.883	5.15
720.909	9.15
720.935	16.15
720.961	15.15
720.987	12.15
721.013	5.15
721.04	-7.85
721.066	-3.85
721.092	4.15
721.118	10.15
721.144	3.15
721.17	-3.85
721.196	5.15
721.223	-4.85
721.249	5.15
721.275	11.15
721.301	18.15
721.327	12.15
721.353	17.15
721.379	15.15
721.405	6.15
721.432	15.15
721.458	-8.85
721.484	19.15
721.51	-4.85
721.536	8.15
721.562	0.15
721.588	3.15
721.614	-2.85
721.64	6.15
721.666	-12.85
721.693	2.15
721.719	22.15
721.745	-3.85
721.771	-3.85
721.797	-1.85
721.823	-0.85
721.849	22.15
721.875	2.15
721.901	7.15
721.927	12.15
721.953	6.15
721.979	16.15
722.005	15.15
722.031	2.15
722.057	16.15
722.083	-1.85
722.109	16.15
722.135	7.15
722.161	10.15
722.187	-17.85
722.214	-12.85
722.24	6.15
722.266	-3.85
722.292	3.15
722.318	2.15
722.344	9.15
722.37	1.15
722.396	10.15
722.422	13.15
722.448	-4.85
722.474	-27.85
722.5	14.15
722.526	22.15
722.552	12.15
722.578	6.15
722.603	14.15
722.629	-4.85
722.655	-0.85
722.681	-0.85
722.707	-7.85
722.733	-4.85
722.759	-2.85
722.785	-7.85
722.811	-8.85
722.837	-9.85
722.863	16.15
722.889	20.15
722.915	13.15
722.941	-5.85
722.967	-2.85
722.993	3.15
723.019	-1.85
723.045	-1.85
723.071	-5.85
723.097	1.15
723.122	7.15
723.148	-9.85
723.174	-4.85
723.2	4.15
723.226	6.15
723.252	-0.85
723.278	-8.85
723.304	-4.85
723.33	-1.85
723.356	-2.85
723.381	-8.85
723.407	-10.85
723.433	11.15
723.459	-1.85
723.485	-5.85
723.511	5.15
723.537	-5.85
723.563	9.15
723.588	-3.85
723.614	22.15
723.64	3.15
723.666	1.15
723.692	7.15
723.718	7.15
723.744	6.15
723.769	11.15
723.795	5.15
723.821	11.15
723.847	-4.85
723.873	16.15
723.899	11.15
723.924	-4.85
723.95	-5.85
723.976	-16.85
724.002	20.15
724.028	10.15
724.053	-2.85
724.079	-2.85
724.105	-6.85
724.131	-3.85
724.157	-0.85
724.182	-3.85
724.208	-5.85
724.234	-0.85
724.26	-0.85
724.286	9.15
724.311	5.15
724.337	-0.85
724.363	-2.85
724.389	-4.85
724.415	3.15
724.44	17.15
724.466	-5.85
724.492	-5.85
724.518	-3.85
724.543	11.15
724.569	6.15
724.595	13.15
724.621	-0.85
724.646	4.15
724.672	1.15
724.698	5.15
724.723	-11.85
724.749	21.15
724.775	2.15
724.801	3.15
724.826	-11.85
724.852	4.15
724.878	-2.85
724.904	-12.85
724.929	3.15
724.955	-8.85
724.981	5.15
725.006	13.15
725.032	10.15
725.058	11.15
725.083	8.15
725.109	4.15
725.135	10.15
725.161	11.15
725.186	-4.85
725.212	-2.85
725.238	7.15
725.263	-1.85
725.289	-6.85
725.315	-20.85
725.34	9.15
725.366	18.15
725.392	-2.85
725.417	1.15
725.443	-6.85
725.468	22.15
725.494	12.15
725.52	25.15
725.545	7.15
725.571	1.15
725.597	-12.85
725.622	-3.85
725.648	7.15
725.674	16.15
725.699	9.15
725.725	7.15
725.75	25.15
725.776	-3.85
725.802	1.15
725.827	12.15
725.853	13.15
725.878	1.15
725.904	-11.85
725.93	-9.85
725.955	-18.85
725.981	-1.85
726.006	0.15
726.032	2.15
726.057	-5.85
726.083	-9.85
726.109	-0.85
726.134	5.15
726.16	10.15
726.185	-9.85
726.211	-9.85
726.236	8.15
726.262	7.15
726.288	16.15
726.313	17.15
726.339	9.15
726.364	11.15
726.39	21.15
726.415	-10.85
726.441	-11.85
726.466	-22.85
726.492	-2.85
726.517	7.15
726.543	-3.85
726.568	-5.85
726.594	-6.85
726.619	-2.85
726.645	15.15
726.67	5.15
726.696	11.15
726.721	4.15
726.747	1.15
726.772	-6.85
726.798	2.15
726.823	7.15
726.849	-9.85
726.874	18.15
726.9	26.15
726.925	11.15
726.951	10.15
726.976	10.15
727.002	-5.85
727.027	-2.85
727.053	19.15
727.078	-6.85
727.104	1.15
727.129	3.15
727.155	-10.85
727.18	7.15
727.205	-9.85
727.231	-5.85
727.256	-0.85
727.282	-5.85
727.307	6.15
727.333	-1.85
727.358	-6.85
727.383	4.15
727.409	-9.85
727.434	-1.85
727.46	-12.85
727.485	0.15
727.511	-3.85
727.536	-11.85
727.561	-2.85
727.587	5.15
727.612	-6.85
727.637	-1.85
727.663	1.15
727.688	15.15
727.714	4.15
727.739	-1.85
727.764	-0.85
727.79	-1.85
727.815	6.15
727.841	8.15
727.866	12.15
727.891	18.15
727.917	-6.85
727.942	-9.85
727.967	-5.85
727.993	-4.85
728.018	1.15
728.043	8.15
728.069	0.15
728.094	12.15
728.119	-3.85
728.145	38.15
728.17	17.15
728.195	-2.85
728.221	11.15
728.246	-5.85
728.271	-15.85
728.297	-9.85
728.322	-2.85
728.347	3.15
728.373	6.15
728.398	11.15
728.423	7.15
728.448	9.15
728.474	7.15
728.499	9.15
728.524	5.15
728.55	-10.85
728.575	1.15
728.6	-1.85
728.625	-3.85
728.651	9.15
728.676	18.15
728.701	7.15
728.727	-10.85
728.752	-2.85
728.777	-5.85
728.802	1.15
728.828	14.15
728.853	-2.85
728.878	-0.85
728.903	-13.85
728.929	-4.85
728.954	-5.85
728.979	14.15
729.004	8.15
729.03	-6.85
729.055	30.15
729.08	1.15
729.105	-4.85
729.13	14.15
729.156	14.15
729.181	2.15
729.206	-14.85
729.231	-6.85
729.256	11.15
729.282	-3.85
729.307	-6.85
729.332	-20.85
729.357	-19.85
729.382	-4.85
729.408	8.15
729.433	3.15
729.458	-4.85
729.483	13.15
729.508	12.15
729.533	1.15
729.559	-17.85
729.584	-15.85
729.609	-0.85
729.634	16.15
729.659	-12.85
729.684	-10.85
729.71	10.15
729.735	0.15
729.76	-12.85
729.785	2.15
729.81	16.15
729.835	-5.85
729.86	1.15
729.886	-7.85
729.911	-5.85
729.936	1.15
729.961	2.15
729.986	-2.85
730.011	13.15
730.036	-0.85
730.061	9.15
730.086	4.15
730.112	23.15
730.137	26.15
730.162	3.15
730.187	-9.85
730.212	5.15
730.237	0.15
730.262	-3.85
730.287	6.15
730.312	8.15
730.337	-1.85
730.362	8.15
730.387	16.15
730.413	-4.85
730.438	-3.85
730.463	17.15
730.488	-4.85
730.513	5.15
730.538	5.15
730.563	27.15
730.588	11.15
730.613	20.15
730.638	2.15
730.663	3.15
730.688	29.15
730.713	21.15
730.738	8.15
730.763	-13.85
730.788	-13.85
730.813	1.15
730.838	-10.85
730.863	2.15
730.888	-8.85
730.913	-14.85
730.938	-6.85
730.963	-1.85
730.988	6.15
731.013	-0.85
731.038	-3.85
731.063	3.15
731.088	-6.85
731.113	-6.85
731.138	-14.85
731.163	-5.85
731.188	11.15
731.213	1.15
731.238	-1.85
731.263	-3.85
731.288	-0.85
731.313	-4.85
731.338	1.15
731.363	-13.85
731.388	3.15
731.413	-14.85
731.438	-5.85
731.463	5.15
731.487	5.15
731.512	5.15
731.537	11.15
731.562	4.15
731.587	-13.85
731.612	-8.85
731.637	1.15
731.662	9.15
731.687	-6.85
731.712	-16.85
731.737	-0.85
731.762	-2.85
731.786	-2.85
731.811	5.15
731.836	-3.85
731.861	1.15
731.886	2.15
731.911	10.15
731.936	2.15
731.961	1.15
731.986	3.15
732.01	12.15
732.035	2.15
732.06	23.15
732.085	-4.85
732.11	-5.85
732.135	-9.85
732.16	-5.85
732.184	-1.85
732.209	6.15
732.234	-0.85
732.259	-6.85
732.284	3.15
732.309	-2.85
732.334	-8.85
732.358	-27.85
732.383	-13.85
732.408	-0.85
732.433	-2.85
732.458	-1.85
732.482	3.15
732.507	-0.85
732.532	-4.85
732.557	16.15
732.582	9.15
732.607	-1.85
732.631	-4.85
732.656	-2.85
732.681	-0.85
732.706	-4.85
732.73	-5.85
732.755	-4.85
732.78	0.15
732.805	7.15
732.83	-8.85
732.854	13.15
732.879	3.15
732.904	-15.85
732.929	-3.85
732.953	-3.85
732.978	14.15
733.003	0.15
733.028	-2.85
733.052	14.15
733.077	7.15
733.102	10.15
733.127	-0.85
733.151	-2.85
733.176	4.15
733.201	11.15
733.226	-7.85
733.25	5.15
733.275	-6.85
733.3	-4.85
733.324	0.15
733.349	8.15
733.374	17.15
733.399	-8.85
733.423	-1.85
733.448	-0.85
733.473	6.15
733.497	3.15
733.522	-13.85
733.547	12.15
733.571	9.15
733.596	3.15
733.621	4.15
733.646	-7.85
733.67	1.15
733.695	-21.85
733.72	-6.85
733.744	12.15
733.769	-10.85
733.794	11.15
733.818	5.15
733.843	11.15
733.867	-7.85
733.892	-5.85
733.917	-5.85
733.941	-5.85
733.966	-5.85
733.991	0.15
734.015	18.15
734.04	-1.85
734.065	18.15
734.089	19.15
734.114	-1.85
734.138	1.15
734.163	-3.85
734.188	9.15
734.212	14.15
734.237	-2.85
734.261	3.15
734.286	-9.85
734.311	-4.85
734.335	-1.85
734.36	2.15
734.384	-8.85
734.409	2.15
734.434	-0.85
734.458	7.15
734.483	-4.85
734.507	3.15
734.532	8.15
734.556	2.15
734.581	-5.85
734.606	2.15
734.63	-1.85
734.655	2.15
734.679	5.15
734.704	-7.85
734.728	7.15
734.753	8.15
734.777	6.15
734.802	2.15
734.826	-2.85
734.851	17.15
734.876	15.15
734.9	5.15
734.925	0.15
734.949	-2.85
734.974	-3.85
734.998	10.15
735.023	-4.85
735.047	-14.85
735.072	11.15
735.096	6.15
735.121	-0.85
735.145	-10.85
735.17	16.15
735.194	6.15
735.219	-0.85
735.243	1.15
735.268	8.15
735.292	9.15
735.317	-0.85
735.341	-1.85
735.365	-24.85
735.39	16.15
735.414	6.15
735.439	-1.85
735.463	8.15
735.488	4.15
735.512	7.15
735.537	2.15
735.561	9.15
735.586	10.15
735.61	5.15
735.634	4.15
735.659	13.15
735.683	22.15
735.708	7.15
735.732	-0.85
735.757	-0.85
735.781	1.15
735.805	-1.85
735.83	-10.85
735.854	-8.85
735.879	10.15
735.903	14.15
735.927	24.15
735.952	8.15
735.976	-1.85
736.001	4.15
736.025	4.15
736.049	-2.85
736.074	9.15
736.098	8.15
736.123	4.15
736.147	-1.85
736.171	-1.85
736.196	5.15
736.22	1.15
736.244	2.15
736.269	5.15
736.293	13.15
736.317	-0.85
736.342	5.15
736.366	31.15
736.39	16.15
736.415	-0.85
736.439	2.15
736.463	1.15
736.488	15.15
736.512	10.15
736.536	9.15
736.561	42.15
736.585	-1.85
736.609	14.15
736.634	5.15
736.658	-1.85
736.682	-8.85
736.707	-5.85
736.731	3.15
736.755	4.15
736.78	25.15
736.804	12.15
736.828	-2.85
736.852	5.15
736.877	3.15
736.901	18.15
736.925	2.15
736.949	6.15
736.974	4.15
736.998	3.15
737.022	-1.85
737.047	5.15
737.071	5.15
737.095	29.15
737.119	23.15
737.144	-0.85
737.168	7.15
737.192	-4.85
737.216	5.15
737.241	-1.85
737.265	5.15
737.289	-9.85
737.313	-13.85
737.337	8.15
737.362	-0.85
737.386	2.15
737.41	-4.85
737.434	7.15
737.459	-2.85
737.483	11.15
737.507	-0.85
737.531	9.15
737.555	14.15
737.58	6.15
737.604	-4.85
737.628	-16.85
737.652	-4.85
737.676	13.15
737.701	4.15
737.725	7.15
737.749	16.15
737.773	6.15
737.797	-14.85
737.821	-0.85
737.846	14.15
737.87	34.15
737.894	2.15
737.918	7.15
737.942	2.15
737.966	8.15
737.99	-1.85
738.015	-0.85
738.039	-9.85
738.063	-9.85
738.087	20.15
738.111	14.15
738.135	17.15
738.159	15.15
738.184	22.15
738.208	4.15
738.232	2.15
738.256	12.15
738.28	13.15
738.304	1.15
738.328	-0.85
738.352	2.15
738.376	2.15
738.4	11.15
738.425	7.15
738.449	-9.85
738.473	3.15
738.497	6.15
738.521	6.15
738.545	18.15
738.569	9.15
738.593	15.15
738.617	22.15
738.641	1.15
738.665	17.15
738.689	-0.85
738.713	5.15
738.737	9.15
738.762	21.15
738.786	22.15
738.81	-17.85
738.834	2.15
738.858	0.15
738.882	15.15
738.906	-5.85
738.93	-1.85
738.954	5.15
738.978	4.15
739.002	-0.85
739.026	12.15
739.05	4.15
739.074	-10.85
739.098	20.15
739.122	5.15
739.146	9.15
739.17	17.15
739.194	21.15
739.218	1.15
739.242	-21.85
739.266	-4.85
739.29	8.15
739.314	14.15
739.338	11.15
739.362	14.15
739.386	13.15
739.41	2.15
739.434	3.15
739.458	12.15
739.482	5.15
739.506	-1.85
739.53	3.15
739.554	21.15
739.577	11.15
739.601	17.15
739.625	-4.85
739.649	9.15
739.673	-8.85
739.697	17.15
739.721	12.15
739.745	1.15
739.769	20.15
739.793	9.15
739.817	20.15
739.841	-4.85
739.865	0.15
739.889	-0.85
739.912	5.15
739.936	-4.85
739.96	7.15
739.984	19.15
740.008	1.15
740.032	-6.85
740.056	-7.85
740.08	-1.85
740.104	1.15
740.127	12.15
740.151	18.15
740.175	23.15
740.199	5.15
740.223	56.15
740.247	10.15
740.271	3.15
740.295	-5.85
740.318	-7.85
740.342	-6.85
740.366	7.15
740.39	11.15
740.414	9.15
740.438	4.15
740.461	18.15
740.485	5.15
740.509	4.15
740.533	17.15
740.557	-2.85
740.581	-4.85
740.604	-19.85
740.628	-2.85
740.652	6.15
740.676	19.15
740.7	19.15
740.723	1.15
740.747	2.15
740.771	-2.85
740.795	14.15
740.819	7.15
740.842	-8.85
740.866	5.15
740.89	-1.85
740.914	-0.85
740.938	-5.85
740.961	18.15
740.985	14.15
741.009	-4.85
741.033	8.15
741.056	4.15
741.08	4.15
741.104	15.15
741.128	1.15
741.151	20.15
741.175	4.15
741.199	1.15
741.223	4.15
741.246	-10.85
741.27	10.15
741.294	8.15
741.318	-1.85
741.341	4.15
741.365	24.15
741.389	19.15
741.413	7.15
741.436	11.15
741.46	20.15
741.484	17.15
741.507	2.15
741.531	29.15
741.555	16.15
741.579	18.15
741.602	-2.85
741.626	2.15
741.65	5.15
741.673	22.15
741.697	2.15
741.721	-2.85
741.744	-5.85
741.768	-3.85
741.792	3.15
741.815	-0.85
741.839	15.15
741.863	33.15
741.886	19.15
741.91	10.15
741.934	-3.85
741.957	-5.85
741.981	3.15
742.005	12.15
742.028	-2.85
742.052	-11.85
742.075	-1.85
742.099	9.15
742.123	22.15
742.146	1.15
742.17	-0.85
742.194	-5.85
742.217	-0.85
742.241	6.15
742.264	-1.85
742.288	23.15
742.312	9.15
742.335	6.15
742.359	13.15
742.382	8.15
742.406	21.15
742.43	5.15
742.453	30.15
742.477	12.15
742.5	9.15
742.524	-1.85
742.548	14.15
742.571	2.15
742.595	-1.85
742.618	1.15
742.642	-4.85
742.665	26.15
742.689	20.15
742.712	2.15
742.736	13.15
742.76	-2.85
742.783	2.15
742.807	6.15
742.83	15.15
742.854	5.15
742.877	-1.85
742.901	-2.85
742.924	0.15
742.948	-1.85
742.971	4.15
742.995	-1.85
743.018	-8.85
743.042	2.15
743.065	8.15
743.089	-3.85
743.112	3.15
743.136	-9.85
743.159	3.15
743.183	-2.85
743.206	17.15
743.23	8.15
743.253	8.15
743.277	10.15
743.3	16.15
743.324	1.15
743.347	1.15
743.371	14.15
743.394	8.15
743.418	6.15
743.441	11.15
743.465	0.15
743.488	11.15
743.512	6.15
743.535	2.15
743.558	-9.85
743.582	10.15
743.605	9.15
743.629	9.15
743.652	-0.85
743.676	2.15
743.699	3.15
743.723	10.15
743.746	9.15
743.769	2.15
743.793	2.15
743.816	-14.85
743.84	19.15
743.863	3.15
743.886	6.15
743.91	24.15
743.933	9.15
743.957	3.15
743.98	-7.85
744.003	19.15
744.027	-1.85
744.05	6.15
744.074	11.15
744.097	-13.85
744.12	-4.85
744.144	1.15
744.167	1.15
744.19	-0.85
744.214	-4.85
744.237	-14.85
744.26	17.15
744.284	2.15
744.307	-0.85
744.331	9.15
744.354	-1.85
744.377	-7.85
744.401	1.15
744.424	-2.85
744.447	-1.85
744.471	-15.85
