Data from HighRes_H2_15_09_11_07_2024_HR4C61891__134__15-11-09-801.txt Node

Date: Thu Nov 07 15:11:09 EST 2024
User: crc00042
Spectrometer: HR4C6189
Trigger mode: 4
Integration Time (sec): 1.000000E-1
Scans to average: 1
Electric dark correction enabled: true
Nonlinearity correction enabled: false
Boxcar width: 0
XAxis mode: Wavelengths
Number of Pixels in Spectrum: 3648
>>>>>Begin Spectral Data<<<<<
639.567	-40.15
639.602	-40.15
639.636	-40.15
639.67	-43.15
639.704	-14.15
639.738	-4.15
639.773	17.85
639.807	-12.15
639.841	5.85
639.875	12.85
639.909	9.85
639.943	-2.15
639.978	4.85
640.012	-8.15
640.046	17.85
640.08	-13.15
640.114	-9.15
640.148	-20.15
640.182	-6.15
640.217	-8.15
640.251	14.85
640.285	7.85
640.319	-7.15
640.353	-12.15
640.387	4.85
640.421	5.85
640.455	-1.15
640.49	-4.15
640.524	-9.15
640.558	-1.15
640.592	11.85
640.626	-1.15
640.66	-3.15
640.694	-3.15
640.728	-4.15
640.762	5.85
640.796	28.85
640.83	25.85
640.865	-12.15
640.899	10.85
640.933	3.85
640.967	8.85
641.001	13.85
641.035	3.85
641.069	5.85
641.103	-6.15
641.137	-1.15
641.171	-18.15
641.205	3.85
641.239	-14.15
641.273	26.85
641.307	0.85
641.341	5.85
641.375	4.85
641.409	-12.15
641.443	5.85
641.477	10.85
641.511	5.85
641.545	-3.15
641.579	-0.15
641.614	2.85
641.648	8.85
641.682	-19.15
641.716	15.85
641.75	5.85
641.784	-1.15
641.818	-11.15
641.852	12.85
641.886	-9.15
641.919	33.85
641.953	-3.15
641.987	-9.15
642.021	1.85
642.055	6.85
642.089	3.85
642.123	-6.15
642.157	-8.15
642.191	-12.15
642.225	10.85
642.259	-6.15
642.293	12.85
642.327	10.85
642.361	-3.15
642.395	8.85
642.429	9.85
642.463	21.85
642.497	18.85
642.531	-8.15
642.565	-11.15
642.599	-11.15
642.633	5.85
642.666	24.85
642.7	2.85
642.734	3.85
642.768	-15.15
642.802	-1.15
642.836	10.85
642.87	-12.15
642.904	9.85
642.938	8.85
642.972	7.85
643.005	-4.15
643.039	15.85
643.073	5.85
643.107	3.85
643.141	-3.15
643.175	11.85
643.209	-11.15
643.243	-11.15
643.276	-7.15
643.31	-21.15
643.344	3.85
643.378	19.85
643.412	20.85
643.446	3.85
643.48	-6.15
643.513	3.85
643.547	1.85
643.581	-6.15
643.615	4.85
643.649	-3.15
643.683	-11.15
643.716	-7.15
643.75	5.85
643.784	-4.15
643.818	29.85
643.852	-0.15
643.886	-7.15
643.919	12.85
643.953	6.85
643.987	-4.15
644.021	12.85
644.055	0.85
644.088	2.85
644.122	-4.15
644.156	-10.15
644.19	-4.15
644.224	-3.15
644.257	-2.15
644.291	5.85
644.325	14.85
644.359	-4.15
644.392	13.85
644.426	-7.15
644.46	11.85
644.494	6.85
644.527	0.85
644.561	0.85
644.595	19.85
644.629	-7.15
644.662	-4.15
644.696	0.85
644.73	8.85
644.764	-0.15
644.797	-7.15
644.831	3.85
644.865	5.85
644.899	14.85
644.932	23.85
644.966	-5.15
645	3.85
645.033	19.85
645.067	5.85
645.101	-0.15
645.135	-6.15
645.168	0.85
645.202	-8.15
645.236	7.85
645.269	17.85
645.303	-12.15
645.337	-1.15
645.37	-22.15
645.404	10.85
645.438	6.85
645.471	-4.15
645.505	10.85
645.539	9.85
645.572	-3.15
645.606	-15.15
645.64	-16.15
645.673	2.85
645.707	36.85
645.741	1.85
645.774	-14.15
645.808	-0.15
645.842	-4.15
645.875	2.85
645.909	-2.15
645.943	-6.15
645.976	7.85
646.01	2.85
646.043	21.85
646.077	18.85
646.111	12.85
646.144	9.85
646.178	-2.15
646.212	-17.15
646.245	1.85
646.279	3.85
646.312	-1.15
646.346	21.85
646.38	12.85
646.413	11.85
646.447	7.85
646.48	-5.15
646.514	10.85
646.547	9.85
646.581	0.85
646.615	2.85
646.648	-9.15
646.682	4.85
646.715	-3.15
646.749	6.85
646.782	1.85
646.816	7.85
646.85	15.85
646.883	-4.15
646.917	-8.15
646.95	12.85
646.984	16.85
647.017	7.85
647.051	12.85
647.084	1.85
647.118	10.85
647.151	6.85
647.185	0.85
647.218	-11.15
647.252	-4.15
647.285	1.85
647.319	2.85
647.353	-6.15
647.386	8.85
647.42	16.85
647.453	-7.15
647.487	-5.15
647.52	1.85
647.553	12.85
647.587	3.85
647.62	-5.15
647.654	11.85
647.687	6.85
647.721	6.85
647.754	-5.15
647.788	-1.15
647.821	-11.15
647.855	9.85
647.888	7.85
647.922	17.85
647.955	-6.15
647.989	14.85
648.022	7.85
648.055	9.85
648.089	-14.15
648.122	15.85
648.156	-2.15
648.189	-7.15
648.223	5.85
648.256	12.85
648.29	0.85
648.323	-8.15
648.356	21.85
648.39	3.85
648.423	17.85
648.457	11.85
648.49	4.85
648.523	17.85
648.557	2.85
648.59	11.85
648.624	7.85
648.657	5.85
648.69	15.85
648.724	5.85
648.757	2.85
648.791	5.85
648.824	12.85
648.857	11.85
648.891	0.85
648.924	10.85
648.957	28.85
648.991	3.85
649.024	8.85
649.057	13.85
649.091	-2.15
649.124	16.85
649.158	15.85
649.191	18.85
649.224	5.85
649.258	-7.15
649.291	2.85
649.324	1.85
649.358	3.85
649.391	0.85
649.424	7.85
649.458	-10.15
649.491	11.85
649.524	-6.15
649.557	-4.15
649.591	-6.15
649.624	11.85
649.657	3.85
649.691	3.85
649.724	7.85
649.757	0.85
649.791	10.85
649.824	20.85
649.857	14.85
649.89	8.85
649.924	-16.15
649.957	-1.15
649.99	-23.15
650.023	-15.15
650.057	-2.15
650.09	4.85
650.123	2.85
650.157	20.85
650.19	10.85
650.223	2.85
650.256	0.85
650.29	-1.15
650.323	4.85
650.356	12.85
650.389	7.85
650.423	-15.15
650.456	19.85
650.489	16.85
650.522	15.85
650.555	43.85
650.589	8.85
650.622	-0.15
650.655	9.85
650.688	1.85
650.721	-14.15
650.755	-3.15
650.788	3.85
650.821	19.85
650.854	12.85
650.887	13.85
650.921	12.85
650.954	4.85
650.987	10.85
651.02	-21.15
651.053	-0.15
651.087	7.85
651.12	18.85
651.153	-0.15
651.186	-10.15
651.219	-13.15
651.252	12.85
651.286	11.85
651.319	-6.15
651.352	16.85
651.385	16.85
651.418	8.85
651.451	6.85
651.484	0.85
651.518	-6.15
651.551	21.85
651.584	2.85
651.617	23.85
651.65	2.85
651.683	7.85
651.716	-4.15
651.749	-3.15
651.783	-0.15
651.816	-4.15
651.849	5.85
651.882	-7.15
651.915	0.85
651.948	1.85
651.981	7.85
652.014	-3.15
652.047	-12.15
652.08	-8.15
652.114	7.85
652.147	-2.15
652.18	5.85
652.213	26.85
652.246	-3.15
652.279	-14.15
652.312	1.85
652.345	3.85
652.378	6.85
652.411	30.85
652.444	11.85
652.477	18.85
652.51	16.85
652.543	-15.15
652.576	5.85
652.609	-9.15
652.642	-5.15
652.675	8.85
652.709	2.85
652.742	3.85
652.775	11.85
652.808	20.85
652.841	30.85
652.874	17.85
652.907	15.85
652.94	6.85
652.973	-4.15
653.006	-1.15
653.039	-4.15
653.072	6.85
653.105	-3.15
653.138	-9.15
653.171	2.85
653.204	0.85
653.237	8.85
653.27	0.85
653.303	-0.15
653.336	3.85
653.368	-12.15
653.401	3.85
653.434	0.85
653.467	7.85
653.5	-9.15
653.533	-7.15
653.566	-3.15
653.599	-22.15
653.632	2.85
653.665	1.85
653.698	-2.15
653.731	8.85
653.764	0.85
653.797	10.85
653.83	9.85
653.863	-4.15
653.896	-3.15
653.929	5.85
653.961	9.85
653.994	3.85
654.027	-8.15
654.06	0.85
654.093	3.85
654.126	16.85
654.159	-11.15
654.192	20.85
654.225	-8.15
654.258	-8.15
654.29	5.85
654.323	-0.15
654.356	-4.15
654.389	5.85
654.422	6.85
654.455	7.85
654.488	18.85
654.521	-1.15
654.553	-9.15
654.586	6.85
654.619	-6.15
654.652	-12.15
654.685	11.85
654.718	9.85
654.751	23.85
654.783	10.85
654.816	6.85
654.849	13.85
654.882	3.85
654.915	3.85
654.948	6.85
654.98	-11.15
655.013	-4.15
655.046	-6.15
655.079	17.85
655.112	13.85
655.144	1.85
655.177	14.85
655.21	6.85
655.243	12.85
655.276	3.85
655.308	-3.15
655.341	0.85
655.374	-10.15
655.407	-12.15
655.44	-2.15
655.472	6.85
655.505	2.85
655.538	-7.15
655.571	31.85
655.603	25.85
655.636	5.85
655.669	27.85
655.702	13.85
655.734	-6.15
655.767	5.85
655.8	33.85
655.833	33.85
655.865	38.85
655.898	31.85
655.931	35.85
655.964	40.85
655.996	60.85
656.029	70.85
656.062	65.85
656.095	68.85
656.127	59.85
656.16	91.85
656.193	122.85
656.225	159.85
656.258	276.85
656.291	515.85
656.324	1144.85
656.356	3458.85
656.389	7575.85
656.422	6087.85
656.454	2069.85
656.487	669.85
656.52	264.85
656.552	119.85
656.585	75.85
656.618	77.85
656.65	62.85
656.683	16.85
656.716	15.85
656.748	10.85
656.781	11.85
656.814	1.85
656.846	20.85
656.879	4.85
656.912	17.85
656.944	-5.15
656.977	-1.15
657.01	0.85
657.042	6.85
657.075	2.85
657.108	-10.15
657.14	11.85
657.173	30.85
657.205	10.85
657.238	9.85
657.271	10.85
657.303	-19.15
657.336	-14.15
657.369	1.85
657.401	11.85
657.434	-15.15
657.466	-0.15
657.499	-7.15
657.532	-1.15
657.564	11.85
657.597	-4.15
657.629	3.85
657.662	10.85
657.694	-0.15
657.727	-1.15
657.76	16.85
657.792	0.85
657.825	2.85
657.857	9.85
657.89	-1.15
657.922	6.85
657.955	-6.15
657.987	15.85
658.02	-3.15
658.053	4.85
658.085	0.85
658.118	12.85
658.15	8.85
658.183	11.85
658.215	0.85
658.248	10.85
658.28	4.85
658.313	12.85
658.345	12.85
658.378	-3.15
658.41	-12.15
658.443	-2.15
658.475	8.85
658.508	2.85
658.54	-15.15
658.573	-15.15
658.605	15.85
658.638	-8.15
658.67	-3.15
658.703	-7.15
658.735	-19.15
658.768	4.85
658.8	-15.15
658.833	12.85
658.865	6.85
658.898	-13.15
658.93	-11.15
658.963	-31.15
658.995	-23.15
659.028	5.85
659.06	-11.15
659.092	-26.15
659.125	-11.15
659.157	15.85
659.19	-6.15
659.222	-1.15
659.255	13.85
659.287	-2.15
659.32	10.85
659.352	12.85
659.384	12.85
659.417	-19.15
659.449	2.85
659.482	7.85
659.514	-7.15
659.546	-4.15
659.579	-4.15
659.611	-9.15
659.644	-3.15
659.676	-20.15
659.708	-4.15
659.741	17.85
659.773	3.85
659.806	-0.15
659.838	4.85
659.87	-14.15
659.903	-13.15
659.935	3.85
659.967	13.85
660	10.85
660.032	-20.15
660.065	10.85
660.097	9.85
660.129	2.85
660.162	-0.15
660.194	14.85
660.226	15.85
660.259	15.85
660.291	-5.15
660.323	-11.15
660.356	-5.15
660.388	-7.15
660.42	4.85
660.453	11.85
660.485	22.85
660.517	4.85
660.55	9.85
660.582	-9.15
660.614	20.85
660.647	-11.15
660.679	-8.15
660.711	4.85
660.743	-2.15
660.776	-15.15
660.808	-8.15
660.84	-2.15
660.873	-13.15
660.905	0.85
660.937	5.85
660.969	-0.15
661.002	7.85
661.034	4.85
661.066	-4.15
661.099	6.85
661.131	23.85
661.163	-0.15
661.195	-3.15
661.228	2.85
661.26	-5.15
661.292	0.85
661.324	5.85
661.357	-0.15
661.389	-4.15
661.421	0.85
661.453	-4.15
661.485	5.85
661.518	1.85
661.55	-7.15
661.582	-1.15
661.614	-3.15
661.647	8.85
661.679	12.85
661.711	2.85
661.743	-3.15
661.775	-8.15
661.808	12.85
661.84	-22.15
661.872	2.85
661.904	-1.15
661.936	4.85
661.969	-9.15
662.001	-8.15
662.033	-5.15
662.065	-1.15
662.097	12.85
662.129	5.85
662.162	-6.15
662.194	5.85
662.226	-5.15
662.258	10.85
662.29	5.85
662.322	-23.15
662.355	-10.15
662.387	7.85
662.419	-1.15
662.451	6.85
662.483	8.85
662.515	-7.15
662.547	6.85
662.58	-2.15
662.612	-1.15
662.644	-17.15
662.676	-0.15
662.708	21.85
662.74	0.85
662.772	2.85
662.804	1.85
662.836	-7.15
662.869	18.85
662.901	-3.15
662.933	14.85
662.965	7.85
662.997	21.85
663.029	-13.15
663.061	-1.15
663.093	-6.15
663.125	12.85
663.157	9.85
663.189	-7.15
663.221	22.85
663.254	-6.15
663.286	4.85
663.318	2.85
663.35	-12.15
663.382	-3.15
663.414	11.85
663.446	12.85
663.478	2.85
663.51	20.85
663.542	9.85
663.574	1.85
663.606	-7.15
663.638	-12.15
663.67	-10.15
663.702	1.85
663.734	-1.15
663.766	-1.15
663.798	-1.15
663.83	11.85
663.862	3.85
663.894	4.85
663.926	0.85
663.958	4.85
663.99	-4.15
664.022	-2.15
664.054	-3.15
664.086	-7.15
664.118	-22.15
664.15	-9.15
664.182	-8.15
664.214	-4.15
664.246	12.85
664.278	7.85
664.31	17.85
664.342	11.85
664.374	-2.15
664.406	0.85
664.438	-1.15
664.47	13.85
664.502	0.85
664.534	-6.15
664.566	-3.15
664.598	18.85
664.63	-16.15
664.662	-8.15
664.693	4.85
664.725	2.85
664.757	-9.15
664.789	-13.15
664.821	-5.15
664.853	-0.15
664.885	-0.15
664.917	-0.15
664.949	20.85
664.981	30.85
665.013	-8.15
665.045	-15.15
665.076	-5.15
665.108	5.85
665.14	7.85
665.172	2.85
665.204	-3.15
665.236	0.85
665.268	13.85
665.3	-6.15
665.331	-4.15
665.363	1.85
665.395	-8.15
665.427	5.85
665.459	5.85
665.491	1.85
665.523	3.85
665.555	-2.15
665.586	12.85
665.618	-4.15
665.65	-9.15
665.682	0.85
665.714	6.85
665.746	-1.15
665.777	-0.15
665.809	-1.15
665.841	1.85
665.873	1.85
665.905	-1.15
665.937	-5.15
665.968	-1.15
666	-2.15
666.032	-2.15
666.064	-2.15
666.096	-4.15
666.127	6.85
666.159	13.85
666.191	13.85
666.223	6.85
666.255	1.85
666.286	10.85
666.318	-3.15
666.35	3.85
666.382	5.85
666.413	-13.15
666.445	-17.15
666.477	-12.15
666.509	-7.15
666.54	11.85
666.572	-8.15
666.604	-1.15
666.636	6.85
666.667	23.85
666.699	17.85
666.731	23.85
666.763	1.85
666.794	5.85
666.826	-3.15
666.858	-7.15
666.89	21.85
666.921	-0.15
666.953	6.85
666.985	26.85
667.017	20.85
667.048	16.85
667.08	-2.15
667.112	-3.15
667.143	-12.15
667.175	-5.15
667.207	-0.15
667.238	-2.15
667.27	2.85
667.302	3.85
667.334	7.85
667.365	24.85
667.397	2.85
667.429	3.85
667.46	-5.15
667.492	28.85
667.524	14.85
667.555	-2.15
667.587	7.85
667.619	5.85
667.65	-16.15
667.682	-9.15
667.714	3.85
667.745	-2.15
667.777	8.85
667.808	10.85
667.84	16.85
667.872	10.85
667.903	21.85
667.935	-6.15
667.967	10.85
667.998	6.85
668.03	1.85
668.061	13.85
668.093	7.85
668.125	24.85
668.156	0.85
668.188	-3.15
668.22	5.85
668.251	10.85
668.283	16.85
668.314	2.85
668.346	-5.15
668.377	4.85
668.409	-14.15
668.441	4.85
668.472	20.85
668.504	8.85
668.535	13.85
668.567	6.85
668.599	-9.15
668.63	-23.15
668.662	-8.15
668.693	5.85
668.725	-0.15
668.756	4.85
668.788	-3.15
668.819	2.85
668.851	3.85
668.882	4.85
668.914	-4.15
668.946	-8.15
668.977	-9.15
669.009	-6.15
669.04	-15.15
669.072	2.85
669.103	-0.15
669.135	0.85
669.166	1.85
669.198	7.85
669.229	14.85
669.261	5.85
669.292	-0.15
669.324	-1.15
669.355	8.85
669.387	-4.15
669.418	15.85
669.45	-0.15
669.481	5.85
669.513	-1.15
669.544	1.85
669.576	3.85
669.607	19.85
669.639	21.85
669.67	13.85
669.701	10.85
669.733	1.85
669.764	3.85
669.796	6.85
669.827	-16.15
669.859	-12.15
669.89	9.85
669.922	18.85
669.953	17.85
669.985	8.85
670.016	15.85
670.047	9.85
670.079	-1.15
670.11	2.85
670.142	7.85
670.173	5.85
670.204	-1.15
670.236	11.85
670.267	3.85
670.299	11.85
670.33	4.85
670.362	12.85
670.393	-16.15
670.424	5.85
670.456	-22.15
670.487	-4.15
670.518	-6.15
670.55	3.85
670.581	-2.15
670.613	-5.15
670.644	-7.15
670.675	7.85
670.707	-7.15
670.738	19.85
670.769	3.85
670.801	3.85
670.832	-3.15
670.864	-4.15
670.895	10.85
670.926	-3.15
670.958	3.85
670.989	6.85
671.02	-3.15
671.052	15.85
671.083	3.85
671.114	5.85
671.146	6.85
671.177	0.85
671.208	3.85
671.24	2.85
671.271	16.85
671.302	-9.15
671.333	-16.15
671.365	-20.15
671.396	0.85
671.427	13.85
671.459	13.85
671.49	11.85
671.521	4.85
671.553	12.85
671.584	21.85
671.615	-21.15
671.646	-18.15
671.678	-5.15
671.709	-16.15
671.74	-1.15
671.771	2.85
671.803	-6.15
671.834	-9.15
671.865	9.85
671.896	-1.15
671.928	3.85
671.959	-12.15
671.99	-20.15
672.021	0.85
672.053	-12.15
672.084	-4.15
672.115	0.85
672.146	-0.15
672.178	-23.15
672.209	3.85
672.24	-1.15
672.271	15.85
672.303	7.85
672.334	-12.15
672.365	4.85
672.396	4.85
672.427	2.85
672.459	9.85
672.49	14.85
672.521	-3.15
672.552	4.85
672.583	12.85
672.615	16.85
672.646	-0.15
672.677	-10.15
672.708	-7.15
672.739	4.85
672.77	8.85
672.802	5.85
672.833	-1.15
672.864	5.85
672.895	-10.15
672.926	2.85
672.957	-13.15
672.989	7.85
673.02	11.85
673.051	-4.15
673.082	6.85
673.113	-21.15
673.144	19.85
673.175	12.85
673.206	-0.15
673.238	7.85
673.269	-0.15
673.3	-10.15
673.331	17.85
673.362	6.85
673.393	-10.15
673.424	4.85
673.455	7.85
673.487	2.85
673.518	13.85
673.549	12.85
673.58	-6.15
673.611	4.85
673.642	-1.15
673.673	-9.15
673.704	-6.15
673.735	-0.15
673.766	-8.15
673.797	-17.15
673.828	1.85
673.86	-12.15
673.891	-10.15
673.922	-1.15
673.953	-1.15
673.984	26.85
674.015	18.85
674.046	5.85
674.077	7.85
674.108	-0.15
674.139	-2.15
674.17	-10.15
674.201	-17.15
674.232	-7.15
674.263	-19.15
674.294	-0.15
674.325	-14.15
674.356	0.85
674.387	9.85
674.418	8.85
674.449	-1.15
674.48	-13.15
674.511	-13.15
674.542	3.85
674.573	1.85
674.604	28.85
674.635	8.85
674.666	6.85
674.697	-2.15
674.728	-3.15
674.759	-2.15
674.79	-7.15
674.821	-15.15
674.852	-0.15
674.883	-11.15
674.914	-15.15
674.945	-11.15
674.976	13.85
675.007	-9.15
675.038	-30.15
675.069	0.85
675.1	-17.15
675.131	-10.15
675.162	-9.15
675.193	-5.15
675.224	-4.15
675.254	5.85
675.285	7.85
675.316	8.85
675.347	-0.15
675.378	2.85
675.409	-1.15
675.44	8.85
675.471	-17.15
675.502	-23.15
675.533	3.85
675.564	-10.15
675.595	17.85
675.625	28.85
675.656	14.85
675.687	1.85
675.718	-20.15
675.749	-7.15
675.78	-10.15
675.811	-8.15
675.842	-4.15
675.873	-5.15
675.903	3.85
675.934	5.85
675.965	-13.15
675.996	4.85
676.027	0.85
676.058	-0.15
676.089	-12.15
676.119	-12.15
676.15	-1.15
676.181	-7.15
676.212	0.85
676.243	12.85
676.274	-8.15
676.304	11.85
676.335	-12.15
676.366	1.85
676.397	8.85
676.428	-6.15
676.459	4.85
676.489	18.85
676.52	11.85
676.551	1.85
676.582	-11.15
676.613	4.85
676.643	-2.15
676.674	24.85
676.705	-6.15
676.736	1.85
676.767	8.85
676.797	8.85
676.828	9.85
676.859	-3.15
676.89	9.85
676.92	19.85
676.951	14.85
676.982	-6.15
677.013	-5.15
677.044	6.85
677.074	-14.15
677.105	-5.15
677.136	6.85
677.167	4.85
677.197	5.85
677.228	5.85
677.259	-3.15
677.289	-6.15
677.32	-9.15
677.351	-10.15
677.382	-3.15
677.412	-8.15
677.443	10.85
677.474	-2.15
677.505	-17.15
677.535	-6.15
677.566	-7.15
677.597	-13.15
677.627	-14.15
677.658	-9.15
677.689	3.85
677.72	6.85
677.75	-11.15
677.781	-3.15
677.812	-2.15
677.842	-5.15
677.873	18.85
677.904	-3.15
677.934	-1.15
677.965	-3.15
677.996	-10.15
678.026	-12.15
678.057	-4.15
678.088	-19.15
678.118	-2.15
678.149	-4.15
678.18	5.85
678.21	2.85
678.241	-13.15
678.272	-3.15
678.302	-13.15
678.333	2.85
678.363	4.85
678.394	-3.15
678.425	4.85
678.455	-5.15
678.486	20.85
678.517	-15.15
678.547	7.85
678.578	2.85
678.608	-16.15
678.639	10.85
678.67	6.85
678.7	-6.15
678.731	3.85
678.761	9.85
678.792	3.85
678.823	24.85
678.853	10.85
678.884	-4.15
678.914	4.85
678.945	8.85
678.975	-8.15
679.006	-12.15
679.037	-15.15
679.067	12.85
679.098	-11.15
679.128	4.85
679.159	3.85
679.189	10.85
679.22	-16.15
679.25	10.85
679.281	-1.15
679.312	-0.15
679.342	-17.15
679.373	25.85
679.403	-0.15
679.434	6.85
679.464	-4.15
679.495	-5.15
679.525	-12.15
679.556	4.85
679.586	0.85
679.617	3.85
679.647	-5.15
679.678	4.85
679.708	0.85
679.739	-1.15
679.769	0.85
679.8	2.85
679.83	-0.15
679.861	-1.15
679.891	-9.15
679.922	-4.15
679.952	0.85
679.983	-0.15
680.013	7.85
680.044	-9.15
680.074	2.85
680.105	-6.15
680.135	15.85
680.165	19.85
680.196	7.85
680.226	13.85
680.257	4.85
680.287	6.85
680.318	7.85
680.348	2.85
680.379	6.85
680.409	5.85
680.439	-16.15
680.47	-13.15
680.5	5.85
680.531	6.85
680.561	17.85
680.592	-1.15
680.622	8.85
680.652	1.85
680.683	4.85
680.713	-4.15
680.744	-9.15
680.774	-17.15
680.804	26.85
680.835	1.85
680.865	-9.15
680.896	17.85
680.926	21.85
680.956	1.85
680.987	0.85
681.017	6.85
681.047	-0.15
681.078	-12.15
681.108	-3.15
681.139	13.85
681.169	10.85
681.199	11.85
681.23	3.85
681.26	-6.15
681.29	2.85
681.321	-6.15
681.351	8.85
681.381	1.85
681.412	18.85
681.442	-11.15
681.472	23.85
681.503	-8.15
681.533	19.85
681.563	3.85
681.594	-3.15
681.624	-7.15
681.654	1.85
681.685	-5.15
681.715	8.85
681.745	-11.15
681.775	-1.15
681.806	-4.15
681.836	1.85
681.866	-8.15
681.897	3.85
681.927	-8.15
681.957	-17.15
681.987	-7.15
682.018	-12.15
682.048	1.85
682.078	6.85
682.109	14.85
682.139	-2.15
682.169	6.85
682.199	-8.15
682.23	-3.15
682.26	-1.15
682.29	10.85
682.32	4.85
682.351	-13.15
682.381	15.85
682.411	-12.15
682.441	-1.15
682.472	-12.15
682.502	-13.15
682.532	-15.15
682.562	-8.15
682.592	12.85
682.623	3.85
682.653	-6.15
682.683	-3.15
682.713	-7.15
682.743	0.85
682.774	-5.15
682.804	0.85
682.834	12.85
682.864	-3.15
682.894	-1.15
682.925	-2.15
682.955	11.85
682.985	-1.15
683.015	1.85
683.045	7.85
683.076	-16.15
683.106	7.85
683.136	9.85
683.166	-7.15
683.196	2.85
683.226	-8.15
683.257	-12.15
683.287	-6.15
683.317	4.85
683.347	2.85
683.377	-2.15
683.407	6.85
683.437	-3.15
683.468	3.85
683.498	-14.15
683.528	-12.15
683.558	11.85
683.588	-3.15
683.618	-19.15
683.648	-8.15
683.678	-2.15
683.708	7.85
683.739	3.85
683.769	1.85
683.799	17.85
683.829	6.85
683.859	7.85
683.889	7.85
683.919	5.85
683.949	10.85
683.979	-1.15
684.009	2.85
684.039	10.85
684.07	5.85
684.1	11.85
684.13	-3.15
684.16	-11.15
684.19	8.85
684.22	-8.15
684.25	-2.15
684.28	-0.15
684.31	31.85
684.34	15.85
684.37	2.85
684.4	-1.15
684.43	-5.15
684.46	5.85
684.49	7.85
684.52	7.85
684.55	11.85
684.58	0.85
684.61	-11.15
684.64	4.85
684.67	8.85
684.7	11.85
684.73	3.85
684.76	15.85
684.79	20.85
684.82	7.85
684.85	-17.15
684.88	-8.15
684.91	7.85
684.94	8.85
684.97	-19.15
685	-2.15
685.03	-4.15
685.06	-18.15
685.09	-8.15
685.12	9.85
685.15	0.85
685.18	7.85
685.21	2.85
685.24	-0.15
685.27	7.85
685.3	-0.15
685.33	9.85
685.36	-6.15
685.39	-2.15
685.42	-6.15
685.45	-13.15
685.48	-5.15
685.51	-2.15
685.54	1.85
685.569	10.85
685.599	-7.15
685.629	8.85
685.659	6.85
685.689	-7.15
685.719	-4.15
685.749	-7.15
685.779	-13.15
685.809	2.85
685.839	-6.15
685.869	-6.15
685.898	25.85
685.928	-1.15
685.958	2.85
685.988	0.85
686.018	-1.15
686.048	-1.15
686.078	14.85
686.108	17.85
686.137	-0.15
686.167	22.85
686.197	-7.15
686.227	-8.15
686.257	33.85
686.287	23.85
686.317	11.85
686.346	-7.15
686.376	6.85
686.406	-12.15
686.436	9.85
686.466	-4.15
686.496	5.85
686.525	7.85
686.555	-3.15
686.585	16.85
686.615	20.85
686.645	16.85
686.675	-0.15
686.704	-8.15
686.734	6.85
686.764	4.85
686.794	1.85
686.824	-22.15
686.853	-4.15
686.883	11.85
686.913	19.85
686.943	10.85
686.973	-0.15
687.002	-3.15
687.032	-6.15
687.062	-3.15
687.092	3.85
687.121	-7.15
687.151	-12.15
687.181	2.85
687.211	10.85
687.24	-5.15
687.27	-7.15
687.3	-3.15
687.33	7.85
687.359	-7.15
687.389	5.85
687.419	-7.15
687.449	1.85
687.478	11.85
687.508	0.85
687.538	3.85
687.568	0.85
687.597	-3.15
687.627	3.85
687.657	-2.15
687.686	13.85
687.716	18.85
687.746	-2.15
687.776	-3.15
687.805	12.85
687.835	2.85
687.865	12.85
687.894	7.85
687.924	3.85
687.954	9.85
687.983	8.85
688.013	10.85
688.043	5.85
688.072	4.85
688.102	6.85
688.132	-0.15
688.161	5.85
688.191	0.85
688.221	30.85
688.25	-16.15
688.28	10.85
688.31	0.85
688.339	8.85
688.369	-7.15
688.399	2.85
688.428	0.85
688.458	12.85
688.488	-8.15
688.517	10.85
688.547	-9.15
688.576	31.85
688.606	9.85
688.636	0.85
688.665	4.85
688.695	12.85
688.725	21.85
688.754	17.85
688.784	-15.15
688.813	8.85
688.843	-6.15
688.873	4.85
688.902	9.85
688.932	1.85
688.961	1.85
688.991	9.85
689.02	24.85
689.05	2.85
689.08	2.85
689.109	-2.15
689.139	-1.15
689.168	11.85
689.198	-9.15
689.227	2.85
689.257	-7.15
689.287	9.85
689.316	-0.15
689.346	-11.15
689.375	-9.15
689.405	12.85
689.434	-0.15
689.464	2.85
689.493	0.85
689.523	-25.15
689.552	0.85
689.582	8.85
689.611	6.85
689.641	-3.15
689.67	8.85
689.7	19.85
689.73	15.85
689.759	13.85
689.789	17.85
689.818	1.85
689.848	8.85
689.877	7.85
689.906	3.85
689.936	0.85
689.965	6.85
689.995	7.85
690.024	7.85
690.054	-4.15
690.083	12.85
690.113	9.85
690.142	9.85
690.172	3.85
690.201	-6.15
690.231	0.85
690.26	15.85
690.29	10.85
690.319	5.85
690.348	-8.15
690.378	-5.15
690.407	-0.15
690.437	1.85
690.466	1.85
690.496	-5.15
690.525	7.85
690.555	-0.15
690.584	-1.15
690.613	-6.15
690.643	3.85
690.672	15.85
690.702	17.85
690.731	4.85
690.76	1.85
690.79	-16.15
690.819	1.85
690.849	4.85
690.878	4.85
690.907	5.85
690.937	4.85
690.966	13.85
690.996	2.85
691.025	-3.15
691.054	7.85
691.084	3.85
691.113	-4.15
691.142	4.85
691.172	-4.15
691.201	11.85
691.23	-1.15
691.26	18.85
691.289	16.85
691.319	6.85
691.348	-0.15
691.377	3.85
691.407	16.85
691.436	27.85
691.465	8.85
691.495	1.85
691.524	-7.15
691.553	-8.15
691.583	-7.15
691.612	8.85
691.641	-9.15
691.67	-0.15
691.7	3.85
691.729	-13.15
691.758	3.85
691.788	0.85
691.817	-10.15
691.846	-22.15
691.876	-15.15
691.905	3.85
691.934	5.85
691.963	12.85
691.993	12.85
692.022	-5.15
692.051	-12.15
692.081	14.85
692.11	10.85
692.139	6.85
692.168	-0.15
692.198	10.85
692.227	3.85
692.256	8.85
692.285	4.85
692.315	2.85
692.344	3.85
692.373	2.85
692.402	-16.15
692.432	-3.15
692.461	-8.15
692.49	13.85
692.519	7.85
692.548	6.85
692.578	9.85
692.607	-4.15
692.636	-6.15
692.665	19.85
692.694	8.85
692.724	17.85
692.753	16.85
692.782	13.85
692.811	-5.15
692.84	0.85
692.87	23.85
692.899	-1.15
692.928	17.85
692.957	9.85
692.986	-10.15
693.016	-5.15
693.045	8.85
693.074	9.85
693.103	12.85
693.132	1.85
693.161	25.85
693.191	3.85
693.22	-16.15
693.249	-3.15
693.278	-7.15
693.307	-0.15
693.336	-11.15
693.365	-7.15
693.395	4.85
693.424	4.85
693.453	27.85
693.482	2.85
693.511	-5.15
693.54	-14.15
693.569	-8.15
693.598	-9.15
693.628	10.85
693.657	4.85
693.686	2.85
693.715	25.85
693.744	0.85
693.773	6.85
693.802	8.85
693.831	-0.15
693.86	19.85
693.889	-5.15
693.919	-0.15
693.948	9.85
693.977	-6.15
694.006	4.85
694.035	-4.15
694.064	-0.15
694.093	-0.15
694.122	19.85
694.151	-0.15
694.18	19.85
694.209	28.85
694.238	4.85
694.267	31.85
694.296	2.85
694.325	5.85
694.354	18.85
694.383	1.85
694.412	1.85
694.441	12.85
694.471	2.85
694.5	4.85
694.529	0.85
694.558	28.85
694.587	16.85
694.616	0.85
694.645	-5.15
694.674	4.85
694.703	14.85
694.732	-8.15
694.761	3.85
694.79	6.85
694.819	-14.15
694.848	-0.15
694.877	16.85
694.906	12.85
694.935	4.85
694.963	32.85
694.992	6.85
695.021	13.85
695.05	7.85
695.079	-3.15
695.108	-1.15
695.137	25.85
695.166	4.85
695.195	-4.15
695.224	21.85
695.253	11.85
695.282	1.85
695.311	11.85
695.34	13.85
695.369	3.85
695.398	-6.15
695.427	15.85
695.456	7.85
695.485	10.85
695.513	8.85
695.542	4.85
695.571	0.85
695.6	8.85
695.629	0.85
695.658	13.85
695.687	11.85
695.716	-3.15
695.745	11.85
695.774	8.85
695.802	5.85
695.831	3.85
695.86	11.85
695.889	-1.15
695.918	12.85
695.947	-9.15
695.976	-14.15
696.005	13.85
696.033	1.85
696.062	7.85
696.091	7.85
696.12	8.85
696.149	19.85
696.178	9.85
696.207	14.85
696.235	-16.15
696.264	0.85
696.293	18.85
696.322	10.85
696.351	20.85
696.38	13.85
696.408	4.85
696.437	3.85
696.466	6.85
696.495	7.85
696.524	11.85
696.553	11.85
696.581	16.85
696.61	-19.15
696.639	0.85
696.668	15.85
696.697	2.85
696.725	7.85
696.754	3.85
696.783	5.85
696.812	-7.15
696.84	0.85
696.869	18.85
696.898	8.85
696.927	6.85
696.956	18.85
696.984	-1.15
697.013	-0.15
697.042	4.85
697.071	3.85
697.099	-0.15
697.128	18.85
697.157	15.85
697.186	-0.15
697.214	4.85
697.243	-8.15
697.272	1.85
697.301	19.85
697.329	-4.15
697.358	-0.15
697.387	24.85
697.415	11.85
697.444	0.85
697.473	8.85
697.502	-10.15
697.53	3.85
697.559	-11.15
697.588	0.85
697.616	-5.15
697.645	-3.15
697.674	7.85
697.703	1.85
697.731	13.85
697.76	3.85
697.789	-5.15
697.817	19.85
697.846	27.85
697.875	4.85
697.903	20.85
697.932	7.85
697.961	2.85
697.989	-3.15
698.018	5.85
698.047	-4.15
698.075	4.85
698.104	7.85
698.133	12.85
698.161	-4.15
698.19	7.85
698.218	-4.15
698.247	15.85
698.276	-12.15
698.304	8.85
698.333	-4.15
698.362	17.85
698.39	22.85
698.419	8.85
698.447	6.85
698.476	-1.15
698.505	9.85
698.533	4.85
698.562	10.85
698.591	-1.15
698.619	-15.15
698.648	0.85
698.676	6.85
698.705	-3.15
698.733	-6.15
698.762	-0.15
698.791	10.85
698.819	18.85
698.848	-10.15
698.876	-0.15
698.905	7.85
698.933	15.85
698.962	24.85
698.991	10.85
699.019	9.85
699.048	0.85
699.076	16.85
699.105	-8.15
699.133	-8.15
699.162	18.85
699.19	26.85
699.219	23.85
699.248	11.85
699.276	4.85
699.305	-8.15
699.333	1.85
699.362	2.85
699.39	15.85
699.419	-7.15
699.447	4.85
699.476	17.85
699.504	-8.15
699.533	3.85
699.561	-4.15
699.59	8.85
699.618	1.85
699.647	15.85
699.675	4.85
699.704	3.85
699.732	-11.15
699.761	16.85
699.789	17.85
699.818	2.85
699.846	-3.15
699.874	14.85
699.903	1.85
699.931	-15.15
699.96	1.85
699.988	7.85
700.017	-3.15
700.045	-1.15
700.074	-9.15
700.102	-5.15
700.13	-4.15
700.159	8.85
700.187	10.85
700.216	11.85
700.244	9.85
700.273	6.85
700.301	14.85
700.329	10.85
700.358	14.85
700.386	-7.15
700.415	6.85
700.443	3.85
700.472	7.85
700.5	-7.15
700.528	8.85
700.557	3.85
700.585	4.85
700.614	3.85
700.642	21.85
700.67	12.85
700.699	12.85
700.727	-4.15
700.755	-3.15
700.784	4.85
700.812	-4.15
700.841	12.85
700.869	-5.15
700.897	-11.15
700.926	-3.15
700.954	18.85
700.982	16.85
701.011	3.85
701.039	2.85
701.067	-8.15
701.096	4.85
701.124	-17.15
701.152	-3.15
701.181	8.85
701.209	-7.15
701.237	19.85
701.266	3.85
701.294	-9.15
701.322	-6.15
701.351	4.85
701.379	9.85
701.407	-0.15
701.435	14.85
701.464	12.85
701.492	13.85
701.52	-11.15
701.549	-6.15
701.577	-20.15
701.605	-10.15
701.634	9.85
701.662	23.85
701.69	-0.15
701.718	-15.15
701.747	-5.15
701.775	-0.15
701.803	5.85
701.831	7.85
701.86	-2.15
701.888	3.85
701.916	-18.15
701.944	-0.15
701.973	-6.15
702.001	-4.15
702.029	-7.15
702.057	-7.15
702.086	-10.15
702.114	-13.15
702.142	4.85
702.17	-7.15
702.199	-7.15
702.227	-11.15
702.255	0.85
702.283	-14.15
702.311	4.85
702.34	-3.15
702.368	-4.15
702.396	15.85
702.424	16.85
702.452	3.85
702.481	-4.15
702.509	9.85
702.537	8.85
702.565	-3.15
702.593	-29.15
702.621	0.85
702.65	0.85
702.678	14.85
702.706	23.85
702.734	-4.15
702.762	9.85
702.79	-4.15
702.819	-5.15
702.847	2.85
702.875	14.85
702.903	8.85
702.931	-4.15
702.959	18.85
702.988	-0.15
703.016	-5.15
703.044	-0.15
703.072	2.85
703.1	-9.15
703.128	-3.15
703.156	2.85
703.184	-3.15
703.212	8.85
703.241	0.85
703.269	-14.15
703.297	-11.15
703.325	-0.15
703.353	-15.15
703.381	-6.15
703.409	12.85
703.437	-15.15
703.465	-4.15
703.493	2.85
703.522	11.85
703.55	10.85
703.578	-13.15
703.606	8.85
703.634	-5.15
703.662	-14.15
703.69	-8.15
703.718	-2.15
703.746	8.85
703.774	-2.15
703.802	17.85
703.83	1.85
703.858	-4.15
703.886	13.85
703.914	3.85
703.942	10.85
703.97	-14.15
703.998	-7.15
704.027	22.85
704.055	12.85
704.083	1.85
704.111	1.85
704.139	10.85
704.167	-7.15
704.195	-8.15
704.223	2.85
704.251	-3.15
704.279	18.85
704.307	3.85
704.335	-8.15
704.363	17.85
704.391	-9.15
704.419	-10.15
704.447	-10.15
704.475	-6.15
704.503	-3.15
704.531	4.85
704.558	6.85
704.586	5.85
704.614	-6.15
704.642	8.85
704.67	-4.15
704.698	3.85
704.726	0.85
704.754	-3.15
704.782	1.85
704.81	-15.15
704.838	10.85
704.866	10.85
704.894	-15.15
704.922	3.85
704.95	18.85
704.978	4.85
705.006	-1.15
705.034	4.85
705.061	-4.15
705.089	-10.15
705.117	-6.15
705.145	-8.15
705.173	7.85
705.201	4.85
705.229	-4.15
705.257	-5.15
705.285	5.85
705.313	5.85
705.34	-4.15
705.368	2.85
705.396	-3.15
705.424	0.85
705.452	0.85
705.48	-3.15
705.508	-7.15
705.536	-1.15
705.563	-0.15
705.591	0.85
705.619	-5.15
705.647	-8.15
705.675	-3.15
705.703	12.85
705.731	4.85
705.758	12.85
705.786	0.85
705.814	12.85
705.842	6.85
705.87	22.85
705.898	11.85
705.925	-5.15
705.953	7.85
705.981	-13.15
706.009	-6.15
706.037	9.85
706.065	-3.15
706.092	-5.15
706.12	-5.15
706.148	5.85
706.176	-5.15
706.204	-9.15
706.231	2.85
706.259	-10.15
706.287	-11.15
706.315	10.85
706.342	-5.15
706.37	10.85
706.398	12.85
706.426	-3.15
706.454	2.85
706.481	6.85
706.509	-9.15
706.537	-11.15
706.565	1.85
706.592	11.85
706.62	0.85
706.648	8.85
706.676	-9.15
706.703	-7.15
706.731	-8.15
706.759	-4.15
706.787	7.85
706.814	1.85
706.842	-6.15
706.87	2.85
706.897	9.85
706.925	-11.15
706.953	6.85
706.981	7.85
707.008	5.85
707.036	8.85
707.064	-1.15
707.091	-17.15
707.119	9.85
707.147	-2.15
707.174	-5.15
707.202	18.85
707.23	-11.15
707.258	8.85
707.285	-4.15
707.313	-1.15
707.341	-16.15
707.368	-3.15
707.396	0.85
707.424	3.85
707.451	5.85
707.479	5.85
707.507	8.85
707.534	2.85
707.562	-11.15
707.59	-10.15
707.617	-5.15
707.645	6.85
707.672	1.85
707.7	-0.15
707.728	5.85
707.755	7.85
707.783	7.85
707.811	7.85
707.838	-1.15
707.866	-4.15
707.893	-2.15
707.921	-16.15
707.949	-20.15
707.976	-2.15
708.004	18.85
708.031	-6.15
708.059	-0.15
708.087	-0.15
708.114	0.85
708.142	-12.15
708.169	-13.15
708.197	-20.15
708.225	-7.15
708.252	-6.15
708.28	-1.15
708.307	1.85
708.335	21.85
708.362	-5.15
708.39	-14.15
708.418	0.85
708.445	-7.15
708.473	-13.15
708.5	-8.15
708.528	8.85
708.555	-14.15
708.583	6.85
708.61	15.85
708.638	-0.15
708.665	-10.15
708.693	-5.15
708.72	-9.15
708.748	-10.15
708.776	-3.15
708.803	22.85
708.831	10.85
708.858	6.85
708.886	-7.15
708.913	-5.15
708.941	5.85
708.968	11.85
708.996	-7.15
709.023	21.85
709.051	-4.15
709.078	-4.15
709.105	-5.15
709.133	-11.15
709.16	-2.15
709.188	-3.15
709.215	13.85
709.243	2.85
709.27	-3.15
709.298	-14.15
709.325	-6.15
709.353	-7.15
709.38	6.85
709.408	11.85
709.435	-1.15
709.462	6.85
709.49	0.85
709.517	-8.15
709.545	-3.15
709.572	-2.15
709.6	-15.15
709.627	2.85
709.655	-17.15
709.682	-10.15
709.709	-6.15
709.737	-5.15
709.764	-6.15
709.792	-1.15
709.819	8.85
709.846	6.85
709.874	-1.15
709.901	11.85
709.929	17.85
709.956	-4.15
709.983	-14.15
710.011	4.85
710.038	-0.15
710.066	10.85
710.093	16.85
710.12	2.85
710.148	-10.15
710.175	-12.15
710.202	-7.15
710.23	3.85
710.257	3.85
710.284	1.85
710.312	0.85
710.339	-6.15
710.366	-6.15
710.394	-3.15
710.421	-1.15
710.448	8.85
710.476	-7.15
710.503	9.85
710.53	14.85
710.558	17.85
710.585	8.85
710.612	0.85
710.64	2.85
710.667	-5.15
710.694	-8.15
710.722	0.85
710.749	-12.15
710.776	3.85
710.804	11.85
710.831	-4.15
710.858	-12.15
710.885	-13.15
710.913	2.85
710.94	8.85
710.967	4.85
710.995	12.85
711.022	-8.15
711.049	3.85
711.076	-11.15
711.104	-7.15
711.131	2.85
711.158	0.85
711.185	8.85
711.213	-23.15
711.24	-13.15
711.267	0.85
711.294	2.85
711.322	-0.15
711.349	-14.15
711.376	-13.15
711.403	-1.15
711.431	-2.15
711.458	-8.15
711.485	-2.15
711.512	-8.15
711.54	-6.15
711.567	1.85
711.594	-19.15
711.621	10.85
711.648	4.85
711.676	7.85
711.703	3.85
711.73	-9.15
711.757	5.85
711.784	-4.15
711.812	0.85
711.839	-10.15
711.866	-10.15
711.893	-14.15
711.92	4.85
711.947	-2.15
711.975	19.85
712.002	2.85
712.029	15.85
712.056	-1.15
712.083	2.85
712.11	-8.15
712.138	-1.15
712.165	-2.15
712.192	-4.15
712.219	-6.15
712.246	-16.15
712.273	1.85
712.3	-3.15
712.328	2.85
712.355	-7.15
712.382	-4.15
712.409	19.85
712.436	-15.15
712.463	0.85
712.49	4.85
712.517	3.85
712.544	2.85
712.572	7.85
712.599	-5.15
712.626	-0.15
712.653	-10.15
712.68	-1.15
712.707	-1.15
712.734	1.85
712.761	2.85
712.788	0.85
712.815	3.85
712.842	2.85
712.87	-9.15
712.897	-4.15
712.924	-23.15
712.951	3.85
712.978	13.85
713.005	6.85
713.032	26.85
713.059	-20.15
713.086	-4.15
713.113	-11.15
713.14	-26.15
713.167	-5.15
713.194	11.85
713.221	-1.15
713.248	6.85
713.275	-1.15
713.302	-11.15
713.329	18.85
713.356	4.85
713.383	6.85
713.41	21.85
713.437	-3.15
713.464	-4.15
713.491	-1.15
713.518	-8.15
713.545	0.85
713.572	7.85
713.599	8.85
713.626	10.85
713.653	8.85
713.68	-9.15
713.707	7.85
713.734	-0.15
713.761	-10.15
713.788	0.85
713.815	21.85
713.842	-4.15
713.869	15.85
713.896	3.85
713.923	4.85
713.95	4.85
713.977	-13.15
714.004	-0.15
714.031	-10.15
714.058	-19.15
714.085	-5.15
714.112	15.85
714.139	-4.15
714.165	-1.15
714.192	-9.15
714.219	7.85
714.246	-4.15
714.273	-4.15
714.3	7.85
714.327	0.85
714.354	5.85
714.381	-3.15
714.408	-1.15
714.435	8.85
714.461	3.85
714.488	8.85
714.515	-5.15
714.542	3.85
714.569	-8.15
714.596	-4.15
714.623	5.85
714.65	-11.15
714.677	-12.15
714.703	-12.15
714.73	-0.15
714.757	-3.15
714.784	13.85
714.811	-5.15
714.838	2.85
714.865	2.85
714.891	4.85
714.918	-3.15
714.945	7.85
714.972	14.85
714.999	-10.15
715.026	-23.15
715.052	8.85
715.079	2.85
715.106	-22.15
715.133	1.85
715.16	3.85
715.187	2.85
715.213	-0.15
715.24	0.85
715.267	1.85
715.294	-3.15
715.321	-2.15
715.347	3.85
715.374	-6.15
715.401	7.85
715.428	-1.15
715.455	-6.15
715.481	-1.15
715.508	27.85
715.535	7.85
715.562	17.85
715.588	1.85
715.615	-0.15
715.642	-4.15
715.669	-1.15
715.695	-6.15
715.722	-3.15
715.749	9.85
715.776	11.85
715.802	14.85
715.829	10.85
715.856	-9.15
715.883	17.85
715.909	-9.15
715.936	0.85
715.963	-3.15
715.99	-10.15
716.016	15.85
716.043	-9.15
716.07	-6.15
716.096	-3.15
716.123	-5.15
716.15	16.85
716.177	-13.15
716.203	14.85
716.23	-0.15
716.257	14.85
716.283	15.85
716.31	-3.15
716.337	6.85
716.363	-10.15
716.39	3.85
716.417	-3.15
716.443	0.85
716.47	0.85
716.497	-3.15
716.523	7.85
716.55	3.85
716.577	6.85
716.603	-4.15
716.63	2.85
716.657	10.85
716.683	-7.15
716.71	-4.15
716.737	6.85
716.763	3.85
716.79	6.85
716.817	18.85
716.843	11.85
716.87	-20.15
716.897	-16.15
716.923	14.85
716.95	2.85
716.976	-3.15
717.003	-7.15
717.03	8.85
717.056	6.85
717.083	-4.15
717.109	8.85
717.136	16.85
717.163	5.85
717.189	-2.15
717.216	13.85
717.242	3.85
717.269	8.85
717.296	-7.15
717.322	9.85
717.349	9.85
717.375	-4.15
717.402	0.85
717.428	-2.15
717.455	9.85
717.481	15.85
717.508	12.85
717.535	-1.15
717.561	0.85
717.588	-0.15
717.614	-10.15
717.641	7.85
717.667	-0.15
717.694	4.85
717.72	3.85
717.747	11.85
717.773	-3.15
717.8	11.85
717.826	4.85
717.853	6.85
717.88	27.85
717.906	0.85
717.933	8.85
717.959	2.85
717.986	-6.15
718.012	-12.15
718.039	-1.15
718.065	2.85
718.092	-1.15
718.118	-1.15
718.144	-2.15
718.171	2.85
718.197	32.85
718.224	17.85
718.25	-3.15
718.277	15.85
718.303	4.85
718.33	-2.15
718.356	-12.15
718.383	-1.15
718.409	-4.15
718.436	1.85
718.462	-1.15
718.489	-12.15
718.515	7.85
718.541	-1.15
718.568	6.85
718.594	1.85
718.621	-0.15
718.647	-3.15
718.674	11.85
718.7	11.85
718.726	2.85
718.753	8.85
718.779	-1.15
718.806	-12.15
718.832	-5.15
718.858	-4.15
718.885	7.85
718.911	6.85
718.938	11.85
718.964	-4.15
718.99	2.85
719.017	-15.15
719.043	12.85
719.07	7.85
719.096	-7.15
719.122	19.85
719.149	-2.15
719.175	14.85
719.201	-4.15
719.228	8.85
719.254	7.85
719.281	3.85
719.307	-4.15
719.333	-4.15
719.36	12.85
719.386	2.85
719.412	11.85
719.439	4.85
719.465	-7.15
719.491	-25.15
719.518	-3.15
719.544	-0.15
719.57	-3.15
719.597	6.85
719.623	-4.15
719.649	-3.15
719.675	5.85
719.702	4.85
719.728	22.85
719.754	-17.15
719.781	-21.15
719.807	-9.15
719.833	-9.15
719.86	11.85
719.886	0.85
719.912	-3.15
719.938	0.85
719.965	-13.15
719.991	4.85
720.017	-1.15
720.044	-11.15
720.07	2.85
720.096	15.85
720.122	2.85
720.149	5.85
720.175	15.85
720.201	2.85
720.227	-4.15
720.254	8.85
720.28	-3.15
720.306	5.85
720.332	-6.15
720.359	-5.15
720.385	5.85
720.411	7.85
720.437	0.85
720.463	12.85
720.49	11.85
720.516	-6.15
720.542	-0.15
720.568	-9.15
720.595	-3.15
720.621	1.85
720.647	-1.15
720.673	12.85
720.699	-1.15
720.725	9.85
720.752	7.85
720.778	8.85
720.804	14.85
720.83	-0.15
720.856	-3.15
720.883	-7.15
720.909	0.85
720.935	20.85
720.961	4.85
720.987	10.85
721.013	19.85
721.04	-5.15
721.066	-10.15
721.092	-2.15
721.118	1.85
721.144	3.85
721.17	0.85
721.196	0.85
721.223	-5.15
721.249	1.85
721.275	1.85
721.301	-3.15
721.327	22.85
721.353	18.85
721.379	17.85
721.405	12.85
721.432	26.85
721.458	-2.15
721.484	8.85
721.51	-7.15
721.536	-4.15
721.562	1.85
721.588	-5.15
721.614	-3.15
721.64	-1.15
721.666	3.85
721.693	-5.15
721.719	-3.15
721.745	-5.15
721.771	-0.15
721.797	1.85
721.823	11.85
721.849	10.85
721.875	7.85
721.901	3.85
721.927	7.85
721.953	15.85
721.979	19.85
722.005	-3.15
722.031	7.85
722.057	6.85
722.083	3.85
722.109	9.85
722.135	20.85
722.161	16.85
722.187	-0.15
722.214	3.85
722.24	3.85
722.266	-13.15
722.292	6.85
722.318	7.85
722.344	-12.15
722.37	-2.15
722.396	0.85
722.422	2.85
722.448	-3.15
722.474	-4.15
722.5	19.85
722.526	3.85
722.552	6.85
722.578	3.85
722.603	8.85
722.629	-12.15
722.655	7.85
722.681	-2.15
722.707	-6.15
722.733	-15.15
722.759	-13.15
722.785	-5.15
722.811	-0.15
722.837	-4.15
722.863	12.85
722.889	5.85
722.915	0.85
722.941	-8.15
722.967	-4.15
722.993	5.85
723.019	12.85
723.045	7.85
723.071	2.85
723.097	10.85
723.122	-4.15
723.148	-24.15
723.174	-6.15
723.2	-3.15
723.226	4.85
723.252	8.85
723.278	-0.15
723.304	2.85
723.33	3.85
723.356	-9.15
723.381	-15.15
723.407	-5.15
723.433	10.85
723.459	-4.15
723.485	-11.15
723.511	-8.15
723.537	-3.15
723.563	-8.15
723.588	-5.15
723.614	-0.15
723.64	-0.15
723.666	-6.15
723.692	-0.15
723.718	-1.15
723.744	-11.15
723.769	-3.15
723.795	-16.15
723.821	-0.15
723.847	-7.15
723.873	2.85
723.899	8.85
723.924	-0.15
723.95	11.85
723.976	-6.15
724.002	-6.15
724.028	-1.15
724.053	1.85
724.079	-12.15
724.105	0.85
724.131	-4.15
724.157	2.85
724.182	-1.15
724.208	-15.15
724.234	-3.15
724.26	-0.15
724.286	3.85
724.311	4.85
724.337	-15.15
724.363	-4.15
724.389	4.85
724.415	-20.15
724.44	11.85
724.466	1.85
724.492	-0.15
724.518	1.85
724.543	-9.15
724.569	0.85
724.595	13.85
724.621	-1.15
724.646	-6.15
724.672	-0.15
724.698	-1.15
724.723	0.85
724.749	7.85
724.775	18.85
724.801	-12.15
724.826	-0.15
724.852	2.85
724.878	-4.15
724.904	-9.15
724.929	-2.15
724.955	-14.15
724.981	1.85
725.006	-3.15
725.032	-12.15
725.058	-0.15
725.083	7.85
725.109	-3.15
725.135	11.85
725.161	14.85
725.186	15.85
725.212	7.85
725.238	20.85
725.263	3.85
725.289	-10.15
725.315	-5.15
725.34	-5.15
725.366	12.85
725.392	-5.15
725.417	-14.15
725.443	2.85
725.468	6.85
725.494	3.85
725.52	21.85
725.545	16.85
725.571	11.85
725.597	2.85
725.622	5.85
725.648	-0.15
725.674	17.85
725.699	18.85
725.725	-5.15
725.75	13.85
725.776	6.85
725.802	2.85
725.827	-4.15
725.853	13.85
725.878	4.85
725.904	-4.15
725.93	7.85
725.955	-12.15
725.981	4.85
726.006	-0.15
726.032	8.85
726.057	0.85
726.083	2.85
726.109	8.85
726.134	-2.15
726.16	-0.15
726.185	-4.15
726.211	-9.15
726.236	4.85
726.262	-6.15
726.288	1.85
726.313	14.85
726.339	5.85
726.364	-1.15
726.39	3.85
726.415	-12.15
726.441	-8.15
726.466	-3.15
726.492	-3.15
726.517	-0.15
726.543	9.85
726.568	-17.15
726.594	-1.15
726.619	9.85
726.645	16.85
726.67	4.85
726.696	6.85
726.721	-0.15
726.747	-8.15
726.772	3.85
726.798	6.85
726.823	8.85
726.849	-1.15
726.874	-0.15
726.9	8.85
726.925	14.85
726.951	10.85
726.976	3.85
727.002	-5.15
727.027	-3.15
727.053	6.85
727.078	-8.15
727.104	-9.15
727.129	-8.15
727.155	9.85
727.18	0.85
727.205	6.85
727.231	8.85
727.256	-0.15
727.282	-14.15
727.307	0.85
727.333	-1.15
727.358	-15.15
727.383	-22.15
727.409	0.85
727.434	-1.15
727.46	-17.15
727.485	-10.15
727.511	16.85
727.536	-12.15
727.561	-18.15
727.587	-12.15
727.612	-14.15
727.637	-8.15
727.663	-11.15
727.688	15.85
727.714	-5.15
727.739	-14.15
727.764	-7.15
727.79	9.85
727.815	3.85
727.841	9.85
727.866	8.85
727.891	16.85
727.917	0.85
727.942	-7.15
727.967	-3.15
727.993	-13.15
728.018	-1.15
728.043	-9.15
728.069	15.85
728.094	12.85
728.119	2.85
728.145	9.85
728.17	7.85
728.195	-1.15
728.221	0.85
728.246	-1.15
728.271	-8.15
728.297	-4.15
728.322	-3.15
728.347	-5.15
728.373	-3.15
728.398	0.85
728.423	1.85
728.448	-8.15
728.474	6.85
728.499	-1.15
728.524	-15.15
728.55	-0.15
728.575	-14.15
728.6	4.85
728.625	-4.15
728.651	14.85
728.676	1.85
728.701	-10.15
728.727	-4.15
728.752	-3.15
728.777	3.85
728.802	11.85
728.828	-7.15
728.853	-16.15
728.878	-20.15
728.903	-23.15
728.929	-22.15
728.954	-10.15
728.979	2.85
729.004	-7.15
729.03	-7.15
729.055	3.85
729.08	-13.15
729.105	-10.15
729.13	17.85
729.156	3.85
729.181	-10.15
729.206	-13.15
729.231	1.85
729.256	9.85
729.282	10.85
729.307	-11.15
729.332	-5.15
729.357	-3.15
729.382	-8.15
729.408	-7.15
729.433	0.85
729.458	-0.15
729.483	-0.15
729.508	14.85
729.533	-4.15
729.559	-5.15
729.584	-13.15
729.609	1.85
729.634	-7.15
729.659	-4.15
729.684	-22.15
729.71	9.85
729.735	9.85
729.76	-4.15
729.785	-3.15
729.81	12.85
729.835	-4.15
729.86	-16.15
729.886	-17.15
729.911	-6.15
729.936	-23.15
729.961	-3.15
729.986	0.85
730.011	-15.15
730.036	9.85
730.061	-17.15
730.086	-5.15
730.112	8.85
730.137	11.85
730.162	12.85
730.187	3.85
730.212	0.85
730.237	-8.15
730.262	-14.15
730.287	-15.15
730.312	14.85
730.337	-4.15
730.362	4.85
730.387	-3.15
730.413	-16.15
730.438	-8.15
730.463	-4.15
730.488	1.85
730.513	-13.15
730.538	-8.15
730.563	15.85
730.588	7.85
730.613	9.85
730.638	-13.15
730.663	-3.15
730.688	0.85
730.713	4.85
730.738	-3.15
730.763	4.85
730.788	-4.15
730.813	12.85
730.838	-10.15
730.863	-11.15
730.888	0.85
730.913	-7.15
730.938	-14.15
730.963	-16.15
730.988	-5.15
731.013	7.85
731.038	-11.15
731.063	-9.15
731.088	6.85
731.113	-15.15
731.138	0.85
731.163	-16.15
731.188	-8.15
731.213	-7.15
731.238	16.85
731.263	-4.15
731.288	-17.15
731.313	-7.15
731.338	1.85
731.363	-2.15
731.388	-8.15
731.413	0.85
731.438	-2.15
731.463	17.85
731.487	14.85
731.512	-12.15
731.537	-12.15
731.562	-0.15
731.587	4.85
731.612	-3.15
731.637	-11.15
731.662	9.85
731.687	0.85
731.712	-4.15
731.737	-3.15
731.762	-5.15
731.786	10.85
731.811	-5.15
731.836	-2.15
731.861	-16.15
731.886	-10.15
731.911	9.85
731.936	1.85
731.961	-3.15
731.986	-5.15
732.01	-2.15
732.035	-6.15
732.06	5.85
732.085	-4.15
732.11	-7.15
732.135	-4.15
732.16	0.85
732.184	-0.15
732.209	4.85
732.234	13.85
732.259	-1.15
732.284	11.85
732.309	-12.15
732.334	-8.15
732.358	-27.15
732.383	-26.15
732.408	-4.15
732.433	-3.15
732.458	7.85
732.482	-8.15
732.507	10.85
732.532	-2.15
732.557	11.85
732.582	0.85
732.607	-4.15
732.631	-7.15
732.656	-5.15
732.681	-8.15
732.706	-6.15
732.73	0.85
732.755	0.85
732.78	3.85
732.805	14.85
732.83	-3.15
732.854	0.85
732.879	14.85
732.904	0.85
732.929	6.85
732.953	-4.15
732.978	-15.15
733.003	-4.15
733.028	-9.15
733.052	15.85
733.077	6.85
733.102	24.85
733.127	-11.15
733.151	-6.15
733.176	-2.15
733.201	2.85
733.226	12.85
733.25	1.85
733.275	7.85
733.3	-7.15
733.324	-0.15
733.349	17.85
733.374	19.85
733.399	-7.15
733.423	-7.15
733.448	-0.15
733.473	0.85
733.497	-10.15
733.522	-10.15
733.547	13.85
733.571	16.85
733.596	2.85
733.621	2.85
733.646	-7.15
733.67	14.85
733.695	-14.15
733.72	-1.15
733.744	-7.15
733.769	-4.15
733.794	19.85
733.818	4.85
733.843	-12.15
733.867	-0.15
733.892	0.85
733.917	-13.15
733.941	-0.15
733.966	10.85
733.991	0.85
734.015	12.85
734.04	11.85
734.065	4.85
734.089	18.85
734.114	-4.15
734.138	10.85
734.163	-17.15
734.188	9.85
734.212	-1.15
734.237	0.85
734.261	6.85
734.286	-17.15
734.311	-10.15
734.335	-7.15
734.36	-13.15
734.384	-7.15
734.409	-1.15
734.434	-10.15
734.458	3.85
734.483	2.85
734.507	-12.15
734.532	1.85
734.556	4.85
734.581	-3.15
734.606	-6.15
734.63	-14.15
734.655	-4.15
734.679	10.85
734.704	2.85
734.728	-3.15
734.753	-4.15
734.777	-6.15
734.802	8.85
734.826	1.85
734.851	6.85
734.876	18.85
734.9	0.85
734.925	-2.15
734.949	-1.15
734.974	-0.15
734.998	1.85
735.023	-21.15
735.047	-8.15
735.072	2.85
735.096	5.85
735.121	4.85
735.145	-11.15
735.17	6.85
735.194	2.85
735.219	-3.15
735.243	1.85
735.268	0.85
735.292	0.85
735.317	-7.15
735.341	-2.15
735.365	-13.15
735.39	15.85
735.414	0.85
735.439	4.85
735.463	-10.15
735.488	-0.15
735.512	-4.15
735.537	5.85
735.561	-6.15
735.586	-2.15
735.61	-0.15
735.634	-3.15
735.659	5.85
735.683	18.85
735.708	-1.15
735.732	-7.15
735.757	-5.15
735.781	-4.15
735.805	1.85
735.83	-9.15
735.854	-4.15
735.879	3.85
735.903	4.85
735.927	1.85
735.952	8.85
735.976	-0.15
736.001	-0.15
736.025	4.85
736.049	4.85
736.074	1.85
736.098	-2.15
736.123	-3.15
736.147	1.85
736.171	5.85
736.196	4.85
736.22	-9.15
736.244	-2.15
736.269	-3.15
736.293	-9.15
736.317	2.85
736.342	1.85
736.366	11.85
736.39	21.85
736.415	7.85
736.439	10.85
736.463	7.85
736.488	4.85
736.512	3.85
736.536	5.85
736.561	19.85
736.585	-2.15
736.609	4.85
736.634	-9.15
736.658	-9.15
736.682	-11.15
736.707	-12.15
736.731	-6.15
736.755	3.85
736.78	18.85
736.804	18.85
736.828	-6.15
736.852	-5.15
736.877	-0.15
736.901	-0.15
736.925	20.85
736.949	30.85
736.974	3.85
736.998	-8.15
737.022	1.85
737.047	-6.15
737.071	11.85
737.095	25.85
737.119	24.85
737.144	17.85
737.168	3.85
737.192	-4.15
737.216	18.85
737.241	-0.15
737.265	-3.15
737.289	-6.15
737.313	-5.15
737.337	-1.15
737.362	17.85
737.386	7.85
737.41	-16.15
737.434	23.85
737.459	14.85
737.483	9.85
737.507	7.85
737.531	1.85
737.555	-0.15
737.58	4.85
737.604	12.85
737.628	-8.15
737.652	-11.15
737.676	-6.15
737.701	6.85
737.725	12.85
737.749	25.85
737.773	1.85
737.797	-8.15
737.821	13.85
737.846	-1.15
737.87	23.85
737.894	3.85
737.918	-3.15
737.942	-1.15
737.966	27.85
737.99	13.85
738.015	-15.15
738.039	-3.15
738.063	-4.15
738.087	8.85
738.111	2.85
738.135	17.85
738.159	0.85
738.184	-13.15
738.208	-3.15
738.232	4.85
738.256	31.85
738.28	1.85
738.304	11.85
738.328	12.85
738.352	8.85
738.376	-5.15
738.4	0.85
738.425	14.85
738.449	-1.15
738.473	17.85
738.497	7.85
738.521	19.85
738.545	7.85
738.569	12.85
738.593	24.85
738.617	8.85
738.641	11.85
738.665	-3.15
738.689	6.85
738.713	-14.15
738.737	-0.15
738.762	11.85
738.786	7.85
738.81	-5.15
738.834	13.85
738.858	-1.15
738.882	16.85
738.906	-5.15
738.93	-3.15
738.954	3.85
738.978	-0.15
739.002	-7.15
739.026	5.85
739.05	6.85
739.074	-10.15
739.098	23.85
739.122	8.85
739.146	-1.15
739.17	11.85
739.194	4.85
739.218	-4.15
739.242	-4.15
739.266	-6.15
739.29	9.85
739.314	-3.15
739.338	-4.15
739.362	6.85
739.386	8.85
739.41	-4.15
739.434	3.85
739.458	12.85
739.482	3.85
739.506	4.85
739.53	0.85
739.554	31.85
739.577	-1.15
739.601	0.85
739.625	-13.15
739.649	-7.15
739.673	-15.15
739.697	-8.15
739.721	-7.15
739.745	10.85
739.769	18.85
739.793	10.85
739.817	16.85
739.841	-0.15
739.865	13.85
739.889	2.85
739.912	18.85
739.936	5.85
739.96	-9.15
739.984	25.85
740.008	7.85
740.032	10.85
740.056	0.85
740.08	4.85
740.104	-6.15
740.127	1.85
740.151	9.85
740.175	13.85
740.199	9.85
740.223	51.85
740.247	20.85
740.271	2.85
740.295	-0.15
740.318	-11.15
740.342	-8.15
740.366	-3.15
740.39	7.85
740.414	-1.15
740.438	-1.15
740.461	19.85
740.485	9.85
740.509	2.85
740.533	12.85
740.557	-5.15
740.581	-4.15
740.604	-18.15
740.628	3.85
740.652	8.85
740.676	-17.15
740.7	10.85
740.723	-0.15
740.747	-9.15
740.771	7.85
740.795	-11.15
740.819	9.85
740.842	17.85
740.866	2.85
740.89	-3.15
740.914	-12.15
740.938	-5.15
740.961	1.85
740.985	7.85
741.009	-5.15
741.033	14.85
741.056	3.85
741.08	7.85
741.104	6.85
741.128	-2.15
741.151	16.85
741.175	-5.15
741.199	-1.15
741.223	-5.15
741.246	4.85
741.27	1.85
741.294	8.85
741.318	1.85
741.341	10.85
741.365	4.85
741.389	9.85
741.413	4.85
741.436	13.85
741.46	3.85
741.484	10.85
741.507	0.85
741.531	28.85
741.555	26.85
741.579	10.85
741.602	-7.15
741.626	18.85
741.65	-9.15
741.673	3.85
741.697	8.85
741.721	8.85
741.744	-12.15
741.768	-3.15
741.792	-3.15
741.815	-2.15
741.839	6.85
741.863	2.85
741.886	3.85
741.91	0.85
741.934	-6.15
741.957	-10.15
741.981	16.85
742.005	-0.15
742.028	-3.15
742.052	-0.15
742.075	-8.15
742.099	11.85
742.123	11.85
742.146	7.85
742.17	-2.15
742.194	-5.15
742.217	-9.15
742.241	2.85
742.264	3.85
742.288	11.85
742.312	14.85
742.335	8.85
742.359	15.85
742.382	9.85
742.406	4.85
742.43	-8.15
742.453	8.85
742.477	-13.15
742.5	3.85
742.524	-7.15
742.548	-12.15
742.571	-1.15
742.595	8.85
742.618	-0.15
742.642	-7.15
742.665	3.85
742.689	-7.15
742.712	2.85
742.736	-8.15
742.76	18.85
742.783	-1.15
742.807	10.85
742.83	10.85
742.854	-11.15
742.877	-0.15
742.901	10.85
742.924	-10.15
742.948	-0.15
742.971	-13.15
742.995	-12.15
743.018	-9.15
743.042	-3.15
743.065	-14.15
743.089	8.85
743.112	1.85
743.136	-3.15
743.159	3.85
743.183	6.85
743.206	4.85
743.23	-5.15
743.253	-3.15
743.277	7.85
743.3	-0.15
743.324	-15.15
743.347	-4.15
743.371	7.85
743.394	24.85
743.418	7.85
743.441	-3.15
743.465	5.85
743.488	3.85
743.512	-5.15
743.535	-4.15
743.558	6.85
743.582	-0.15
743.605	3.85
743.629	23.85
743.652	-9.15
743.676	-1.15
743.699	1.85
743.723	10.85
743.746	17.85
743.769	2.85
743.793	18.85
743.816	3.85
743.84	9.85
743.863	-1.15
743.886	9.85
743.91	9.85
743.933	-0.15
743.957	5.85
743.98	2.85
744.003	4.85
744.027	-10.15
744.05	-6.15
744.074	18.85
744.097	-4.15
744.12	1.85
744.144	-13.15
744.167	-13.15
744.19	-7.15
744.214	-4.15
744.237	-1.15
744.26	8.85
744.284	-7.15
744.307	-5.15
744.331	8.85
744.354	-7.15
744.377	-3.15
744.401	8.85
744.424	3.85
744.447	-14.15
744.471	-5.15
