Data from HighRes_H2_15_09_11_07_2024_HR4C61891__66__15-11-03-002.txt Node

Date: Thu Nov 07 15:11:03 EST 2024
User: crc00042
Spectrometer: HR4C6189
Trigger mode: 4
Integration Time (sec): 1.000000E-1
Scans to average: 1
Electric dark correction enabled: true
Nonlinearity correction enabled: false
Boxcar width: 0
XAxis mode: Wavelengths
Number of Pixels in Spectrum: 3648
>>>>>Begin Spectral Data<<<<<
639.567	-41.15
639.602	-41.15
639.636	-41.15
639.67	-48.15
639.704	-11.15
639.738	7.85
639.773	5.85
639.807	-9.15
639.841	4.85
639.875	9.85
639.909	-11.15
639.943	-17.15
639.978	0.85
640.012	0.85
640.046	8.85
640.08	7.85
640.114	0.85
640.148	-10.15
640.182	-4.15
640.217	6.85
640.251	23.85
640.285	-1.15
640.319	-5.15
640.353	-4.15
640.387	6.85
640.421	-1.15
640.455	-6.15
640.49	-1.15
640.524	-7.15
640.558	12.85
640.592	11.85
640.626	2.85
640.66	8.85
640.694	-9.15
640.728	4.85
640.762	4.85
640.796	13.85
640.83	12.85
640.865	1.85
640.899	-11.15
640.933	3.85
640.967	10.85
641.001	2.85
641.035	7.85
641.069	-0.15
641.103	-6.15
641.137	-21.15
641.171	0.85
641.205	3.85
641.239	-2.15
641.273	-0.15
641.307	8.85
641.341	-2.15
641.375	-5.15
641.409	-5.15
641.443	7.85
641.477	2.85
641.511	12.85
641.545	5.85
641.579	4.85
641.614	9.85
641.648	11.85
641.682	-7.15
641.716	6.85
641.75	10.85
641.784	-10.15
641.818	1.85
641.852	8.85
641.886	4.85
641.919	26.85
641.953	16.85
641.987	-0.15
642.021	5.85
642.055	-0.15
642.089	4.85
642.123	-1.15
642.157	-10.15
642.191	-9.15
642.225	7.85
642.259	-20.15
642.293	12.85
642.327	6.85
642.361	-11.15
642.395	15.85
642.429	2.85
642.463	1.85
642.497	12.85
642.531	7.85
642.565	-2.15
642.599	1.85
642.633	-13.15
642.666	3.85
642.7	16.85
642.734	7.85
642.768	-6.15
642.802	-6.15
642.836	8.85
642.87	13.85
642.904	16.85
642.938	13.85
642.972	23.85
643.005	9.85
643.039	12.85
643.073	1.85
643.107	6.85
643.141	-2.15
643.175	-4.15
643.209	-10.15
643.243	0.85
643.276	20.85
643.31	3.85
643.344	-5.15
643.378	11.85
643.412	0.85
643.446	13.85
643.48	-0.15
643.513	-5.15
643.547	-9.15
643.581	-11.15
643.615	2.85
643.649	5.85
643.683	4.85
643.716	4.85
643.75	15.85
643.784	-0.15
643.818	30.85
643.852	-3.15
643.886	-0.15
643.919	1.85
643.953	-0.15
643.987	-0.15
644.021	-0.15
644.055	5.85
644.088	-2.15
644.122	-5.15
644.156	13.85
644.19	9.85
644.224	-2.15
644.257	-5.15
644.291	10.85
644.325	4.85
644.359	0.85
644.392	25.85
644.426	11.85
644.46	4.85
644.494	13.85
644.527	-1.15
644.561	12.85
644.595	16.85
644.629	-15.15
644.662	-14.15
644.696	8.85
644.73	18.85
644.764	13.85
644.797	-7.15
644.831	1.85
644.865	-4.15
644.899	5.85
644.932	21.85
644.966	-5.15
645	3.85
645.033	13.85
645.067	7.85
645.101	5.85
645.135	9.85
645.168	-7.15
645.202	-24.15
645.236	-1.15
645.269	11.85
645.303	15.85
645.337	-3.15
645.37	-4.15
645.404	5.85
645.438	8.85
645.471	-9.15
645.505	-1.15
645.539	2.85
645.572	-19.15
645.606	-11.15
645.64	-9.15
645.673	7.85
645.707	22.85
645.741	3.85
645.774	-5.15
645.808	-5.15
645.842	0.85
645.875	12.85
645.909	-15.15
645.943	1.85
645.976	4.85
646.01	2.85
646.043	8.85
646.077	4.85
646.111	11.85
646.144	6.85
646.178	5.85
646.212	-10.15
646.245	-16.15
646.279	6.85
646.312	19.85
646.346	2.85
646.38	5.85
646.413	3.85
646.447	19.85
646.48	-3.15
646.514	0.85
646.547	-1.15
646.581	-0.15
646.615	0.85
646.648	-8.15
646.682	8.85
646.715	6.85
646.749	0.85
646.782	-6.15
646.816	4.85
646.85	-2.15
646.883	-13.15
646.917	-5.15
646.95	7.85
646.984	-5.15
647.017	-1.15
647.051	-15.15
647.084	-0.15
647.118	-16.15
647.151	-7.15
647.185	22.85
647.218	-7.15
647.252	-2.15
647.285	0.85
647.319	-7.15
647.353	-0.15
647.386	6.85
647.42	10.85
647.453	-14.15
647.487	9.85
647.52	15.85
647.553	11.85
647.587	-1.15
647.62	-6.15
647.654	-2.15
647.687	-8.15
647.721	3.85
647.754	22.85
647.788	0.85
647.821	2.85
647.855	16.85
647.888	19.85
647.922	1.85
647.955	4.85
647.989	8.85
648.022	4.85
648.055	10.85
648.089	-7.15
648.122	29.85
648.156	-9.15
648.189	0.85
648.223	7.85
648.256	3.85
648.29	12.85
648.323	-4.15
648.356	7.85
648.39	12.85
648.423	5.85
648.457	2.85
648.49	-12.15
648.523	-0.15
648.557	2.85
648.59	-21.15
648.624	-2.15
648.657	2.85
648.69	18.85
648.724	11.85
648.757	11.85
648.791	14.85
648.824	7.85
648.857	15.85
648.891	9.85
648.924	23.85
648.957	18.85
648.991	-8.15
649.024	8.85
649.057	4.85
649.091	-2.15
649.124	13.85
649.158	9.85
649.191	13.85
649.224	16.85
649.258	-3.15
649.291	11.85
649.324	-7.15
649.358	-0.15
649.391	7.85
649.424	-6.15
649.458	-6.15
649.491	-1.15
649.524	-4.15
649.557	-22.15
649.591	-17.15
649.624	10.85
649.657	-5.15
649.691	6.85
649.724	5.85
649.757	-4.15
649.791	-2.15
649.824	26.85
649.857	31.85
649.89	-3.15
649.924	-9.15
649.957	2.85
649.99	-12.15
650.023	-15.15
650.057	1.85
650.09	5.85
650.123	16.85
650.157	4.85
650.19	32.85
650.223	15.85
650.256	-9.15
650.29	-0.15
650.323	14.85
650.356	20.85
650.389	5.85
650.423	-5.15
650.456	-4.15
650.489	6.85
650.522	9.85
650.555	25.85
650.589	14.85
650.622	-1.15
650.655	17.85
650.688	27.85
650.721	2.85
650.755	-7.15
650.788	8.85
650.821	5.85
650.854	-4.15
650.887	-3.15
650.921	-13.15
650.954	-3.15
650.987	-2.15
651.02	2.85
651.053	-12.15
651.087	-14.15
651.12	27.85
651.153	16.85
651.186	-2.15
651.219	-7.15
651.252	5.85
651.286	23.85
651.319	-1.15
651.352	12.85
651.385	-0.15
651.418	-6.15
651.451	9.85
651.484	5.85
651.518	3.85
651.551	12.85
651.584	-2.15
651.617	12.85
651.65	10.85
651.683	6.85
651.716	9.85
651.749	-7.15
651.783	0.85
651.816	4.85
651.849	3.85
651.882	12.85
651.915	2.85
651.948	-15.15
651.981	-10.15
652.014	-6.15
652.047	-0.15
652.08	-12.15
652.114	7.85
652.147	3.85
652.18	15.85
652.213	13.85
652.246	-10.15
652.279	-4.15
652.312	5.85
652.345	4.85
652.378	5.85
652.411	8.85
652.444	7.85
652.477	-3.15
652.51	6.85
652.543	-0.15
652.576	6.85
652.609	1.85
652.642	14.85
652.675	-0.15
652.709	-6.15
652.742	6.85
652.775	-9.15
652.808	14.85
652.841	-1.15
652.874	-4.15
652.907	-6.15
652.94	5.85
652.973	-4.15
653.006	-14.15
653.039	1.85
653.072	-6.15
653.105	-11.15
653.138	-10.15
653.171	3.85
653.204	-3.15
653.237	-4.15
653.27	-5.15
653.303	4.85
653.336	20.85
653.368	-4.15
653.401	-1.15
653.434	6.85
653.467	7.85
653.5	-12.15
653.533	-0.15
653.566	-0.15
653.599	-5.15
653.632	19.85
653.665	-2.15
653.698	2.85
653.731	0.85
653.764	7.85
653.797	-2.15
653.83	6.85
653.863	-3.15
653.896	6.85
653.929	6.85
653.961	6.85
653.994	-10.15
654.027	-13.15
654.06	4.85
654.093	17.85
654.126	6.85
654.159	-4.15
654.192	-8.15
654.225	-3.15
654.258	-9.15
654.29	1.85
654.323	-1.15
654.356	-5.15
654.389	8.85
654.422	-1.15
654.455	5.85
654.488	-2.15
654.521	-2.15
654.553	-5.15
654.586	14.85
654.619	8.85
654.652	-7.15
654.685	6.85
654.718	4.85
654.751	4.85
654.783	9.85
654.816	41.85
654.849	7.85
654.882	-7.15
654.915	-13.15
654.948	-5.15
654.98	3.85
655.013	0.85
655.046	-11.15
655.079	-5.15
655.112	2.85
655.144	-14.15
655.177	5.85
655.21	15.85
655.243	18.85
655.276	4.85
655.308	-3.15
655.341	0.85
655.374	0.85
655.407	-7.15
655.44	-9.15
655.472	16.85
655.505	14.85
655.538	10.85
655.571	19.85
655.603	16.85
655.636	9.85
655.669	9.85
655.702	5.85
655.734	4.85
655.767	22.85
655.8	23.85
655.833	25.85
655.865	30.85
655.898	24.85
655.931	23.85
655.964	39.85
655.996	47.85
656.029	69.85
656.062	71.85
656.095	84.85
656.127	87.85
656.16	104.85
656.193	119.85
656.225	178.85
656.258	278.85
656.291	492.85
656.324	1114.85
656.356	3346.85
656.389	7599.85
656.422	6060.85
656.454	2044.85
656.487	687.85
656.52	266.85
656.552	120.85
656.585	88.85
656.618	45.85
656.65	40.85
656.683	16.85
656.716	24.85
656.748	18.85
656.781	10.85
656.814	2.85
656.846	13.85
656.879	4.85
656.912	5.85
656.944	-5.15
656.977	-11.15
657.01	-13.15
657.042	3.85
657.075	5.85
657.108	3.85
657.14	7.85
657.173	21.85
657.205	29.85
657.238	7.85
657.271	-2.15
657.303	-15.15
657.336	4.85
657.369	8.85
657.401	4.85
657.434	7.85
657.466	4.85
657.499	4.85
657.532	9.85
657.564	13.85
657.597	15.85
657.629	-2.15
657.662	1.85
657.694	9.85
657.727	5.85
657.76	9.85
657.792	1.85
657.825	-3.15
657.857	-0.15
657.89	-7.15
657.922	17.85
657.955	4.85
657.987	-3.15
658.02	18.85
658.053	5.85
658.085	-4.15
658.118	15.85
658.15	4.85
658.183	24.85
658.215	9.85
658.248	14.85
658.28	12.85
658.313	15.85
658.345	10.85
658.378	-6.15
658.41	-13.15
658.443	10.85
658.475	-3.15
658.508	-16.15
658.54	-17.15
658.573	-9.15
658.605	9.85
658.638	-16.15
658.67	-0.15
658.703	-7.15
658.735	-10.15
658.768	1.85
658.8	-12.15
658.833	18.85
658.865	7.85
658.898	11.85
658.93	-6.15
658.963	7.85
658.995	-14.15
659.028	12.85
659.06	9.85
659.092	-0.15
659.125	-9.15
659.157	4.85
659.19	0.85
659.222	-8.15
659.255	-3.15
659.287	13.85
659.32	0.85
659.352	11.85
659.384	6.85
659.417	-4.15
659.449	4.85
659.482	-4.15
659.514	-16.15
659.546	5.85
659.579	-10.15
659.611	1.85
659.644	-14.15
659.676	-14.15
659.708	-16.15
659.741	-12.15
659.773	7.85
659.806	13.85
659.838	9.85
659.87	4.85
659.903	-14.15
659.935	4.85
659.967	8.85
660	2.85
660.032	-12.15
660.065	14.85
660.097	1.85
660.129	-0.15
660.162	-19.15
660.194	-0.15
660.226	4.85
660.259	12.85
660.291	6.85
660.323	-1.15
660.356	-2.15
660.388	-1.15
660.42	8.85
660.453	21.85
660.485	13.85
660.517	3.85
660.55	6.85
660.582	-20.15
660.614	13.85
660.647	8.85
660.679	-23.15
660.711	0.85
660.743	-5.15
660.776	-7.15
660.808	0.85
660.84	-8.15
660.873	-3.15
660.905	0.85
660.937	5.85
660.969	9.85
661.002	9.85
661.034	3.85
661.066	-0.15
661.099	13.85
661.131	6.85
661.163	-0.15
661.195	-1.15
661.228	4.85
661.26	7.85
661.292	-2.15
661.324	3.85
661.357	0.85
661.389	10.85
661.421	10.85
661.453	11.85
661.485	7.85
661.518	9.85
661.55	-3.15
661.582	12.85
661.614	-5.15
661.647	-2.15
661.679	2.85
661.711	-2.15
661.743	0.85
661.775	-0.15
661.808	26.85
661.84	-16.15
661.872	-1.15
661.904	4.85
661.936	12.85
661.969	-5.15
662.001	-8.15
662.033	-1.15
662.065	-13.15
662.097	8.85
662.129	0.85
662.162	-9.15
662.194	2.85
662.226	-4.15
662.258	7.85
662.29	0.85
662.322	-6.15
662.355	-16.15
662.387	12.85
662.419	0.85
662.451	12.85
662.483	11.85
662.515	-4.15
662.547	-7.15
662.58	-14.15
662.612	1.85
662.644	2.85
662.676	-1.15
662.708	29.85
662.74	5.85
662.772	4.85
662.804	2.85
662.836	3.85
662.869	-10.15
662.901	15.85
662.933	5.85
662.965	14.85
662.997	4.85
663.029	1.85
663.061	-1.15
663.093	-1.15
663.125	4.85
663.157	19.85
663.189	8.85
663.221	24.85
663.254	3.85
663.286	6.85
663.318	-7.15
663.35	-4.15
663.382	2.85
663.414	4.85
663.446	9.85
663.478	-1.15
663.51	27.85
663.542	-18.15
663.574	6.85
663.606	-6.15
663.638	-12.15
663.67	-22.15
663.702	0.85
663.734	6.85
663.766	2.85
663.798	1.85
663.83	19.85
663.862	11.85
663.894	4.85
663.926	-9.15
663.958	3.85
663.99	-5.15
664.022	3.85
664.054	0.85
664.086	-11.15
664.118	-0.15
664.15	-2.15
664.182	7.85
664.214	11.85
664.246	13.85
664.278	5.85
664.31	15.85
664.342	13.85
664.374	-1.15
664.406	-10.15
664.438	-9.15
664.47	11.85
664.502	-13.15
664.534	-4.15
664.566	4.85
664.598	16.85
664.63	14.85
664.662	8.85
664.693	-15.15
664.725	-7.15
664.757	-5.15
664.789	-11.15
664.821	19.85
664.853	6.85
664.885	0.85
664.917	-3.15
664.949	9.85
664.981	19.85
665.013	-4.15
665.045	-23.15
665.076	-3.15
665.108	-5.15
665.14	-6.15
665.172	-8.15
665.204	-21.15
665.236	-8.15
665.268	24.85
665.3	-7.15
665.331	4.85
665.363	4.85
665.395	-2.15
665.427	-8.15
665.459	7.85
665.491	-12.15
665.523	7.85
665.555	-8.15
665.586	-2.15
665.618	-5.15
665.65	-13.15
665.682	28.85
665.714	-4.15
665.746	1.85
665.777	-2.15
665.809	-18.15
665.841	3.85
665.873	-6.15
665.905	-5.15
665.937	5.85
665.968	5.85
666	-7.15
666.032	7.85
666.064	9.85
666.096	-7.15
666.127	16.85
666.159	12.85
666.191	19.85
666.223	0.85
666.255	1.85
666.286	3.85
666.318	2.85
666.35	12.85
666.382	1.85
666.413	-11.15
666.445	-11.15
666.477	-2.15
666.509	-2.15
666.54	-3.15
666.572	-6.15
666.604	3.85
666.636	-10.15
666.667	14.85
666.699	22.85
666.731	13.85
666.763	-9.15
666.794	-2.15
666.826	-14.15
666.858	-2.15
666.89	11.85
666.921	-2.15
666.953	12.85
666.985	10.85
667.017	14.85
667.048	-6.15
667.08	-7.15
667.112	3.85
667.143	-4.15
667.175	4.85
667.207	2.85
667.238	10.85
667.27	3.85
667.302	10.85
667.334	0.85
667.365	19.85
667.397	8.85
667.429	-0.15
667.46	25.85
667.492	13.85
667.524	-2.15
667.555	1.85
667.587	3.85
667.619	12.85
667.65	1.85
667.682	8.85
667.714	8.85
667.745	-2.15
667.777	-3.15
667.808	7.85
667.84	7.85
667.872	-6.15
667.903	19.85
667.935	-1.15
667.967	-5.15
667.998	-8.15
668.03	-12.15
668.061	16.85
668.093	5.85
668.125	3.85
668.156	16.85
668.188	-4.15
668.22	-35.15
668.251	1.85
668.283	30.85
668.314	2.85
668.346	-7.15
668.377	8.85
668.409	-4.15
668.441	8.85
668.472	4.85
668.504	14.85
668.535	8.85
668.567	11.85
668.599	-4.15
668.63	-9.15
668.662	0.85
668.693	2.85
668.725	-4.15
668.756	0.85
668.788	-3.15
668.819	-0.15
668.851	-6.15
668.882	-5.15
668.914	2.85
668.946	-1.15
668.977	3.85
669.009	-6.15
669.04	-13.15
669.072	-9.15
669.103	7.85
669.135	7.85
669.166	3.85
669.198	-5.15
669.229	4.85
669.261	-2.15
669.292	-12.15
669.324	3.85
669.355	33.85
669.387	-7.15
669.418	6.85
669.45	-0.15
669.481	9.85
669.513	10.85
669.544	12.85
669.576	1.85
669.607	7.85
669.639	4.85
669.67	2.85
669.701	12.85
669.733	-11.15
669.764	5.85
669.796	2.85
669.827	-1.15
669.859	4.85
669.89	4.85
669.922	10.85
669.953	17.85
669.985	21.85
670.016	11.85
670.047	1.85
670.079	-18.15
670.11	-5.15
670.142	-4.15
670.173	12.85
670.204	2.85
670.236	3.85
670.267	-6.15
670.299	17.85
670.33	10.85
670.362	9.85
670.393	-23.15
670.424	-6.15
670.456	-12.15
670.487	9.85
670.518	-1.15
670.55	2.85
670.581	-1.15
670.613	15.85
670.644	-7.15
670.675	-3.15
670.707	10.85
670.738	-6.15
670.769	6.85
670.801	5.85
670.832	-2.15
670.864	2.85
670.895	11.85
670.926	0.85
670.958	-8.15
670.989	-6.15
671.02	-3.15
671.052	8.85
671.083	11.85
671.114	-12.15
671.146	3.85
671.177	7.85
671.208	-3.15
671.24	-3.15
671.271	0.85
671.302	2.85
671.333	-10.15
671.365	-4.15
671.396	-6.15
671.427	0.85
671.459	8.85
671.49	-2.15
671.521	24.85
671.553	7.85
671.584	9.85
671.615	7.85
671.646	14.85
671.678	-3.15
671.709	-0.15
671.74	-18.15
671.771	-9.15
671.803	0.85
671.834	6.85
671.865	-5.15
671.896	6.85
671.928	-11.15
671.959	-6.15
671.99	-7.15
672.021	3.85
672.053	-2.15
672.084	23.85
672.115	-2.15
672.146	-1.15
672.178	-12.15
672.209	13.85
672.24	5.85
672.271	7.85
672.303	-4.15
672.334	-8.15
672.365	-15.15
672.396	10.85
672.427	17.85
672.459	7.85
672.49	20.85
672.521	4.85
672.552	12.85
672.583	0.85
672.615	-0.15
672.646	9.85
672.677	-8.15
672.708	-5.15
672.739	4.85
672.77	2.85
672.802	7.85
672.833	2.85
672.864	-12.15
672.895	0.85
672.926	-2.15
672.957	-13.15
672.989	-3.15
673.02	2.85
673.051	1.85
673.082	13.85
673.113	9.85
673.144	15.85
673.175	-3.15
673.206	0.85
673.238	-2.15
673.269	4.85
673.3	-0.15
673.331	8.85
673.362	15.85
673.393	12.85
673.424	12.85
673.455	8.85
673.487	21.85
673.518	8.85
673.549	-1.15
673.58	-1.15
673.611	2.85
673.642	2.85
673.673	-11.15
673.704	15.85
673.735	18.85
673.766	3.85
673.797	8.85
673.828	11.85
673.86	-1.15
673.891	-9.15
673.922	-20.15
673.953	-11.15
673.984	-0.15
674.015	4.85
674.046	9.85
674.077	4.85
674.108	1.85
674.139	-0.15
674.17	-3.15
674.201	-5.15
674.232	-11.15
674.263	0.85
674.294	-6.15
674.325	-3.15
674.356	3.85
674.387	5.85
674.418	7.85
674.449	-10.15
674.48	-1.15
674.511	7.85
674.542	12.85
674.573	-2.15
674.604	4.85
674.635	-3.15
674.666	3.85
674.697	2.85
674.728	8.85
674.759	2.85
674.79	5.85
674.821	-0.15
674.852	-15.15
674.883	1.85
674.914	-5.15
674.945	-9.15
674.976	-16.15
675.007	-20.15
675.038	-7.15
675.069	-9.15
675.1	3.85
675.131	-4.15
675.162	-7.15
675.193	-14.15
675.224	-0.15
675.254	12.85
675.285	8.85
675.316	12.85
675.347	8.85
675.378	1.85
675.409	-8.15
675.44	4.85
675.471	-9.15
675.502	-2.15
675.533	-3.15
675.564	-2.15
675.595	-4.15
675.625	24.85
675.656	9.85
675.687	5.85
675.718	6.85
675.749	15.85
675.78	5.85
675.811	-11.15
675.842	-2.15
675.873	4.85
675.903	-12.15
675.934	-4.15
675.965	-19.15
675.996	-3.15
676.027	-2.15
676.058	-9.15
676.089	-28.15
676.119	0.85
676.15	8.85
676.181	8.85
676.212	-3.15
676.243	10.85
676.274	3.85
676.304	16.85
676.335	2.85
676.366	5.85
676.397	-3.15
676.428	-13.15
676.459	-6.15
676.489	0.85
676.52	2.85
676.551	-6.15
676.582	-7.15
676.613	-11.15
676.643	-8.15
676.674	7.85
676.705	-7.15
676.736	-4.15
676.767	24.85
676.797	17.85
676.828	13.85
676.859	10.85
676.89	-0.15
676.92	6.85
676.951	-3.15
676.982	3.85
677.013	4.85
677.044	7.85
677.074	3.85
677.105	-21.15
677.136	4.85
677.167	-9.15
677.197	8.85
677.228	-0.15
677.259	-3.15
677.289	3.85
677.32	-4.15
677.351	-22.15
677.382	-16.15
677.412	-14.15
677.443	15.85
677.474	2.85
677.505	-4.15
677.535	-10.15
677.566	-5.15
677.597	-13.15
677.627	-5.15
677.658	-4.15
677.689	-1.15
677.72	9.85
677.75	12.85
677.781	-7.15
677.812	5.85
677.842	6.85
677.873	12.85
677.904	14.85
677.934	-19.15
677.965	-8.15
677.996	-15.15
678.026	-1.15
678.057	9.85
678.088	3.85
678.118	-2.15
678.149	-0.15
678.18	3.85
678.21	10.85
678.241	1.85
678.272	0.85
678.302	8.85
678.333	10.85
678.363	22.85
678.394	5.85
678.425	-9.15
678.455	10.85
678.486	12.85
678.517	1.85
678.547	-6.15
678.578	-0.15
678.608	-2.15
678.639	1.85
678.67	17.85
678.7	-3.15
678.731	-16.15
678.761	-4.15
678.792	-9.15
678.823	3.85
678.853	12.85
678.884	-7.15
678.914	15.85
678.945	2.85
678.975	-18.15
679.006	2.85
679.037	-1.15
679.067	21.85
679.098	3.85
679.128	7.85
679.159	-13.15
679.189	-2.15
679.22	-27.15
679.25	2.85
679.281	-1.15
679.312	-12.15
679.342	24.85
679.373	14.85
679.403	-12.15
679.434	14.85
679.464	-4.15
679.495	12.85
679.525	-3.15
679.556	4.85
679.586	6.85
679.617	13.85
679.647	3.85
679.678	11.85
679.708	3.85
679.739	-4.15
679.769	5.85
679.8	11.85
679.83	0.85
679.861	6.85
679.891	-2.15
679.922	-13.15
679.952	-6.15
679.983	12.85
680.013	-0.15
680.044	-12.15
680.074	14.85
680.105	10.85
680.135	9.85
680.165	5.85
680.196	3.85
680.226	-3.15
680.257	2.85
680.287	4.85
680.318	-11.15
680.348	-11.15
680.379	14.85
680.409	3.85
680.439	8.85
680.47	0.85
680.5	17.85
680.531	4.85
680.561	11.85
680.592	-2.15
680.622	12.85
680.652	10.85
680.683	9.85
680.713	-6.15
680.744	4.85
680.774	4.85
680.804	11.85
680.835	-10.15
680.865	-0.15
680.896	20.85
680.926	19.85
680.956	11.85
680.987	-1.15
681.017	0.85
681.047	1.85
681.078	-11.15
681.108	7.85
681.139	1.85
681.169	1.85
681.199	-0.15
681.23	-0.15
681.26	2.85
681.29	-12.15
681.321	-4.15
681.351	5.85
681.381	-2.15
681.412	12.85
681.442	-10.15
681.472	20.85
681.503	24.85
681.533	1.85
681.563	7.85
681.594	5.85
681.624	-1.15
681.654	8.85
681.685	-10.15
681.715	-7.15
681.745	-10.15
681.775	-7.15
681.806	-6.15
681.836	-15.15
681.866	-9.15
681.897	-7.15
681.927	0.85
681.957	-22.15
681.987	8.85
682.018	5.85
682.048	13.85
682.078	0.85
682.109	24.85
682.139	25.85
682.169	3.85
682.199	-7.15
682.23	-3.15
682.26	2.85
682.29	2.85
682.32	5.85
682.351	9.85
682.381	-11.15
682.411	-0.15
682.441	-8.15
682.472	-22.15
682.502	-7.15
682.532	-2.15
682.562	0.85
682.592	0.85
682.623	12.85
682.653	13.85
682.683	-11.15
682.713	7.85
682.743	10.85
682.774	2.85
682.804	9.85
682.834	18.85
682.864	10.85
682.894	5.85
682.925	7.85
682.955	5.85
682.985	-5.15
683.015	4.85
683.045	12.85
683.076	-0.15
683.106	-8.15
683.136	8.85
683.166	9.85
683.196	-8.15
683.226	0.85
683.257	-9.15
683.287	2.85
683.317	-3.15
683.347	10.85
683.377	12.85
683.407	15.85
683.437	-5.15
683.468	-5.15
683.498	-16.15
683.528	-2.15
683.558	-1.15
683.588	-17.15
683.618	-6.15
683.648	5.85
683.678	-6.15
683.708	7.85
683.739	-0.15
683.769	-4.15
683.799	-6.15
683.829	-1.15
683.859	-5.15
683.889	5.85
683.919	-10.15
683.949	3.85
683.979	16.85
684.009	-0.15
684.039	12.85
684.07	-15.15
684.1	4.85
684.13	11.85
684.16	11.85
684.19	-8.15
684.22	-7.15
684.25	1.85
684.28	3.85
684.31	29.85
684.34	-0.15
684.37	1.85
684.4	-6.15
684.43	7.85
684.46	5.85
684.49	7.85
684.52	17.85
684.55	4.85
684.58	0.85
684.61	1.85
684.64	12.85
684.67	9.85
684.7	3.85
684.73	7.85
684.76	-1.15
684.79	29.85
684.82	0.85
684.85	-5.15
684.88	21.85
684.91	4.85
684.94	9.85
684.97	-13.15
685	-2.15
685.03	-10.15
685.06	-18.15
685.09	8.85
685.12	21.85
685.15	-0.15
685.18	15.85
685.21	0.85
685.24	1.85
685.27	10.85
685.3	-8.15
685.33	10.85
685.36	-4.15
685.39	-2.15
685.42	-8.15
685.45	-2.15
685.48	8.85
685.51	-1.15
685.54	6.85
685.569	11.85
685.599	10.85
685.629	20.85
685.659	8.85
685.689	1.85
685.719	13.85
685.749	-4.15
685.779	7.85
685.809	16.85
685.839	-2.15
685.869	1.85
685.898	23.85
685.928	-1.15
685.958	6.85
685.988	24.85
686.018	4.85
686.048	-1.15
686.078	8.85
686.108	10.85
686.137	4.85
686.167	27.85
686.197	-8.15
686.227	-0.15
686.257	30.85
686.287	4.85
686.317	-0.15
686.346	4.85
686.376	-8.15
686.406	-5.15
686.436	5.85
686.466	11.85
686.496	0.85
686.525	3.85
686.555	2.85
686.585	10.85
686.615	27.85
686.645	11.85
686.675	-8.15
686.704	0.85
686.734	5.85
686.764	-2.15
686.794	-11.15
686.824	-1.15
686.853	14.85
686.883	9.85
686.913	6.85
686.943	-2.15
686.973	-13.15
687.002	4.85
687.032	23.85
687.062	-12.15
687.092	11.85
687.121	-12.15
687.151	3.85
687.181	1.85
687.211	16.85
687.24	-1.15
687.27	4.85
687.3	-8.15
687.33	1.85
687.359	-1.15
687.389	11.85
687.419	-6.15
687.449	-3.15
687.478	8.85
687.508	12.85
687.538	-4.15
687.568	-6.15
687.597	-9.15
687.627	-3.15
687.657	3.85
687.686	5.85
687.716	-2.15
687.746	-10.15
687.776	-3.15
687.805	6.85
687.835	-12.15
687.865	12.85
687.894	-14.15
687.924	-20.15
687.954	-11.15
687.983	-1.15
688.013	15.85
688.043	12.85
688.072	-3.15
688.102	5.85
688.132	-18.15
688.161	0.85
688.191	-11.15
688.221	12.85
688.25	-14.15
688.28	8.85
688.31	4.85
688.339	-5.15
688.369	-11.15
688.399	-13.15
688.428	0.85
688.458	16.85
688.488	1.85
688.517	10.85
688.547	6.85
688.576	31.85
688.606	13.85
688.636	0.85
688.665	9.85
688.695	15.85
688.725	10.85
688.754	-3.15
688.784	0.85
688.813	5.85
688.843	0.85
688.873	14.85
688.902	-4.15
688.932	10.85
688.961	12.85
688.991	32.85
689.02	24.85
689.05	4.85
689.08	20.85
689.109	17.85
689.139	9.85
689.168	15.85
689.198	5.85
689.227	5.85
689.257	5.85
689.287	12.85
689.316	-4.15
689.346	-3.15
689.375	-15.15
689.405	5.85
689.434	-2.15
689.464	12.85
689.493	-1.15
689.523	-6.15
689.552	1.85
689.582	4.85
689.611	-7.15
689.641	4.85
689.67	19.85
689.7	5.85
689.73	12.85
689.759	8.85
689.789	25.85
689.818	-4.15
689.848	12.85
689.877	26.85
689.906	-6.15
689.936	3.85
689.965	5.85
689.995	10.85
690.024	20.85
690.054	0.85
690.083	2.85
690.113	-0.15
690.142	-3.15
690.172	-0.15
690.201	3.85
690.231	-15.15
690.26	14.85
690.29	1.85
690.319	9.85
690.348	-16.15
690.378	-4.15
690.407	16.85
690.437	9.85
690.466	4.85
690.496	-16.15
690.525	14.85
690.555	7.85
690.584	-6.15
690.613	5.85
690.643	8.85
690.672	8.85
690.702	-2.15
690.731	9.85
690.76	-1.15
690.79	2.85
690.819	5.85
690.849	2.85
690.878	8.85
690.907	6.85
690.937	21.85
690.966	12.85
690.996	1.85
691.025	1.85
691.054	-0.15
691.084	1.85
691.113	7.85
691.142	7.85
691.172	9.85
691.201	20.85
691.23	11.85
691.26	19.85
691.289	6.85
691.319	13.85
691.348	7.85
691.377	-2.15
691.407	13.85
691.436	11.85
691.465	3.85
691.495	-0.15
691.524	-9.15
691.553	6.85
691.583	7.85
691.612	10.85
691.641	-5.15
691.67	9.85
691.7	4.85
691.729	-3.15
691.758	11.85
691.788	9.85
691.817	2.85
691.846	-3.15
691.876	-22.15
691.905	3.85
691.934	-1.15
691.963	8.85
691.993	-5.15
692.022	4.85
692.051	-9.15
692.081	9.85
692.11	12.85
692.139	2.85
692.168	5.85
692.198	20.85
692.227	12.85
692.256	6.85
692.285	4.85
692.315	0.85
692.344	0.85
692.373	1.85
692.402	-21.15
692.432	-6.15
692.461	-9.15
692.49	1.85
692.519	-2.15
692.548	0.85
692.578	0.85
692.607	-13.15
692.636	-0.15
692.665	-0.15
692.694	-12.15
692.724	8.85
692.753	4.85
692.782	9.85
692.811	-3.15
692.84	-5.15
692.87	-0.15
692.899	-5.15
692.928	3.85
692.957	4.85
692.986	7.85
693.016	6.85
693.045	12.85
693.074	-7.15
693.103	6.85
693.132	0.85
693.161	6.85
693.191	3.85
693.22	0.85
693.249	-4.15
693.278	-4.15
693.307	17.85
693.336	-1.15
693.365	-12.15
693.395	-0.15
693.424	11.85
693.453	21.85
693.482	13.85
693.511	16.85
693.54	10.85
693.569	16.85
693.598	-6.15
693.628	11.85
693.657	1.85
693.686	13.85
693.715	4.85
693.744	19.85
693.773	19.85
693.802	18.85
693.831	-2.15
693.86	22.85
693.889	3.85
693.919	4.85
693.948	3.85
693.977	-6.15
694.006	-5.15
694.035	3.85
694.064	-9.15
694.093	-3.15
694.122	1.85
694.151	4.85
694.18	7.85
694.209	23.85
694.238	-2.15
694.267	13.85
694.296	20.85
694.325	4.85
694.354	17.85
694.383	18.85
694.412	13.85
694.441	-1.15
694.471	-4.15
694.5	-12.15
694.529	7.85
694.558	28.85
694.587	14.85
694.616	4.85
694.645	9.85
694.674	17.85
694.703	13.85
694.732	4.85
694.761	16.85
694.79	6.85
694.819	0.85
694.848	-0.15
694.877	25.85
694.906	28.85
694.935	8.85
694.963	15.85
694.992	6.85
695.021	4.85
695.05	13.85
695.079	-2.15
695.108	3.85
695.137	3.85
695.166	1.85
695.195	-8.15
695.224	14.85
695.253	5.85
695.282	3.85
695.311	10.85
695.34	-1.15
695.369	8.85
695.398	3.85
695.427	22.85
695.456	-3.15
695.485	2.85
695.513	3.85
695.542	2.85
695.571	11.85
695.6	12.85
695.629	-5.15
695.658	17.85
695.687	-8.15
695.716	1.85
695.745	27.85
695.774	17.85
695.802	3.85
695.831	-4.15
695.86	4.85
695.889	14.85
695.918	6.85
695.947	0.85
695.976	-3.15
696.005	9.85
696.033	11.85
696.062	24.85
696.091	-4.15
696.12	16.85
696.149	12.85
696.178	13.85
696.207	10.85
696.235	-15.15
696.264	12.85
696.293	8.85
696.322	5.85
696.351	12.85
696.38	-15.15
696.408	-8.15
696.437	15.85
696.466	10.85
696.495	8.85
696.524	6.85
696.553	13.85
696.581	17.85
696.61	-7.15
696.639	-12.15
696.668	10.85
696.697	-9.15
696.725	28.85
696.754	9.85
696.783	-0.15
696.812	-0.15
696.84	0.85
696.869	-1.15
696.898	-4.15
696.927	7.85
696.956	7.85
696.984	-6.15
697.013	-6.15
697.042	-3.15
697.071	-0.15
697.099	14.85
697.128	10.85
697.157	17.85
697.186	10.85
697.214	0.85
697.243	-2.15
697.272	-2.15
697.301	4.85
697.329	-13.15
697.358	6.85
697.387	20.85
697.415	12.85
697.444	11.85
697.473	-3.15
697.502	-7.15
697.53	10.85
697.559	4.85
697.588	1.85
697.616	0.85
697.645	0.85
697.674	2.85
697.703	-8.15
697.731	22.85
697.76	6.85
697.789	9.85
697.817	-5.15
697.846	15.85
697.875	15.85
697.903	26.85
697.932	13.85
697.961	7.85
697.989	8.85
698.018	18.85
698.047	2.85
698.075	17.85
698.104	-3.15
698.133	-6.15
698.161	-2.15
698.19	-1.15
698.218	13.85
698.247	16.85
698.276	7.85
698.304	8.85
698.333	-6.15
698.362	6.85
698.39	11.85
698.419	7.85
698.447	23.85
698.476	-9.15
698.505	14.85
698.533	5.85
698.562	3.85
698.591	-10.15
698.619	3.85
698.648	-2.15
698.676	-3.15
698.705	13.85
698.733	1.85
698.762	9.85
698.791	-3.15
698.819	-3.15
698.848	9.85
698.876	20.85
698.905	6.85
698.933	10.85
698.962	6.85
698.991	-1.15
699.019	9.85
699.048	14.85
699.076	-3.15
699.105	-0.15
699.133	-2.15
699.162	10.85
699.19	8.85
699.219	-2.15
699.248	2.85
699.276	-4.15
699.305	6.85
699.333	15.85
699.362	-4.15
699.39	25.85
699.419	-0.15
699.447	4.85
699.476	-0.15
699.504	-2.15
699.533	0.85
699.561	-10.15
699.59	3.85
699.618	13.85
699.647	15.85
699.675	12.85
699.704	9.85
699.732	-4.15
699.761	3.85
699.789	13.85
699.818	12.85
699.846	4.85
699.874	-1.15
699.903	-3.15
699.931	-7.15
699.96	0.85
699.988	9.85
700.017	-3.15
700.045	2.85
700.074	-0.15
700.102	-8.15
700.13	-0.15
700.159	9.85
700.187	5.85
700.216	-14.15
700.244	-4.15
700.273	15.85
700.301	3.85
700.329	22.85
700.358	14.85
700.386	20.85
700.415	5.85
700.443	10.85
700.472	0.85
700.5	22.85
700.528	8.85
700.557	11.85
700.585	-7.15
700.614	-3.15
700.642	13.85
700.67	7.85
700.699	12.85
700.727	17.85
700.755	15.85
700.784	12.85
700.812	8.85
700.841	-0.15
700.869	-20.15
700.897	-19.15
700.926	-6.15
700.954	-3.15
700.982	12.85
701.011	1.85
701.039	0.85
701.067	-3.15
701.096	18.85
701.124	-6.15
701.152	-9.15
701.181	5.85
701.209	-2.15
701.237	9.85
701.266	-4.15
701.294	-10.15
701.322	-4.15
701.351	-4.15
701.379	2.85
701.407	-13.15
701.435	-9.15
701.464	3.85
701.492	20.85
701.52	-15.15
701.549	-2.15
701.577	3.85
701.605	-6.15
701.634	6.85
701.662	29.85
701.69	3.85
701.718	1.85
701.747	19.85
701.775	9.85
701.803	-7.15
701.831	25.85
701.86	-11.15
701.888	6.85
701.916	-2.15
701.944	5.85
701.973	-0.15
702.001	6.85
702.029	-0.15
702.057	10.85
702.086	-7.15
702.114	-4.15
702.142	6.85
702.17	-0.15
702.199	20.85
702.227	1.85
702.255	-3.15
702.283	-10.15
702.311	6.85
702.34	6.85
702.368	-15.15
702.396	-5.15
702.424	-2.15
702.452	-6.15
702.481	-7.15
702.509	-23.15
702.537	-10.15
702.565	7.85
702.593	-21.15
702.621	8.85
702.65	24.85
702.678	5.85
702.706	8.85
702.734	-2.15
702.762	15.85
702.79	11.85
702.819	-1.15
702.847	-4.15
702.875	23.85
702.903	6.85
702.931	0.85
702.959	0.85
702.988	3.85
703.016	-11.15
703.044	2.85
703.072	0.85
703.1	-1.15
703.128	0.85
703.156	8.85
703.184	3.85
703.212	4.85
703.241	6.85
703.269	-0.15
703.297	2.85
703.325	-5.15
703.353	-7.15
703.381	-4.15
703.409	12.85
703.437	0.85
703.465	-2.15
703.493	-1.15
703.522	-5.15
703.55	15.85
703.578	14.85
703.606	-10.15
703.634	-9.15
703.662	-1.15
703.69	-8.15
703.718	14.85
703.746	16.85
703.774	-0.15
703.802	16.85
703.83	-5.15
703.858	1.85
703.886	-8.15
703.914	-7.15
703.942	3.85
703.97	-9.15
703.998	0.85
704.027	14.85
704.055	6.85
704.083	-6.15
704.111	-8.15
704.139	9.85
704.167	2.85
704.195	2.85
704.223	-14.15
704.251	-3.15
704.279	10.85
704.307	0.85
704.335	-4.15
704.363	-3.15
704.391	-3.15
704.419	10.85
704.447	-0.15
704.475	-3.15
704.503	0.85
704.531	0.85
704.558	8.85
704.586	8.85
704.614	-7.15
704.642	-7.15
704.67	-10.15
704.698	1.85
704.726	7.85
704.754	-4.15
704.782	-3.15
704.81	-5.15
704.838	21.85
704.866	24.85
704.894	3.85
704.922	-9.15
704.95	17.85
704.978	20.85
705.006	3.85
705.034	4.85
705.061	9.85
705.089	-0.15
705.117	-7.15
705.145	9.85
705.173	0.85
705.201	0.85
705.229	3.85
705.257	-8.15
705.285	3.85
705.313	10.85
705.34	-3.15
705.368	-17.15
705.396	-1.15
705.424	4.85
705.452	-11.15
705.48	9.85
705.508	-4.15
705.536	-0.15
705.563	-7.15
705.591	-0.15
705.619	2.85
705.647	-10.15
705.675	-1.15
705.703	2.85
705.731	-0.15
705.758	13.85
705.786	-2.15
705.814	18.85
705.842	8.85
705.87	4.85
705.898	9.85
705.925	-13.15
705.953	-11.15
705.981	-4.15
706.009	9.85
706.037	0.85
706.065	19.85
706.092	-5.15
706.12	8.85
706.148	3.85
706.176	8.85
706.204	16.85
706.231	6.85
706.259	-3.15
706.287	6.85
706.315	7.85
706.342	-18.15
706.37	-2.15
706.398	11.85
706.426	9.85
706.454	12.85
706.481	3.85
706.509	-10.15
706.537	-10.15
706.565	-5.15
706.592	20.85
706.62	5.85
706.648	19.85
706.676	-14.15
706.703	-11.15
706.731	-3.15
706.759	0.85
706.787	0.85
706.814	8.85
706.842	12.85
706.87	2.85
706.897	-14.15
706.925	-7.15
706.953	14.85
706.981	14.85
707.008	10.85
707.036	13.85
707.064	-11.15
707.091	-23.15
707.119	8.85
707.147	-6.15
707.174	-5.15
707.202	11.85
707.23	2.85
707.258	9.85
707.285	-0.15
707.313	-1.15
707.341	-10.15
707.368	-17.15
707.396	-2.15
707.424	-0.15
707.451	5.85
707.479	-4.15
707.507	-11.15
707.534	1.85
707.562	-0.15
707.59	-11.15
707.617	2.85
707.645	4.85
707.672	4.85
707.7	0.85
707.728	14.85
707.755	15.85
707.783	-8.15
707.811	-12.15
707.838	-1.15
707.866	0.85
707.893	-0.15
707.921	-0.15
707.949	-11.15
707.976	-7.15
708.004	4.85
708.031	4.85
708.059	4.85
708.087	0.85
708.114	-3.15
708.142	-0.15
708.169	-10.15
708.197	-14.15
708.225	11.85
708.252	-7.15
708.28	0.85
708.307	-0.15
708.335	1.85
708.362	-18.15
708.39	-3.15
708.418	3.85
708.445	-8.15
708.473	-5.15
708.5	-11.15
708.528	-1.15
708.555	-8.15
708.583	9.85
708.61	-3.15
708.638	11.85
708.665	-5.15
708.693	-10.15
708.72	-22.15
708.748	-9.15
708.776	7.85
708.803	6.85
708.831	0.85
708.858	4.85
708.886	5.85
708.913	4.85
708.941	3.85
708.968	27.85
708.996	0.85
709.023	24.85
709.051	8.85
709.078	5.85
709.105	18.85
709.133	-3.15
709.16	-0.15
709.188	15.85
709.215	10.85
709.243	12.85
709.27	-10.15
709.298	-3.15
709.325	-9.15
709.353	-2.15
709.38	4.85
709.408	4.85
709.435	1.85
709.462	18.85
709.49	-6.15
709.517	-18.15
709.545	-0.15
709.572	2.85
709.6	7.85
709.627	-5.15
709.655	-6.15
709.682	-10.15
709.709	-2.15
709.737	-2.15
709.764	-14.15
709.792	-2.15
709.819	2.85
709.846	11.85
709.874	-5.15
709.901	6.85
709.929	17.85
709.956	10.85
709.983	-8.15
710.011	-3.15
710.038	-0.15
710.066	1.85
710.093	4.85
710.12	8.85
710.148	16.85
710.175	0.85
710.202	-18.15
710.23	-2.15
710.257	-15.15
710.284	-7.15
710.312	-6.15
710.339	-2.15
710.366	4.85
710.394	5.85
710.421	-11.15
710.448	4.85
710.476	-4.15
710.503	16.85
710.53	0.85
710.558	30.85
710.585	10.85
710.612	3.85
710.64	-4.15
710.667	-10.15
710.694	-9.15
710.722	-9.15
710.749	-3.15
710.776	5.85
710.804	14.85
710.831	-10.15
710.858	-14.15
710.885	-20.15
710.913	4.85
710.94	20.85
710.967	-3.15
710.995	5.85
711.022	-3.15
711.049	-13.15
711.076	-21.15
711.104	-0.15
711.131	-0.15
711.158	-7.15
711.185	14.85
711.213	-2.15
711.24	5.85
711.267	-4.15
711.294	-10.15
711.322	4.85
711.349	-3.15
711.376	-0.15
711.403	-4.15
711.431	-3.15
711.458	10.85
711.485	-0.15
711.512	2.85
711.54	3.85
711.567	7.85
711.594	2.85
711.621	2.85
711.648	6.85
711.676	8.85
711.703	0.85
711.73	-19.15
711.757	11.85
711.784	-9.15
711.812	-10.15
711.839	-9.15
711.866	-5.15
711.893	-10.15
711.92	0.85
711.947	7.85
711.975	-0.15
712.002	-8.15
712.029	1.85
712.056	15.85
712.083	11.85
712.11	-14.15
712.138	19.85
712.165	4.85
712.192	-4.15
712.219	-8.15
712.246	-5.15
712.273	-8.15
712.3	-2.15
712.328	9.85
712.355	-1.15
712.382	-16.15
712.409	2.85
712.436	-16.15
712.463	-1.15
712.49	11.85
712.517	0.85
712.544	-0.15
712.572	7.85
712.599	-16.15
712.626	-8.15
712.653	1.85
712.68	-14.15
712.707	13.85
712.734	3.85
712.761	-12.15
712.788	16.85
712.815	7.85
712.842	14.85
712.87	-9.15
712.897	-7.15
712.924	-24.15
712.951	1.85
712.978	11.85
713.005	7.85
713.032	3.85
713.059	-6.15
713.086	8.85
713.113	-9.15
713.14	-18.15
713.167	12.85
713.194	1.85
713.221	-11.15
713.248	5.85
713.275	-11.15
713.302	8.85
713.329	-0.15
713.356	7.85
713.383	11.85
713.41	13.85
713.437	-20.15
713.464	-1.15
713.491	4.85
713.518	5.85
713.545	-4.15
713.572	-2.15
713.599	28.85
713.626	-7.15
713.653	2.85
713.68	-1.15
713.707	0.85
713.734	6.85
713.761	-5.15
713.788	-4.15
713.815	5.85
713.842	2.85
713.869	0.85
713.896	-2.15
713.923	-2.15
713.95	2.85
713.977	10.85
714.004	12.85
714.031	-1.15
714.058	-10.15
714.085	-14.15
714.112	-2.15
714.139	0.85
714.165	-7.15
714.192	1.85
714.219	12.85
714.246	16.85
714.273	6.85
714.3	3.85
714.327	5.85
714.354	10.85
714.381	-0.15
714.408	1.85
714.435	4.85
714.461	23.85
714.488	12.85
714.515	-4.15
714.542	3.85
714.569	-7.15
714.596	-14.15
714.623	-5.15
714.65	0.85
714.677	-3.15
714.703	-2.15
714.73	-9.15
714.757	4.85
714.784	15.85
714.811	3.85
714.838	14.85
714.865	12.85
714.891	12.85
714.918	2.85
714.945	0.85
714.972	10.85
714.999	15.85
715.026	-6.15
715.052	8.85
715.079	10.85
715.106	10.85
715.133	3.85
715.16	5.85
715.187	7.85
715.213	14.85
715.24	-3.15
715.267	-17.15
715.294	-5.15
715.321	4.85
715.347	-13.15
715.374	-7.15
715.401	-16.15
715.428	-4.15
715.455	3.85
715.481	-2.15
715.508	13.85
715.535	-6.15
715.562	23.85
715.588	0.85
715.615	1.85
715.642	-6.15
715.669	21.85
715.695	-3.15
715.722	-2.15
715.749	11.85
715.776	3.85
715.802	-0.15
715.829	0.85
715.856	-0.15
715.883	26.85
715.909	-5.15
715.936	-9.15
715.963	3.85
715.99	-14.15
716.016	-2.15
716.043	4.85
716.07	9.85
716.096	-3.15
716.123	4.85
716.15	15.85
716.177	5.85
716.203	11.85
716.23	19.85
716.257	0.85
716.283	12.85
716.31	-0.15
716.337	-2.15
716.363	-6.15
716.39	0.85
716.417	8.85
716.443	9.85
716.47	16.85
716.497	7.85
716.523	19.85
716.55	-5.15
716.577	6.85
716.603	-12.15
716.63	14.85
716.657	3.85
716.683	-13.15
716.71	-4.15
716.737	-0.15
716.763	-3.15
716.79	7.85
716.817	6.85
716.843	3.85
716.87	-10.15
716.897	-8.15
716.923	33.85
716.95	3.85
716.976	-9.15
717.003	-4.15
717.03	7.85
717.056	8.85
717.083	-3.15
717.109	7.85
717.136	24.85
717.163	-11.15
717.189	-3.15
717.216	2.85
717.242	-6.15
717.269	10.85
717.296	-2.15
717.322	0.85
717.349	19.85
717.375	3.85
717.402	5.85
717.428	-8.15
717.455	14.85
717.481	10.85
717.508	3.85
717.535	-2.15
717.561	-2.15
717.588	-7.15
717.614	1.85
717.641	3.85
717.667	17.85
717.694	4.85
717.72	10.85
717.747	17.85
717.773	-2.15
717.8	1.85
717.826	-8.15
717.853	-13.15
717.88	6.85
717.906	3.85
717.933	-4.15
717.959	-6.15
717.986	-7.15
718.012	-5.15
718.039	0.85
718.065	13.85
718.092	-7.15
718.118	-5.15
718.144	-0.15
718.171	19.85
718.197	15.85
718.224	-19.15
718.25	6.85
718.277	11.85
718.303	-4.15
718.33	8.85
718.356	-14.15
718.383	-13.15
718.409	-7.15
718.436	-4.15
718.462	1.85
718.489	-16.15
718.515	14.85
718.541	0.85
718.568	1.85
718.594	-4.15
718.621	0.85
718.647	4.85
718.674	15.85
718.7	23.85
718.726	-2.15
718.753	4.85
718.779	4.85
718.806	7.85
718.832	3.85
718.858	11.85
718.885	-10.15
718.911	-0.15
718.938	2.85
718.964	-3.15
718.99	-0.15
719.017	5.85
719.043	2.85
719.07	13.85
719.096	10.85
719.122	7.85
719.149	-0.15
719.175	-2.15
719.201	-1.15
719.228	-3.15
719.254	7.85
719.281	-13.15
719.307	-8.15
719.333	5.85
719.36	12.85
719.386	-6.15
719.412	3.85
719.439	-2.15
719.465	-2.15
719.491	-4.15
719.518	-4.15
719.544	11.85
719.57	13.85
719.597	4.85
719.623	5.85
719.649	15.85
719.675	-2.15
719.702	-3.15
719.728	16.85
719.754	-4.15
719.781	-4.15
719.807	4.85
719.833	-10.15
719.86	4.85
719.886	4.85
719.912	6.85
719.938	-6.15
719.965	0.85
719.991	12.85
720.017	10.85
720.044	-10.15
720.07	-6.15
720.096	4.85
720.122	5.85
720.149	6.85
720.175	26.85
720.201	-1.15
720.227	-0.15
720.254	12.85
720.28	11.85
720.306	-1.15
720.332	-7.15
720.359	6.85
720.385	3.85
720.411	3.85
720.437	11.85
720.463	-5.15
720.49	19.85
720.516	-3.15
720.542	-12.15
720.568	7.85
720.595	-2.15
720.621	-12.15
720.647	-5.15
720.673	2.85
720.699	3.85
720.725	7.85
720.752	-2.15
720.778	5.85
720.804	13.85
720.83	7.85
720.856	-4.15
720.883	-13.15
720.909	18.85
720.935	16.85
720.961	14.85
720.987	25.85
721.013	-3.15
721.04	-5.15
721.066	-15.15
721.092	6.85
721.118	3.85
721.144	-3.15
721.17	-8.15
721.196	-9.15
721.223	-8.15
721.249	-10.15
721.275	9.85
721.301	13.85
721.327	4.85
721.353	-0.15
721.379	3.85
721.405	5.85
721.432	12.85
721.458	-4.15
721.484	6.85
721.51	-8.15
721.536	9.85
721.562	-2.15
721.588	4.85
721.614	-2.15
721.64	9.85
721.666	-8.15
721.693	9.85
721.719	1.85
721.745	-18.15
721.771	-6.15
721.797	-6.15
721.823	-2.15
721.849	10.85
721.875	5.85
721.901	-3.15
721.927	-7.15
721.953	1.85
721.979	15.85
722.005	22.85
722.031	-4.15
722.057	9.85
722.083	10.85
722.109	8.85
722.135	10.85
722.161	11.85
722.187	1.85
722.214	-5.15
722.24	4.85
722.266	0.85
722.292	-0.15
722.318	3.85
722.344	3.85
722.37	4.85
722.396	4.85
722.422	7.85
722.448	-2.15
722.474	-12.15
722.5	2.85
722.526	-2.15
722.552	-13.15
722.578	-11.15
722.603	14.85
722.629	-2.15
722.655	3.85
722.681	-4.15
722.707	7.85
722.733	6.85
722.759	3.85
722.785	-7.15
722.811	11.85
722.837	-5.15
722.863	6.85
722.889	6.85
722.915	-7.15
722.941	-0.15
722.967	-0.15
722.993	-0.15
723.019	-1.15
723.045	7.85
723.071	4.85
723.097	9.85
723.122	-4.15
723.148	-15.15
723.174	1.85
723.2	-4.15
723.226	0.85
723.252	-0.15
723.278	-0.15
723.304	-8.15
723.33	-6.15
723.356	1.85
723.381	-11.15
723.407	-14.15
723.433	10.85
723.459	-1.15
723.485	-14.15
723.511	4.85
723.537	5.85
723.563	10.85
723.588	0.85
723.614	6.85
723.64	-8.15
723.666	9.85
723.692	13.85
723.718	-11.15
723.744	-5.15
723.769	-8.15
723.795	5.85
723.821	15.85
723.847	-0.15
723.873	12.85
723.899	15.85
723.924	-4.15
723.95	-3.15
723.976	-9.15
724.002	3.85
724.028	-4.15
724.053	-4.15
724.079	1.85
724.105	0.85
724.131	-2.15
724.157	1.85
724.182	14.85
724.208	-3.15
724.234	4.85
724.26	10.85
724.286	13.85
724.311	9.85
724.337	-15.15
724.363	-8.15
724.389	10.85
724.415	4.85
724.44	3.85
724.466	-2.15
724.492	-9.15
724.518	3.85
724.543	1.85
724.569	-8.15
724.595	-0.15
724.621	5.85
724.646	-0.15
724.672	7.85
724.698	-3.15
724.723	-14.15
724.749	-0.15
724.775	11.85
724.801	3.85
724.826	-11.15
724.852	0.85
724.878	-2.15
724.904	-12.15
724.929	2.85
724.955	-12.15
724.981	2.85
725.006	-2.15
725.032	-2.15
725.058	10.85
725.083	-11.15
725.109	-16.15
725.135	16.85
725.161	3.85
725.186	2.85
725.212	-3.15
725.238	11.85
725.263	8.85
725.289	-15.15
725.315	-22.15
725.34	8.85
725.366	16.85
725.392	-18.15
725.417	-9.15
725.443	-0.15
725.468	7.85
725.494	13.85
725.52	14.85
725.545	2.85
725.571	7.85
725.597	4.85
725.622	0.85
725.648	7.85
725.674	11.85
725.699	16.85
725.725	10.85
725.75	19.85
725.776	13.85
725.802	0.85
725.827	3.85
725.853	6.85
725.878	-2.15
725.904	-6.15
725.93	10.85
725.955	-8.15
725.981	-16.15
726.006	-7.15
726.032	-0.15
726.057	-13.15
726.083	-5.15
726.109	-4.15
726.134	6.85
726.16	4.85
726.185	-11.15
726.211	-9.15
726.236	-3.15
726.262	3.85
726.288	7.85
726.313	10.85
726.339	3.85
726.364	4.85
726.39	17.85
726.415	14.85
726.441	6.85
726.466	-12.15
726.492	7.85
726.517	15.85
726.543	0.85
726.568	-6.15
726.594	-7.15
726.619	1.85
726.645	0.85
726.67	19.85
726.696	13.85
726.721	-7.15
726.747	-11.15
726.772	1.85
726.798	9.85
726.823	27.85
726.849	-10.15
726.874	7.85
726.9	29.85
726.925	11.85
726.951	-4.15
726.976	6.85
727.002	-8.15
727.027	10.85
727.053	9.85
727.078	8.85
727.104	-8.15
727.129	-13.15
727.155	-5.15
727.18	-0.15
727.205	8.85
727.231	-11.15
727.256	3.85
727.282	-3.15
727.307	-2.15
727.333	1.85
727.358	-6.15
727.383	-11.15
727.409	-6.15
727.434	0.85
727.46	8.85
727.485	0.85
727.511	3.85
727.536	-8.15
727.561	-7.15
727.587	5.85
727.612	0.85
727.637	-0.15
727.663	-1.15
727.688	20.85
727.714	-6.15
727.739	-18.15
727.764	-7.15
727.79	-6.15
727.815	5.85
727.841	17.85
727.866	4.85
727.891	5.85
727.917	-8.15
727.942	-28.15
727.967	-30.15
727.993	-6.15
728.018	24.85
728.043	11.85
728.069	16.85
728.094	4.85
728.119	-4.15
728.145	12.85
728.17	3.85
728.195	-0.15
728.221	1.85
728.246	-3.15
728.271	-6.15
728.297	8.85
728.322	2.85
728.347	-3.15
728.373	5.85
728.398	-2.15
728.423	10.85
728.448	3.85
728.474	-0.15
728.499	10.85
728.524	2.85
728.55	-16.15
728.575	-3.15
728.6	4.85
728.625	-7.15
728.651	0.85
728.676	2.85
728.701	-12.15
728.727	-0.15
728.752	-8.15
728.777	9.85
728.802	1.85
728.828	11.85
728.853	2.85
728.878	-5.15
728.903	-4.15
728.929	1.85
728.954	3.85
728.979	-11.15
729.004	-12.15
729.03	1.85
729.055	5.85
729.08	-14.15
729.105	-7.15
729.13	-6.15
729.156	10.85
729.181	4.85
729.206	-24.15
729.231	-0.15
729.256	1.85
729.282	7.85
729.307	-5.15
729.332	-19.15
729.357	0.85
729.382	-12.15
729.408	-7.15
729.433	-4.15
729.458	-3.15
729.483	6.85
729.508	11.85
729.533	7.85
729.559	-4.15
729.584	-3.15
729.609	11.85
729.634	11.85
729.659	3.85
729.684	-5.15
729.71	10.85
729.735	9.85
729.76	-5.15
729.785	1.85
729.81	11.85
729.835	-7.15
729.86	-7.15
729.886	8.85
729.911	20.85
729.936	-7.15
729.961	2.85
729.986	-11.15
730.011	-3.15
730.036	-2.15
730.061	4.85
730.086	-3.15
730.112	7.85
730.137	33.85
730.162	-0.15
730.187	-6.15
730.212	13.85
730.237	-7.15
730.262	-7.15
730.287	-11.15
730.312	2.85
730.337	-8.15
730.362	14.85
730.387	1.85
730.413	-9.15
730.438	-12.15
730.463	9.85
730.488	-2.15
730.513	-11.15
730.538	-11.15
730.563	19.85
730.588	11.85
730.613	9.85
730.638	1.85
730.663	-0.15
730.688	15.85
730.713	1.85
730.738	15.85
730.763	-2.15
730.788	-26.15
730.813	1.85
730.838	0.85
730.863	-0.15
730.888	-7.15
730.913	-12.15
730.938	-14.15
730.963	-2.15
730.988	2.85
731.013	21.85
731.038	-12.15
731.063	-17.15
731.088	-0.15
731.113	-3.15
731.138	0.85
731.163	-9.15
731.188	-2.15
731.213	1.85
731.238	0.85
731.263	-10.15
731.288	-7.15
731.313	-2.15
731.338	-9.15
731.363	0.85
731.388	-4.15
731.413	-10.15
731.438	12.85
731.463	-0.15
731.487	8.85
731.512	-3.15
731.537	-6.15
731.562	-4.15
731.587	-1.15
731.612	-6.15
731.637	-4.15
731.662	11.85
731.687	-8.15
731.712	-7.15
731.737	4.85
731.762	1.85
731.786	-3.15
731.811	-3.15
731.836	1.85
731.861	-7.15
731.886	4.85
731.911	4.85
731.936	9.85
731.961	3.85
731.986	3.85
732.01	4.85
732.035	3.85
732.06	-10.15
732.085	-3.15
732.11	-4.15
732.135	-19.15
732.16	7.85
732.184	-0.15
732.209	2.85
732.234	5.85
732.259	-16.15
732.284	6.85
732.309	-3.15
732.334	0.85
732.358	-3.15
732.383	-4.15
732.408	-8.15
732.433	-15.15
732.458	-12.15
732.482	1.85
732.507	0.85
732.532	-4.15
732.557	-7.15
732.582	9.85
732.607	-1.15
732.631	-14.15
732.656	-14.15
732.681	2.85
732.706	0.85
732.73	5.85
732.755	-3.15
732.78	-7.15
732.805	1.85
732.83	1.85
732.854	3.85
732.879	4.85
732.904	-10.15
732.929	7.85
732.953	8.85
732.978	1.85
733.003	-5.15
733.028	-12.15
733.052	6.85
733.077	-2.15
733.102	18.85
733.127	4.85
733.151	-6.15
733.176	6.85
733.201	-14.15
733.226	5.85
733.25	-1.15
733.275	11.85
733.3	11.85
733.324	15.85
733.349	4.85
733.374	24.85
733.399	1.85
733.423	-4.15
733.448	-3.15
733.473	5.85
733.497	0.85
733.522	1.85
733.547	13.85
733.571	7.85
733.596	4.85
733.621	5.85
733.646	-10.15
733.67	9.85
733.695	-12.15
733.72	6.85
733.744	8.85
733.769	8.85
733.794	19.85
733.818	7.85
733.843	-2.15
733.867	-10.15
733.892	-1.15
733.917	3.85
733.941	-0.15
733.966	-5.15
733.991	-10.15
734.015	11.85
734.04	1.85
734.065	5.85
734.089	7.85
734.114	7.85
734.138	9.85
734.163	11.85
734.188	8.85
734.212	13.85
734.237	12.85
734.261	-8.15
734.286	-11.15
734.311	-4.15
734.335	-8.15
734.36	2.85
734.384	-2.15
734.409	7.85
734.434	0.85
734.458	8.85
734.483	0.85
734.507	-8.15
734.532	-3.15
734.556	-4.15
734.581	3.85
734.606	-6.15
734.63	-12.15
734.655	-8.15
734.679	15.85
734.704	-8.15
734.728	-2.15
734.753	-2.15
734.777	6.85
734.802	8.85
734.826	7.85
734.851	5.85
734.876	18.85
734.9	14.85
734.925	9.85
734.949	-14.15
734.974	-6.15
734.998	8.85
735.023	1.85
735.047	-7.15
735.072	3.85
735.096	0.85
735.121	-1.15
735.145	2.85
735.17	3.85
735.194	3.85
735.219	0.85
735.243	2.85
735.268	-1.15
735.292	10.85
735.317	5.85
735.341	10.85
735.365	-8.15
735.39	9.85
735.414	0.85
735.439	10.85
735.463	-11.15
735.488	-8.15
735.512	2.85
735.537	4.85
735.561	16.85
735.586	3.85
735.61	19.85
735.634	-1.15
735.659	7.85
735.683	15.85
735.708	-8.15
735.732	-3.15
735.757	1.85
735.781	-13.15
735.805	-2.15
735.83	-10.15
735.854	-6.15
735.879	4.85
735.903	9.85
735.927	5.85
735.952	-6.15
735.976	-9.15
736.001	-8.15
736.025	1.85
736.049	15.85
736.074	-2.15
736.098	8.85
736.123	5.85
736.147	-11.15
736.171	-2.15
736.196	-2.15
736.22	-3.15
736.244	4.85
736.269	14.85
736.293	-9.15
736.317	-5.15
736.342	3.85
736.366	7.85
736.39	-0.15
736.415	19.85
736.439	8.85
736.463	17.85
736.488	7.85
736.512	-3.15
736.536	3.85
736.561	16.85
736.585	0.85
736.609	11.85
736.634	-9.15
736.658	-11.15
736.682	-8.15
736.707	-20.15
736.731	-7.15
736.755	-3.15
736.78	8.85
736.804	19.85
736.828	21.85
736.852	-7.15
736.877	-3.15
736.901	24.85
736.925	5.85
736.949	0.85
736.974	-5.15
736.998	-3.15
737.022	4.85
737.047	-8.15
737.071	-4.15
737.095	17.85
737.119	22.85
737.144	12.85
737.168	5.85
737.192	-0.15
737.216	0.85
737.241	-8.15
737.265	9.85
737.289	11.85
737.313	3.85
737.337	-1.15
737.362	-0.15
737.386	5.85
737.41	-5.15
737.434	0.85
737.459	5.85
737.483	15.85
737.507	7.85
737.531	20.85
737.555	-1.15
737.58	7.85
737.604	1.85
737.628	-5.15
737.652	0.85
737.676	-1.15
737.701	12.85
737.725	9.85
737.749	11.85
737.773	1.85
737.797	-6.15
737.821	7.85
737.846	-4.15
737.87	28.85
737.894	0.85
737.918	8.85
737.942	-1.15
737.966	15.85
737.99	22.85
738.015	11.85
738.039	-4.15
738.063	1.85
738.087	10.85
738.111	7.85
738.135	9.85
738.159	9.85
738.184	1.85
738.208	-3.15
738.232	-2.15
738.256	8.85
738.28	17.85
738.304	4.85
738.328	-14.15
738.352	-4.15
738.376	8.85
738.4	0.85
738.425	0.85
738.449	6.85
738.473	23.85
738.497	15.85
738.521	-2.15
738.545	-3.15
738.569	1.85
738.593	7.85
738.617	11.85
738.641	4.85
738.665	18.85
738.689	10.85
738.713	1.85
738.737	8.85
738.762	27.85
738.786	4.85
738.81	-13.15
738.834	4.85
738.858	-15.15
738.882	4.85
738.906	5.85
738.93	10.85
738.954	5.85
738.978	4.85
739.002	7.85
739.026	12.85
739.05	9.85
739.074	-4.15
739.098	13.85
739.122	11.85
739.146	5.85
739.17	11.85
739.194	11.85
739.218	4.85
739.242	10.85
739.266	-8.15
739.29	14.85
739.314	13.85
739.338	14.85
739.362	0.85
739.386	3.85
739.41	-5.15
739.434	4.85
739.458	5.85
739.482	10.85
739.506	15.85
739.53	-5.15
739.554	11.85
739.577	-7.15
739.601	-0.15
739.625	-16.15
739.649	-1.15
739.673	7.85
739.697	8.85
739.721	6.85
739.745	3.85
739.769	16.85
739.793	7.85
739.817	7.85
739.841	-7.15
739.865	9.85
739.889	-1.15
739.912	10.85
739.936	0.85
739.96	3.85
739.984	10.85
740.008	10.85
740.032	-0.15
740.056	11.85
740.08	-6.15
740.104	-15.15
740.127	7.85
740.151	19.85
740.175	9.85
740.199	-7.15
740.223	36.85
740.247	5.85
740.271	-3.15
740.295	7.85
740.318	-1.15
740.342	-11.15
740.366	6.85
740.39	7.85
740.414	2.85
740.438	-0.15
740.461	7.85
740.485	2.85
740.509	-2.15
740.533	3.85
740.557	6.85
740.581	-6.15
740.604	-16.15
740.628	-5.15
740.652	15.85
740.676	-1.15
740.7	3.85
740.723	1.85
740.747	-8.15
740.771	-7.15
740.795	-2.15
740.819	2.85
740.842	0.85
740.866	-2.15
740.89	-4.15
740.914	-6.15
740.938	-10.15
740.961	11.85
740.985	14.85
741.009	-8.15
741.033	9.85
741.056	5.85
741.08	-3.15
741.104	-8.15
741.128	0.85
741.151	4.85
741.175	-2.15
741.199	-3.15
741.223	16.85
741.246	-5.15
741.27	1.85
741.294	7.85
741.318	-5.15
741.341	10.85
741.365	-4.15
741.389	7.85
741.413	6.85
741.436	10.85
741.46	4.85
741.484	20.85
741.507	9.85
741.531	14.85
741.555	15.85
741.579	1.85
741.602	10.85
741.626	4.85
741.65	-2.15
741.673	1.85
741.697	8.85
741.721	-4.15
741.744	0.85
741.768	2.85
741.792	-0.15
741.815	-5.15
741.839	11.85
741.863	24.85
741.886	18.85
741.91	16.85
741.934	0.85
741.957	-6.15
741.981	16.85
742.005	-2.15
742.028	-6.15
742.052	-6.15
742.075	7.85
742.099	17.85
742.123	-4.15
742.146	2.85
742.17	-4.15
742.194	-8.15
742.217	3.85
742.241	0.85
742.264	-2.15
742.288	17.85
742.312	15.85
742.335	5.85
742.359	1.85
742.382	4.85
742.406	14.85
742.43	-11.15
742.453	7.85
742.477	-10.15
742.5	14.85
742.524	1.85
742.548	-8.15
742.571	13.85
742.595	-7.15
742.618	-7.15
742.642	-13.15
742.665	18.85
742.689	-5.15
742.712	10.85
742.736	0.85
742.76	5.85
742.783	0.85
742.807	-7.15
742.83	15.85
742.854	-2.15
742.877	3.85
742.901	1.85
742.924	6.85
742.948	3.85
742.971	16.85
742.995	5.85
743.018	-24.15
743.042	-4.15
743.065	-9.15
743.089	-21.15
743.112	6.85
743.136	6.85
743.159	2.85
743.183	7.85
743.206	1.85
743.23	-0.15
743.253	-11.15
743.277	13.85
743.3	-0.15
743.324	10.85
743.347	-1.15
743.371	17.85
743.394	0.85
743.418	33.85
743.441	17.85
743.465	-6.15
743.488	-2.15
743.512	1.85
743.535	3.85
743.558	-6.15
743.582	-1.15
743.605	3.85
743.629	3.85
743.652	12.85
743.676	-4.15
743.699	11.85
743.723	9.85
743.746	11.85
743.769	-3.15
743.793	3.85
743.816	2.85
743.84	17.85
743.863	-6.15
743.886	12.85
743.91	7.85
743.933	11.85
743.957	3.85
743.98	5.85
744.003	-9.15
744.027	14.85
744.05	6.85
744.074	4.85
744.097	-13.15
744.12	-0.15
744.144	-0.15
744.167	12.85
744.19	-3.15
744.214	-15.15
744.237	-14.15
744.26	21.85
744.284	4.85
744.307	-15.15
744.331	11.85
744.354	-18.15
744.377	-3.15
744.401	1.85
744.424	2.85
744.447	-6.15
744.471	-6.15
