Data from HighRes_H2_15_09_11_07_2024_HR4C61891__144__15-11-10-801.txt Node

Date: Thu Nov 07 15:11:10 EST 2024
User: crc00042
Spectrometer: HR4C6189
Trigger mode: 4
Integration Time (sec): 1.000000E-1
Scans to average: 1
Electric dark correction enabled: true
Nonlinearity correction enabled: false
Boxcar width: 0
XAxis mode: Wavelengths
Number of Pixels in Spectrum: 3648
>>>>>Begin Spectral Data<<<<<
639.567	-51.46
639.602	-51.46
639.636	-51.46
639.67	-51.46
639.704	-15.46
639.738	-0.46
639.773	14.54
639.807	-18.46
639.841	3.54
639.875	11.54
639.909	-10.46
639.943	-12.46
639.978	-13.46
640.012	8.54
640.046	7.54
640.08	8.54
640.114	5.54
640.148	-4.46
640.182	-15.46
640.217	1.54
640.251	17.54
640.285	12.54
640.319	-18.46
640.353	12.54
640.387	2.54
640.421	-14.46
640.455	4.54
640.49	-0.46
640.524	4.54
640.558	12.54
640.592	1.54
640.626	9.54
640.66	9.54
640.694	-18.46
640.728	6.54
640.762	15.54
640.796	12.54
640.83	15.54
640.865	12.54
640.899	2.54
640.933	2.54
640.967	-0.46
641.001	7.54
641.035	2.54
641.069	6.54
641.103	0.54
641.137	-4.46
641.171	-1.46
641.205	11.54
641.239	14.54
641.273	5.54
641.307	10.54
641.341	6.54
641.375	-7.46
641.409	-0.46
641.443	4.54
641.477	8.54
641.511	6.54
641.545	10.54
641.579	-3.46
641.614	1.54
641.648	9.54
641.682	-1.46
641.716	7.54
641.75	22.54
641.784	-6.46
641.818	14.54
641.852	10.54
641.886	-9.46
641.919	22.54
641.953	9.54
641.987	-13.46
642.021	-13.46
642.055	5.54
642.089	17.54
642.123	-3.46
642.157	4.54
642.191	-4.46
642.225	5.54
642.259	2.54
642.293	16.54
642.327	13.54
642.361	2.54
642.395	10.54
642.429	16.54
642.463	15.54
642.497	18.54
642.531	-15.46
642.565	-11.46
642.599	1.54
642.633	-6.46
642.666	14.54
642.7	22.54
642.734	20.54
642.768	4.54
642.802	14.54
642.836	6.54
642.87	-3.46
642.904	19.54
642.938	-5.46
642.972	-5.46
643.005	-6.46
643.039	13.54
643.073	8.54
643.107	20.54
643.141	10.54
643.175	7.54
643.209	15.54
643.243	-10.46
643.276	11.54
643.31	10.54
643.344	6.54
643.378	7.54
643.412	17.54
643.446	8.54
643.48	13.54
643.513	4.54
643.547	5.54
643.581	4.54
643.615	13.54
643.649	1.54
643.683	14.54
643.716	-3.46
643.75	6.54
643.784	0.54
643.818	15.54
643.852	12.54
643.886	14.54
643.919	22.54
643.953	-2.46
643.987	8.54
644.021	4.54
644.055	14.54
644.088	9.54
644.122	12.54
644.156	12.54
644.19	16.54
644.224	3.54
644.257	12.54
644.291	6.54
644.325	6.54
644.359	14.54
644.392	17.54
644.426	12.54
644.46	-7.46
644.494	13.54
644.527	-11.46
644.561	3.54
644.595	4.54
644.629	-7.46
644.662	2.54
644.696	14.54
644.73	26.54
644.764	17.54
644.797	6.54
644.831	-15.46
644.865	6.54
644.899	-3.46
644.932	26.54
644.966	14.54
645	30.54
645.033	36.54
645.067	8.54
645.101	7.54
645.135	-1.46
645.168	-4.46
645.202	-3.46
645.236	-5.46
645.269	12.54
645.303	8.54
645.337	-11.46
645.37	-3.46
645.404	11.54
645.438	1.54
645.471	6.54
645.505	10.54
645.539	1.54
645.572	-3.46
645.606	0.54
645.64	-5.46
645.673	-8.46
645.707	10.54
645.741	-2.46
645.774	-12.46
645.808	2.54
645.842	2.54
645.875	7.54
645.909	-4.46
645.943	-3.46
645.976	-5.46
646.01	10.54
646.043	4.54
646.077	12.54
646.111	-10.46
646.144	-4.46
646.178	11.54
646.212	-14.46
646.245	-22.46
646.279	11.54
646.312	14.54
646.346	-1.46
646.38	-4.46
646.413	4.54
646.447	-5.46
646.48	-4.46
646.514	2.54
646.547	-7.46
646.581	-2.46
646.615	3.54
646.648	-2.46
646.682	-5.46
646.715	-4.46
646.749	-2.46
646.782	3.54
646.816	5.54
646.85	7.54
646.883	5.54
646.917	20.54
646.95	3.54
646.984	-6.46
647.017	1.54
647.051	0.54
647.084	13.54
647.118	-13.46
647.151	-9.46
647.185	-11.46
647.218	-8.46
647.252	-2.46
647.285	-17.46
647.319	-4.46
647.353	8.54
647.386	18.54
647.42	19.54
647.453	5.54
647.487	-5.46
647.52	0.54
647.553	-0.46
647.587	4.54
647.62	2.54
647.654	-1.46
647.687	5.54
647.721	2.54
647.754	3.54
647.788	-4.46
647.821	-2.46
647.855	13.54
647.888	3.54
647.922	10.54
647.955	12.54
647.989	11.54
648.022	-0.46
648.055	19.54
648.089	15.54
648.122	27.54
648.156	-2.46
648.189	-8.46
648.223	-4.46
648.256	19.54
648.29	7.54
648.323	11.54
648.356	21.54
648.39	20.54
648.423	5.54
648.457	5.54
648.49	-10.46
648.523	26.54
648.557	-9.46
648.59	18.54
648.624	-0.46
648.657	-1.46
648.69	18.54
648.724	-3.46
648.757	12.54
648.791	21.54
648.824	4.54
648.857	26.54
648.891	0.54
648.924	9.54
648.957	18.54
648.991	6.54
649.024	15.54
649.057	0.54
649.091	-13.46
649.124	2.54
649.158	6.54
649.191	35.54
649.224	3.54
649.258	13.54
649.291	23.54
649.324	12.54
649.358	20.54
649.391	19.54
649.424	-4.46
649.458	-5.46
649.491	7.54
649.524	-1.46
649.557	-14.46
649.591	-20.46
649.624	11.54
649.657	-2.46
649.691	22.54
649.724	3.54
649.757	4.54
649.791	-1.46
649.824	15.54
649.857	3.54
649.89	3.54
649.924	-25.46
649.957	-13.46
649.99	-4.46
650.023	1.54
650.057	-6.46
650.09	19.54
650.123	3.54
650.157	10.54
650.19	22.54
650.223	-2.46
650.256	-8.46
650.29	12.54
650.323	1.54
650.356	8.54
650.389	1.54
650.423	-21.46
650.456	0.54
650.489	11.54
650.522	-1.46
650.555	21.54
650.589	17.54
650.622	-6.46
650.655	4.54
650.688	4.54
650.721	-11.46
650.755	-0.46
650.788	21.54
650.821	-6.46
650.854	5.54
650.887	23.54
650.921	-4.46
650.954	-3.46
650.987	7.54
651.02	-8.46
651.053	-1.46
651.087	1.54
651.12	28.54
651.153	1.54
651.186	0.54
651.219	2.54
651.252	12.54
651.286	14.54
651.319	-15.46
651.352	0.54
651.385	10.54
651.418	8.54
651.451	18.54
651.484	12.54
651.518	2.54
651.551	30.54
651.584	7.54
651.617	23.54
651.65	13.54
651.683	21.54
651.716	-5.46
651.749	-11.46
651.783	9.54
651.816	21.54
651.849	7.54
651.882	14.54
651.915	3.54
651.948	18.54
651.981	0.54
652.014	-23.46
652.047	-7.46
652.08	-8.46
652.114	-2.46
652.147	8.54
652.18	12.54
652.213	27.54
652.246	8.54
652.279	-5.46
652.312	4.54
652.345	-9.46
652.378	9.54
652.411	20.54
652.444	6.54
652.477	-1.46
652.51	4.54
652.543	7.54
652.576	2.54
652.609	-9.46
652.642	3.54
652.675	12.54
652.709	-3.46
652.742	6.54
652.775	10.54
652.808	8.54
652.841	-7.46
652.874	2.54
652.907	-4.46
652.94	-9.46
652.973	-6.46
653.006	-14.46
653.039	0.54
653.072	-6.46
653.105	-4.46
653.138	1.54
653.171	4.54
653.204	1.54
653.237	18.54
653.27	-2.46
653.303	8.54
653.336	16.54
653.368	-0.46
653.401	9.54
653.434	-9.46
653.467	2.54
653.5	1.54
653.533	-26.46
653.566	16.54
653.599	11.54
653.632	13.54
653.665	17.54
653.698	-15.46
653.731	-12.46
653.764	2.54
653.797	0.54
653.83	2.54
653.863	8.54
653.896	-16.46
653.929	-12.46
653.961	12.54
653.994	8.54
654.027	0.54
654.06	-6.46
654.093	12.54
654.126	23.54
654.159	-7.46
654.192	2.54
654.225	-9.46
654.258	4.54
654.29	1.54
654.323	12.54
654.356	-1.46
654.389	0.54
654.422	-7.46
654.455	7.54
654.488	-6.46
654.521	-9.46
654.553	-16.46
654.586	3.54
654.619	-8.46
654.652	0.54
654.685	11.54
654.718	10.54
654.751	-2.46
654.783	7.54
654.816	7.54
654.849	-5.46
654.882	1.54
654.915	2.54
654.948	10.54
654.98	3.54
655.013	1.54
655.046	3.54
655.079	0.54
655.112	2.54
655.144	-18.46
655.177	6.54
655.21	15.54
655.243	18.54
655.276	7.54
655.308	-4.46
655.341	6.54
655.374	0.54
655.407	-7.46
655.44	13.54
655.472	0.54
655.505	4.54
655.538	0.54
655.571	23.54
655.603	7.54
655.636	4.54
655.669	16.54
655.702	3.54
655.734	3.54
655.767	20.54
655.8	45.54
655.833	26.54
655.865	28.54
655.898	22.54
655.931	41.54
655.964	51.54
655.996	41.54
656.029	50.54
656.062	53.54
656.095	58.54
656.127	52.54
656.16	92.54
656.193	127.54
656.225	173.54
656.258	284.54
656.291	514.54
656.324	1095.54
656.356	3370.54
656.389	7528.54
656.422	6022.54
656.454	2052.54
656.487	692.54
656.52	259.54
656.552	100.54
656.585	94.54
656.618	48.54
656.65	35.54
656.683	24.54
656.716	36.54
656.748	11.54
656.781	-7.46
656.814	-20.46
656.846	10.54
656.879	0.54
656.912	-4.46
656.944	-7.46
656.977	-2.46
657.01	3.54
657.042	19.54
657.075	9.54
657.108	5.54
657.14	10.54
657.173	26.54
657.205	36.54
657.238	3.54
657.271	-7.46
657.303	-11.46
657.336	15.54
657.369	12.54
657.401	8.54
657.434	-12.46
657.466	7.54
657.499	5.54
657.532	9.54
657.564	21.54
657.597	7.54
657.629	7.54
657.662	2.54
657.694	15.54
657.727	-8.46
657.76	7.54
657.792	7.54
657.825	13.54
657.857	6.54
657.89	-10.46
657.922	4.54
657.955	-4.46
657.987	-10.46
658.02	9.54
658.053	15.54
658.085	0.54
658.118	0.54
658.15	6.54
658.183	14.54
658.215	1.54
658.248	-11.46
658.28	-3.46
658.313	9.54
658.345	10.54
658.378	-1.46
658.41	5.54
658.443	20.54
658.475	-1.46
658.508	-11.46
658.54	-5.46
658.573	-19.46
658.605	12.54
658.638	-0.46
658.67	5.54
658.703	2.54
658.735	-13.46
658.768	-0.46
658.8	0.54
658.833	26.54
658.865	5.54
658.898	-3.46
658.93	-0.46
658.963	-10.46
658.995	-2.46
659.028	12.54
659.06	-1.46
659.092	-8.46
659.125	-7.46
659.157	13.54
659.19	1.54
659.222	4.54
659.255	1.54
659.287	-7.46
659.32	3.54
659.352	2.54
659.384	3.54
659.417	10.54
659.449	4.54
659.482	9.54
659.514	-0.46
659.546	6.54
659.579	-15.46
659.611	0.54
659.644	2.54
659.676	-2.46
659.708	-13.46
659.741	-9.46
659.773	3.54
659.806	0.54
659.838	0.54
659.87	7.54
659.903	8.54
659.935	4.54
659.967	-5.46
660	18.54
660.032	-9.46
660.065	5.54
660.097	2.54
660.129	-7.46
660.162	-14.46
660.194	7.54
660.226	16.54
660.259	-2.46
660.291	-16.46
660.323	-14.46
660.356	-7.46
660.388	3.54
660.42	-2.46
660.453	3.54
660.485	16.54
660.517	21.54
660.55	5.54
660.582	-15.46
660.614	15.54
660.647	-1.46
660.679	3.54
660.711	5.54
660.743	-14.46
660.776	-0.46
660.808	11.54
660.84	3.54
660.873	5.54
660.905	-6.46
660.937	13.54
660.969	-4.46
661.002	2.54
661.034	30.54
661.066	11.54
661.099	22.54
661.131	15.54
661.163	2.54
661.195	7.54
661.228	2.54
661.26	-3.46
661.292	1.54
661.324	0.54
661.357	-2.46
661.389	-3.46
661.421	28.54
661.453	11.54
661.485	0.54
661.518	5.54
661.55	-12.46
661.582	-15.46
661.614	3.54
661.647	16.54
661.679	-4.46
661.711	8.54
661.743	-2.46
661.775	3.54
661.808	8.54
661.84	-11.46
661.872	-7.46
661.904	-11.46
661.936	6.54
661.969	-10.46
662.001	2.54
662.033	13.54
662.065	14.54
662.097	22.54
662.129	6.54
662.162	-14.46
662.194	-3.46
662.226	-15.46
662.258	17.54
662.29	-1.46
662.322	-12.46
662.355	-10.46
662.387	2.54
662.419	4.54
662.451	19.54
662.483	6.54
662.515	-8.46
662.547	6.54
662.58	-3.46
662.612	3.54
662.644	-6.46
662.676	7.54
662.708	29.54
662.74	1.54
662.772	5.54
662.804	-0.46
662.836	9.54
662.869	-10.46
662.901	18.54
662.933	-6.46
662.965	21.54
662.997	6.54
663.029	-0.46
663.061	-18.46
663.093	4.54
663.125	6.54
663.157	-2.46
663.189	-2.46
663.221	20.54
663.254	-2.46
663.286	-3.46
663.318	-12.46
663.35	-2.46
663.382	-3.46
663.414	8.54
663.446	6.54
663.478	-3.46
663.51	24.54
663.542	6.54
663.574	3.54
663.606	9.54
663.638	-5.46
663.67	-1.46
663.702	3.54
663.734	14.54
663.766	-9.46
663.798	-20.46
663.83	7.54
663.862	2.54
663.894	1.54
663.926	7.54
663.958	8.54
663.99	9.54
664.022	-7.46
664.054	-0.46
664.086	6.54
664.118	-12.46
664.15	-14.46
664.182	9.54
664.214	0.54
664.246	1.54
664.278	-10.46
664.31	-3.46
664.342	-6.46
664.374	-8.46
664.406	-4.46
664.438	-3.46
664.47	-2.46
664.502	7.54
664.534	-3.46
664.566	0.54
664.598	11.54
664.63	3.54
664.662	6.54
664.693	-8.46
664.725	-5.46
664.757	-6.46
664.789	-18.46
664.821	-2.46
664.853	-3.46
664.885	14.54
664.917	12.54
664.949	20.54
664.981	25.54
665.013	2.54
665.045	-2.46
665.076	5.54
665.108	7.54
665.14	-7.46
665.172	19.54
665.204	2.54
665.236	-7.46
665.268	15.54
665.3	1.54
665.331	0.54
665.363	27.54
665.395	-21.46
665.427	-2.46
665.459	17.54
665.491	-8.46
665.523	5.54
665.555	-3.46
665.586	4.54
665.618	8.54
665.65	-2.46
665.682	1.54
665.714	-0.46
665.746	-6.46
665.777	11.54
665.809	-4.46
665.841	5.54
665.873	-4.46
665.905	12.54
665.937	-6.46
665.968	12.54
666	9.54
666.032	16.54
666.064	-4.46
666.096	-14.46
666.127	7.54
666.159	11.54
666.191	15.54
666.223	2.54
666.255	6.54
666.286	3.54
666.318	-11.46
666.35	3.54
666.382	13.54
666.413	-6.46
666.445	-13.46
666.477	-18.46
666.509	1.54
666.54	6.54
666.572	0.54
666.604	-11.46
666.636	-2.46
666.667	6.54
666.699	17.54
666.731	17.54
666.763	-3.46
666.794	-1.46
666.826	7.54
666.858	-9.46
666.89	13.54
666.921	12.54
666.953	4.54
666.985	8.54
667.017	10.54
667.048	8.54
667.08	12.54
667.112	-0.46
667.143	-1.46
667.175	2.54
667.207	10.54
667.238	-2.46
667.27	-7.46
667.302	13.54
667.334	1.54
667.365	17.54
667.397	4.54
667.429	1.54
667.46	8.54
667.492	0.54
667.524	-9.46
667.555	-12.46
667.587	2.54
667.619	0.54
667.65	3.54
667.682	10.54
667.714	4.54
667.745	3.54
667.777	-6.46
667.808	3.54
667.84	16.54
667.872	1.54
667.903	8.54
667.935	6.54
667.967	0.54
667.998	9.54
668.03	1.54
668.061	1.54
668.093	12.54
668.125	12.54
668.156	15.54
668.188	1.54
668.22	0.54
668.251	-4.46
668.283	5.54
668.314	10.54
668.346	-7.46
668.377	-0.46
668.409	0.54
668.441	13.54
668.472	-13.46
668.504	12.54
668.535	10.54
668.567	14.54
668.599	-7.46
668.63	10.54
668.662	-3.46
668.693	6.54
668.725	2.54
668.756	14.54
668.788	-11.46
668.819	12.54
668.851	14.54
668.882	13.54
668.914	1.54
668.946	4.54
668.977	10.54
669.009	19.54
669.04	-6.46
669.072	3.54
669.103	10.54
669.135	24.54
669.166	-2.46
669.198	1.54
669.229	19.54
669.261	8.54
669.292	-12.46
669.324	-4.46
669.355	-2.46
669.387	1.54
669.418	10.54
669.45	-13.46
669.481	4.54
669.513	1.54
669.544	5.54
669.576	-14.46
669.607	16.54
669.639	11.54
669.67	4.54
669.701	18.54
669.733	-8.46
669.764	-1.46
669.796	-8.46
669.827	-3.46
669.859	-0.46
669.89	-6.46
669.922	4.54
669.953	19.54
669.985	19.54
670.016	-6.46
670.047	-15.46
670.079	2.54
670.11	13.54
670.142	18.54
670.173	13.54
670.204	17.54
670.236	9.54
670.267	-3.46
670.299	16.54
670.33	10.54
670.362	9.54
670.393	-5.46
670.424	1.54
670.456	-8.46
670.487	-2.46
670.518	9.54
670.55	9.54
670.581	2.54
670.613	9.54
670.644	-6.46
670.675	-10.46
670.707	-17.46
670.738	1.54
670.769	-11.46
670.801	-19.46
670.832	6.54
670.864	-8.46
670.895	10.54
670.926	-5.46
670.958	-12.46
670.989	3.54
671.02	-9.46
671.052	-12.46
671.083	17.54
671.114	9.54
671.146	20.54
671.177	-8.46
671.208	7.54
671.24	-3.46
671.271	-2.46
671.302	-8.46
671.333	-13.46
671.365	-15.46
671.396	-7.46
671.427	7.54
671.459	7.54
671.49	-1.46
671.521	18.54
671.553	1.54
671.584	16.54
671.615	-8.46
671.646	1.54
671.678	0.54
671.709	-9.46
671.74	-14.46
671.771	-18.46
671.803	-4.46
671.834	2.54
671.865	11.54
671.896	7.54
671.928	14.54
671.959	-4.46
671.99	-12.46
672.021	1.54
672.053	2.54
672.084	2.54
672.115	-0.46
672.146	7.54
672.178	-16.46
672.209	2.54
672.24	-0.46
672.271	14.54
672.303	5.54
672.334	7.54
672.365	-6.46
672.396	4.54
672.427	-2.46
672.459	2.54
672.49	19.54
672.521	-1.46
672.552	11.54
672.583	14.54
672.615	4.54
672.646	8.54
672.677	3.54
672.708	-2.46
672.739	-17.46
672.77	4.54
672.802	-12.46
672.833	-9.46
672.864	-4.46
672.895	1.54
672.926	13.54
672.957	-13.46
672.989	-3.46
673.02	9.54
673.051	16.54
673.082	1.54
673.113	-7.46
673.144	-1.46
673.175	2.54
673.206	-4.46
673.238	3.54
673.269	-9.46
673.3	-6.46
673.331	2.54
673.362	11.54
673.393	-6.46
673.424	10.54
673.455	13.54
673.487	3.54
673.518	4.54
673.549	0.54
673.58	-4.46
673.611	-16.46
673.642	6.54
673.673	-11.46
673.704	-1.46
673.735	7.54
673.766	1.54
673.797	0.54
673.828	6.54
673.86	-13.46
673.891	-9.46
673.922	-7.46
673.953	-1.46
673.984	14.54
674.015	0.54
674.046	-3.46
674.077	-4.46
674.108	0.54
674.139	1.54
674.17	-10.46
674.201	-12.46
674.232	-4.46
674.263	0.54
674.294	-11.46
674.325	-3.46
674.356	14.54
674.387	5.54
674.418	0.54
674.449	-3.46
674.48	-6.46
674.511	-18.46
674.542	4.54
674.573	-12.46
674.604	18.54
674.635	3.54
674.666	16.54
674.697	2.54
674.728	13.54
674.759	0.54
674.79	-13.46
674.821	-24.46
674.852	-4.46
674.883	1.54
674.914	-4.46
674.945	-16.46
674.976	-9.46
675.007	-5.46
675.038	-14.46
675.069	-12.46
675.1	2.54
675.131	-15.46
675.162	-14.46
675.193	-11.46
675.224	-4.46
675.254	1.54
675.285	1.54
675.316	21.54
675.347	3.54
675.378	-10.46
675.409	-16.46
675.44	19.54
675.471	7.54
675.502	-5.46
675.533	-4.46
675.564	9.54
675.595	-7.46
675.625	13.54
675.656	0.54
675.687	-10.46
675.718	-21.46
675.749	9.54
675.78	10.54
675.811	0.54
675.842	-1.46
675.873	9.54
675.903	-14.46
675.934	-1.46
675.965	-4.46
675.996	-5.46
676.027	0.54
676.058	-2.46
676.089	2.54
676.119	4.54
676.15	-9.46
676.181	7.54
676.212	-1.46
676.243	6.54
676.274	0.54
676.304	12.54
676.335	-10.46
676.366	-2.46
676.397	9.54
676.428	-2.46
676.459	3.54
676.489	-1.46
676.52	-3.46
676.551	-4.46
676.582	-7.46
676.613	0.54
676.643	-16.46
676.674	17.54
676.705	10.54
676.736	18.54
676.767	18.54
676.797	8.54
676.828	29.54
676.859	0.54
676.89	2.54
676.92	0.54
676.951	-9.46
676.982	-1.46
677.013	9.54
677.044	2.54
677.074	-0.46
677.105	-0.46
677.136	24.54
677.167	16.54
677.197	6.54
677.228	-3.46
677.259	-6.46
677.289	-3.46
677.32	-3.46
677.351	-9.46
677.382	-23.46
677.412	-3.46
677.443	6.54
677.474	4.54
677.505	8.54
677.535	-3.46
677.566	-8.46
677.597	-5.46
677.627	-12.46
677.658	0.54
677.689	-1.46
677.72	3.54
677.75	-6.46
677.781	8.54
677.812	17.54
677.842	2.54
677.873	4.54
677.904	4.54
677.934	-1.46
677.965	-6.46
677.996	4.54
678.026	5.54
678.057	4.54
678.088	-13.46
678.118	-6.46
678.149	-25.46
678.18	-5.46
678.21	9.54
678.241	-15.46
678.272	-14.46
678.302	-10.46
678.333	7.54
678.363	13.54
678.394	12.54
678.425	9.54
678.455	4.54
678.486	12.54
678.517	-1.46
678.547	9.54
678.578	-3.46
678.608	-11.46
678.639	11.54
678.67	8.54
678.7	-4.46
678.731	-9.46
678.761	-8.46
678.792	0.54
678.823	2.54
678.853	-1.46
678.884	-10.46
678.914	5.54
678.945	10.54
678.975	-10.46
679.006	-2.46
679.037	-11.46
679.067	10.54
679.098	-4.46
679.128	-10.46
679.159	-14.46
679.189	6.54
679.22	-0.46
679.25	1.54
679.281	10.54
679.312	7.54
679.342	4.54
679.373	15.54
679.403	4.54
679.434	-0.46
679.464	1.54
679.495	8.54
679.525	5.54
679.556	3.54
679.586	14.54
679.617	17.54
679.647	4.54
679.678	13.54
679.708	-18.46
679.739	-4.46
679.769	13.54
679.8	2.54
679.83	24.54
679.861	10.54
679.891	-0.46
679.922	-20.46
679.952	-0.46
679.983	20.54
680.013	-5.46
680.044	0.54
680.074	9.54
680.105	16.54
680.135	5.54
680.165	11.54
680.196	-1.46
680.226	3.54
680.257	16.54
680.287	7.54
680.318	-8.46
680.348	-21.46
680.379	1.54
680.409	-5.46
680.439	4.54
680.47	2.54
680.5	3.54
680.531	-0.46
680.561	16.54
680.592	-6.46
680.622	-1.46
680.652	-2.46
680.683	20.54
680.713	-2.46
680.744	-4.46
680.774	4.54
680.804	31.54
680.835	11.54
680.865	-18.46
680.896	24.54
680.926	18.54
680.956	3.54
680.987	2.54
681.017	0.54
681.047	3.54
681.078	-13.46
681.108	5.54
681.139	8.54
681.169	5.54
681.199	-7.46
681.23	4.54
681.26	3.54
681.29	13.54
681.321	-12.46
681.351	-10.46
681.381	-5.46
681.412	7.54
681.442	2.54
681.472	2.54
681.503	-3.46
681.533	11.54
681.563	-17.46
681.594	-10.46
681.624	-3.46
681.654	5.54
681.685	-12.46
681.715	-0.46
681.745	0.54
681.775	-4.46
681.806	5.54
681.836	3.54
681.866	-13.46
681.897	0.54
681.927	-6.46
681.957	-9.46
681.987	6.54
682.018	0.54
682.048	4.54
682.078	20.54
682.109	13.54
682.139	10.54
682.169	-9.46
682.199	0.54
682.23	0.54
682.26	14.54
682.29	-8.46
682.32	1.54
682.351	-2.46
682.381	1.54
682.411	8.54
682.441	11.54
682.472	-4.46
682.502	-0.46
682.532	-14.46
682.562	2.54
682.592	19.54
682.623	12.54
682.653	6.54
682.683	-4.46
682.713	5.54
682.743	5.54
682.774	-15.46
682.804	9.54
682.834	-0.46
682.864	-0.46
682.894	-6.46
682.925	-12.46
682.955	-4.46
682.985	1.54
683.015	1.54
683.045	7.54
683.076	-4.46
683.106	4.54
683.136	2.54
683.166	6.54
683.196	2.54
683.226	-10.46
683.257	-19.46
683.287	3.54
683.317	-6.46
683.347	1.54
683.377	1.54
683.407	-3.46
683.437	-0.46
683.468	2.54
683.498	3.54
683.528	-14.46
683.558	-4.46
683.588	4.54
683.618	-0.46
683.648	3.54
683.678	11.54
683.708	22.54
683.739	1.54
683.769	2.54
683.799	3.54
683.829	-4.46
683.859	6.54
683.889	5.54
683.919	5.54
683.949	3.54
683.979	-15.46
684.009	2.54
684.039	3.54
684.07	-10.46
684.1	27.54
684.13	15.54
684.16	8.54
684.19	11.54
684.22	8.54
684.25	11.54
684.28	-1.46
684.31	14.54
684.34	7.54
684.37	27.54
684.4	10.54
684.43	2.54
684.46	-0.46
684.49	-6.46
684.52	6.54
684.55	6.54
684.58	-3.46
684.61	-4.46
684.64	13.54
684.67	3.54
684.7	-12.46
684.73	10.54
684.76	0.54
684.79	12.54
684.82	8.54
684.85	-0.46
684.88	15.54
684.91	6.54
684.94	-4.46
684.97	-7.46
685	-16.46
685.03	0.54
685.06	-6.46
685.09	0.54
685.12	10.54
685.15	-1.46
685.18	13.54
685.21	3.54
685.24	14.54
685.27	15.54
685.3	3.54
685.33	-7.46
685.36	-5.46
685.39	-0.46
685.42	-0.46
685.45	-4.46
685.48	-7.46
685.51	-8.46
685.54	11.54
685.569	19.54
685.599	3.54
685.629	8.54
685.659	0.54
685.689	11.54
685.719	7.54
685.749	3.54
685.779	6.54
685.809	23.54
685.839	5.54
685.869	1.54
685.898	14.54
685.928	4.54
685.958	0.54
685.988	4.54
686.018	-5.46
686.048	0.54
686.078	7.54
686.108	5.54
686.137	9.54
686.167	23.54
686.197	-3.46
686.227	1.54
686.257	19.54
686.287	4.54
686.317	-5.46
686.346	3.54
686.376	2.54
686.406	1.54
686.436	6.54
686.466	-7.46
686.496	16.54
686.525	-15.46
686.555	4.54
686.585	19.54
686.615	22.54
686.645	-12.46
686.675	3.54
686.704	16.54
686.734	9.54
686.764	2.54
686.794	-3.46
686.824	9.54
686.853	19.54
686.883	18.54
686.913	24.54
686.943	11.54
686.973	-17.46
687.002	-0.46
687.032	6.54
687.062	2.54
687.092	20.54
687.121	10.54
687.151	0.54
687.181	6.54
687.211	10.54
687.24	13.54
687.27	21.54
687.3	4.54
687.33	-13.46
687.359	-26.46
687.389	1.54
687.419	12.54
687.449	14.54
687.478	0.54
687.508	-0.46
687.538	9.54
687.568	-0.46
687.597	-15.46
687.627	0.54
687.657	5.54
687.686	19.54
687.716	17.54
687.746	-20.46
687.776	-6.46
687.805	-6.46
687.835	4.54
687.865	25.54
687.894	19.54
687.924	8.54
687.954	12.54
687.983	-1.46
688.013	-0.46
688.043	16.54
688.072	5.54
688.102	17.54
688.132	12.54
688.161	4.54
688.191	-0.46
688.221	25.54
688.25	0.54
688.28	13.54
688.31	-13.46
688.339	2.54
688.369	2.54
688.399	1.54
688.428	-5.46
688.458	-4.46
688.488	-7.46
688.517	11.54
688.547	-7.46
688.576	13.54
688.606	11.54
688.636	-2.46
688.665	9.54
688.695	15.54
688.725	18.54
688.754	0.54
688.784	16.54
688.813	12.54
688.843	7.54
688.873	-0.46
688.902	4.54
688.932	25.54
688.961	8.54
688.991	20.54
689.02	13.54
689.05	-3.46
689.08	13.54
689.109	4.54
689.139	8.54
689.168	0.54
689.198	-11.46
689.227	2.54
689.257	15.54
689.287	31.54
689.316	5.54
689.346	0.54
689.375	-20.46
689.405	3.54
689.434	-4.46
689.464	9.54
689.493	13.54
689.523	-4.46
689.552	-4.46
689.582	5.54
689.611	-3.46
689.641	10.54
689.67	4.54
689.7	5.54
689.73	13.54
689.759	6.54
689.789	31.54
689.818	-5.46
689.848	12.54
689.877	15.54
689.906	-5.46
689.936	-7.46
689.965	0.54
689.995	7.54
690.024	-3.46
690.054	0.54
690.083	3.54
690.113	7.54
690.142	5.54
690.172	6.54
690.201	-3.46
690.231	-7.46
690.26	7.54
690.29	14.54
690.319	24.54
690.348	-1.46
690.378	-3.46
690.407	1.54
690.437	-5.46
690.466	9.54
690.496	2.54
690.525	6.54
690.555	-6.46
690.584	5.54
690.613	12.54
690.643	-1.46
690.672	2.54
690.702	-4.46
690.731	0.54
690.76	-1.46
690.79	1.54
690.819	2.54
690.849	-3.46
690.878	-6.46
690.907	-4.46
690.937	0.54
690.966	2.54
690.996	-0.46
691.025	1.54
691.054	1.54
691.084	-1.46
691.113	8.54
691.142	-6.46
691.172	4.54
691.201	12.54
691.23	11.54
691.26	18.54
691.289	10.54
691.319	-3.46
691.348	0.54
691.377	8.54
691.407	-0.46
691.436	20.54
691.465	4.54
691.495	-5.46
691.524	1.54
691.553	7.54
691.583	4.54
691.612	4.54
691.641	1.54
691.67	12.54
691.7	10.54
691.729	-9.46
691.758	18.54
691.788	6.54
691.817	17.54
691.846	8.54
691.876	2.54
691.905	21.54
691.934	-2.46
691.963	-1.46
691.993	6.54
692.022	0.54
692.051	-10.46
692.081	14.54
692.11	7.54
692.139	3.54
692.168	14.54
692.198	8.54
692.227	15.54
692.256	12.54
692.285	4.54
692.315	1.54
692.344	-10.46
692.373	1.54
692.402	-23.46
692.432	-3.46
692.461	10.54
692.49	2.54
692.519	-4.46
692.548	9.54
692.578	13.54
692.607	0.54
692.636	-13.46
692.665	3.54
692.694	-8.46
692.724	-9.46
692.753	8.54
692.782	3.54
692.811	-18.46
692.84	6.54
692.87	14.54
692.899	2.54
692.928	-3.46
692.957	9.54
692.986	20.54
693.016	-5.46
693.045	14.54
693.074	3.54
693.103	-3.46
693.132	-0.46
693.161	20.54
693.191	-10.46
693.22	-24.46
693.249	-13.46
693.278	-10.46
693.307	17.54
693.336	-11.46
693.365	-2.46
693.395	-13.46
693.424	-2.46
693.453	4.54
693.482	6.54
693.511	14.54
693.54	0.54
693.569	-3.46
693.598	4.54
693.628	8.54
693.657	-5.46
693.686	18.54
693.715	13.54
693.744	10.54
693.773	26.54
693.802	10.54
693.831	3.54
693.86	13.54
693.889	-2.46
693.919	23.54
693.948	0.54
693.977	10.54
694.006	4.54
694.035	1.54
694.064	4.54
694.093	3.54
694.122	-3.46
694.151	-1.46
694.18	13.54
694.209	34.54
694.238	3.54
694.267	10.54
694.296	15.54
694.325	14.54
694.354	18.54
694.383	4.54
694.412	4.54
694.441	2.54
694.471	-1.46
694.5	-8.46
694.529	8.54
694.558	11.54
694.587	13.54
694.616	4.54
694.645	0.54
694.674	13.54
694.703	13.54
694.732	1.54
694.761	7.54
694.79	3.54
694.819	-9.46
694.848	-1.46
694.877	20.54
694.906	16.54
694.935	-1.46
694.963	9.54
694.992	0.54
695.021	7.54
695.05	10.54
695.079	11.54
695.108	-3.46
695.137	11.54
695.166	-1.46
695.195	-6.46
695.224	20.54
695.253	13.54
695.282	10.54
695.311	5.54
695.34	3.54
695.369	19.54
695.398	14.54
695.427	22.54
695.456	7.54
695.485	8.54
695.513	-10.46
695.542	0.54
695.571	1.54
695.6	19.54
695.629	7.54
695.658	8.54
695.687	12.54
695.716	8.54
695.745	25.54
695.774	-2.46
695.802	-1.46
695.831	8.54
695.86	22.54
695.889	3.54
695.918	3.54
695.947	2.54
695.976	1.54
696.005	-5.46
696.033	10.54
696.062	12.54
696.091	10.54
696.12	18.54
696.149	22.54
696.178	-5.46
696.207	9.54
696.235	2.54
696.264	5.54
696.293	-1.46
696.322	4.54
696.351	28.54
696.38	4.54
696.408	5.54
696.437	7.54
696.466	6.54
696.495	12.54
696.524	1.54
696.553	-1.46
696.581	9.54
696.61	1.54
696.639	11.54
696.668	16.54
696.697	-2.46
696.725	-6.46
696.754	24.54
696.783	-0.46
696.812	-12.46
696.84	3.54
696.869	8.54
696.898	9.54
696.927	11.54
696.956	10.54
696.984	-2.46
697.013	4.54
697.042	8.54
697.071	-4.46
697.099	28.54
697.128	27.54
697.157	16.54
697.186	1.54
697.214	-8.46
697.243	-2.46
697.272	4.54
697.301	8.54
697.329	15.54
697.358	16.54
697.387	23.54
697.415	7.54
697.444	17.54
697.473	2.54
697.502	-12.46
697.53	6.54
697.559	-2.46
697.588	11.54
697.616	1.54
697.645	1.54
697.674	7.54
697.703	-11.46
697.731	10.54
697.76	1.54
697.789	-16.46
697.817	-1.46
697.846	-5.46
697.875	5.54
697.903	21.54
697.932	-3.46
697.961	-2.46
697.989	0.54
698.018	3.54
698.047	13.54
698.075	17.54
698.104	2.54
698.133	10.54
698.161	2.54
698.19	0.54
698.218	11.54
698.247	0.54
698.276	3.54
698.304	16.54
698.333	12.54
698.362	-5.46
698.39	-1.46
698.419	6.54
698.447	10.54
698.476	-2.46
698.505	20.54
698.533	6.54
698.562	-7.46
698.591	-7.46
698.619	-14.46
698.648	-8.46
698.676	-3.46
698.705	7.54
698.733	-5.46
698.762	-10.46
698.791	2.54
698.819	7.54
698.848	10.54
698.876	8.54
698.905	15.54
698.933	19.54
698.962	-1.46
698.991	-0.46
699.019	17.54
699.048	6.54
699.076	7.54
699.105	-4.46
699.133	-5.46
699.162	16.54
699.19	18.54
699.219	4.54
699.248	5.54
699.276	-6.46
699.305	-1.46
699.333	4.54
699.362	-4.46
699.39	-2.46
699.419	7.54
699.447	9.54
699.476	7.54
699.504	0.54
699.533	4.54
699.561	-0.46
699.59	16.54
699.618	8.54
699.647	14.54
699.675	17.54
699.704	5.54
699.732	11.54
699.761	8.54
699.789	3.54
699.818	8.54
699.846	1.54
699.874	-9.46
699.903	15.54
699.931	-0.46
699.96	16.54
699.988	10.54
700.017	8.54
700.045	-3.46
700.074	-0.46
700.102	-3.46
700.13	-0.46
700.159	8.54
700.187	10.54
700.216	0.54
700.244	-0.46
700.273	11.54
700.301	15.54
700.329	17.54
700.358	21.54
700.386	9.54
700.415	-8.46
700.443	10.54
700.472	-2.46
700.5	13.54
700.528	16.54
700.557	10.54
700.585	4.54
700.614	1.54
700.642	15.54
700.67	12.54
700.699	17.54
700.727	10.54
700.755	1.54
700.784	-4.46
700.812	-16.46
700.841	21.54
700.869	9.54
700.897	-16.46
700.926	8.54
700.954	11.54
700.982	-4.46
701.011	-3.46
701.039	-1.46
701.067	-1.46
701.096	11.54
701.124	0.54
701.152	6.54
701.181	6.54
701.209	-6.46
701.237	-0.46
701.266	5.54
701.294	-8.46
701.322	3.54
701.351	2.54
701.379	1.54
701.407	1.54
701.435	9.54
701.464	15.54
701.492	25.54
701.52	-6.46
701.549	6.54
701.577	-9.46
701.605	-7.46
701.634	-2.46
701.662	12.54
701.69	0.54
701.718	0.54
701.747	12.54
701.775	-11.46
701.803	-8.46
701.831	5.54
701.86	-7.46
701.888	12.54
701.916	1.54
701.944	6.54
701.973	-11.46
702.001	-29.46
702.029	-3.46
702.057	0.54
702.086	-8.46
702.114	-12.46
702.142	1.54
702.17	-7.46
702.199	5.54
702.227	11.54
702.255	-1.46
702.283	-8.46
702.311	9.54
702.34	-1.46
702.368	0.54
702.396	-5.46
702.424	2.54
702.452	7.54
702.481	10.54
702.509	-12.46
702.537	-3.46
702.565	6.54
702.593	-5.46
702.621	0.54
702.65	4.54
702.678	13.54
702.706	23.54
702.734	-5.46
702.762	-4.46
702.79	16.54
702.819	-0.46
702.847	-5.46
702.875	11.54
702.903	3.54
702.931	-3.46
702.959	0.54
702.988	13.54
703.016	-5.46
703.044	0.54
703.072	5.54
703.1	7.54
703.128	8.54
703.156	3.54
703.184	-7.46
703.212	8.54
703.241	2.54
703.269	1.54
703.297	6.54
703.325	19.54
703.353	9.54
703.381	-4.46
703.409	10.54
703.437	6.54
703.465	-7.46
703.493	-5.46
703.522	-9.46
703.55	14.54
703.578	12.54
703.606	-15.46
703.634	-6.46
703.662	5.54
703.69	-15.46
703.718	-6.46
703.746	17.54
703.774	-0.46
703.802	13.54
703.83	-11.46
703.858	6.54
703.886	-13.46
703.914	-8.46
703.942	12.54
703.97	-6.46
703.998	-8.46
704.027	6.54
704.055	0.54
704.083	-4.46
704.111	-11.46
704.139	15.54
704.167	-2.46
704.195	-1.46
704.223	-2.46
704.251	-13.46
704.279	6.54
704.307	8.54
704.335	-22.46
704.363	-2.46
704.391	-9.46
704.419	-9.46
704.447	-12.46
704.475	5.54
704.503	0.54
704.531	11.54
704.558	6.54
704.586	-0.46
704.614	-4.46
704.642	-5.46
704.67	-13.46
704.698	0.54
704.726	4.54
704.754	8.54
704.782	-5.46
704.81	-6.46
704.838	7.54
704.866	14.54
704.894	-25.46
704.922	-1.46
704.95	3.54
704.978	-4.46
705.006	8.54
705.034	13.54
705.061	-7.46
705.089	-18.46
705.117	-16.46
705.145	-2.46
705.173	-13.46
705.201	2.54
705.229	11.54
705.257	4.54
705.285	17.54
705.313	19.54
705.34	1.54
705.368	1.54
705.396	12.54
705.424	-2.46
705.452	-2.46
705.48	13.54
705.508	-5.46
705.536	5.54
705.563	0.54
705.591	1.54
705.619	2.54
705.647	2.54
705.675	2.54
705.703	-0.46
705.731	2.54
705.758	23.54
705.786	15.54
705.814	38.54
705.842	14.54
705.87	12.54
705.898	18.54
705.925	-2.46
705.953	0.54
705.981	9.54
706.009	3.54
706.037	0.54
706.065	2.54
706.092	4.54
706.12	-5.46
706.148	-0.46
706.176	0.54
706.204	14.54
706.231	6.54
706.259	-2.46
706.287	-0.46
706.315	-0.46
706.342	-10.46
706.37	15.54
706.398	-6.46
706.426	2.54
706.454	3.54
706.481	20.54
706.509	7.54
706.537	-1.46
706.565	8.54
706.592	23.54
706.62	-4.46
706.648	2.54
706.676	-19.46
706.703	3.54
706.731	-0.46
706.759	-7.46
706.787	17.54
706.814	-4.46
706.842	-7.46
706.87	0.54
706.897	7.54
706.925	3.54
706.953	25.54
706.981	27.54
707.008	-0.46
707.036	3.54
707.064	-2.46
707.091	-15.46
707.119	-5.46
707.147	-15.46
707.174	-30.46
707.202	13.54
707.23	3.54
707.258	18.54
707.285	0.54
707.313	-1.46
707.341	-5.46
707.368	-3.46
707.396	9.54
707.424	15.54
707.451	14.54
707.479	7.54
707.507	1.54
707.534	-2.46
707.562	-5.46
707.59	-16.46
707.617	-19.46
707.645	0.54
707.672	4.54
707.7	9.54
707.728	3.54
707.755	12.54
707.783	10.54
707.811	-7.46
707.838	-8.46
707.866	1.54
707.893	1.54
707.921	0.54
707.949	3.54
707.976	2.54
708.004	8.54
708.031	-6.46
708.059	-11.46
708.087	2.54
708.114	-16.46
708.142	-10.46
708.169	-6.46
708.197	-7.46
708.225	0.54
708.252	-0.46
708.28	7.54
708.307	7.54
708.335	2.54
708.362	4.54
708.39	-9.46
708.418	-11.46
708.445	-14.46
708.473	-3.46
708.5	-10.46
708.528	7.54
708.555	-3.46
708.583	-0.46
708.61	4.54
708.638	9.54
708.665	0.54
708.693	-1.46
708.72	-0.46
708.748	-21.46
708.776	14.54
708.803	12.54
708.831	5.54
708.858	4.54
708.886	-3.46
708.913	-3.46
708.941	-16.46
708.968	7.54
708.996	-15.46
709.023	24.54
709.051	-13.46
709.078	-2.46
709.105	-0.46
709.133	-5.46
709.16	14.54
709.188	-0.46
709.215	-11.46
709.243	3.54
709.27	-2.46
709.298	-4.46
709.325	-16.46
709.353	11.54
709.38	14.54
709.408	10.54
709.435	3.54
709.462	-5.46
709.49	-4.46
709.517	-6.46
709.545	0.54
709.572	-3.46
709.6	-1.46
709.627	0.54
709.655	3.54
709.682	-1.46
709.709	5.54
709.737	7.54
709.764	0.54
709.792	18.54
709.819	-10.46
709.846	3.54
709.874	0.54
709.901	12.54
709.929	21.54
709.956	10.54
709.983	-10.46
710.011	3.54
710.038	3.54
710.066	7.54
710.093	-2.46
710.12	-8.46
710.148	-6.46
710.175	-10.46
710.202	-14.46
710.23	3.54
710.257	2.54
710.284	11.54
710.312	15.54
710.339	2.54
710.366	-15.46
710.394	7.54
710.421	5.54
710.448	-1.46
710.476	-16.46
710.503	-10.46
710.53	10.54
710.558	25.54
710.585	14.54
710.612	-1.46
710.64	-6.46
710.667	-2.46
710.694	-5.46
710.722	-10.46
710.749	-4.46
710.776	14.54
710.804	23.54
710.831	12.54
710.858	-3.46
710.885	-0.46
710.913	-7.46
710.94	16.54
710.967	-3.46
710.995	-4.46
711.022	-5.46
711.049	5.54
711.076	-2.46
711.104	-5.46
711.131	-16.46
711.158	-5.46
711.185	10.54
711.213	-8.46
711.24	-9.46
711.267	-3.46
711.294	5.54
711.322	25.54
711.349	10.54
711.376	5.54
711.403	6.54
711.431	-10.46
711.458	8.54
711.485	2.54
711.512	2.54
711.54	-6.46
711.567	1.54
711.594	-4.46
711.621	-2.46
711.648	1.54
711.676	-5.46
711.703	-2.46
711.73	-13.46
711.757	-3.46
711.784	-2.46
711.812	-6.46
711.839	9.54
711.866	-10.46
711.893	-9.46
711.92	-5.46
711.947	6.54
711.975	9.54
712.002	1.54
712.029	16.54
712.056	8.54
712.083	-8.46
712.11	-18.46
712.138	10.54
712.165	15.54
712.192	-6.46
712.219	3.54
712.246	-11.46
712.273	-15.46
712.3	-11.46
712.328	6.54
712.355	-0.46
712.382	-11.46
712.409	4.54
712.436	-5.46
712.463	6.54
712.49	4.54
712.517	-5.46
712.544	5.54
712.572	13.54
712.599	-8.46
712.626	7.54
712.653	-5.46
712.68	-11.46
712.707	4.54
712.734	16.54
712.761	6.54
712.788	4.54
712.815	5.54
712.842	12.54
712.87	6.54
712.897	-7.46
712.924	-14.46
712.951	5.54
712.978	15.54
713.005	12.54
713.032	15.54
713.059	-10.46
713.086	6.54
713.113	-19.46
713.14	-7.46
713.167	-6.46
713.194	-0.46
713.221	-8.46
713.248	3.54
713.275	-10.46
713.302	-5.46
713.329	14.54
713.356	9.54
713.383	1.54
713.41	5.54
713.437	-12.46
713.464	10.54
713.491	5.54
713.518	15.54
713.545	9.54
713.572	1.54
713.599	8.54
713.626	-0.46
713.653	19.54
713.68	-11.46
713.707	-6.46
713.734	-12.46
713.761	-5.46
713.788	9.54
713.815	12.54
713.842	7.54
713.869	4.54
713.896	11.54
713.923	3.54
713.95	-12.46
713.977	-11.46
714.004	-15.46
714.031	-10.46
714.058	-14.46
714.085	6.54
714.112	19.54
714.139	3.54
714.165	-13.46
714.192	-3.46
714.219	-0.46
714.246	6.54
714.273	7.54
714.3	-4.46
714.327	3.54
714.354	2.54
714.381	-6.46
714.408	2.54
714.435	8.54
714.461	-16.46
714.488	-1.46
714.515	-5.46
714.542	-1.46
714.569	-15.46
714.596	-6.46
714.623	11.54
714.65	-5.46
714.677	2.54
714.703	-11.46
714.73	8.54
714.757	17.54
714.784	-6.46
714.811	-16.46
714.838	7.54
714.865	-6.46
714.891	13.54
714.918	4.54
714.945	6.54
714.972	10.54
714.999	15.54
715.026	2.54
715.052	11.54
715.079	-11.46
715.106	9.54
715.133	-4.46
715.16	10.54
715.187	9.54
715.213	7.54
715.24	-3.46
715.267	-16.46
715.294	-5.46
715.321	-2.46
715.347	2.54
715.374	-14.46
715.401	-15.46
715.428	9.54
715.455	4.54
715.481	-13.46
715.508	8.54
715.535	-4.46
715.562	14.54
715.588	-2.46
715.615	-12.46
715.642	9.54
715.669	3.54
715.695	-0.46
715.722	8.54
715.749	4.54
715.776	15.54
715.802	-10.46
715.829	7.54
715.856	-10.46
715.883	4.54
715.909	-14.46
715.936	3.54
715.963	-13.46
715.99	1.54
716.016	6.54
716.043	-0.46
716.07	-8.46
716.096	-6.46
716.123	21.54
716.15	12.54
716.177	1.54
716.203	13.54
716.23	6.54
716.257	13.54
716.283	10.54
716.31	5.54
716.337	6.54
716.363	12.54
716.39	7.54
716.417	3.54
716.443	5.54
716.47	26.54
716.497	13.54
716.523	13.54
716.55	-0.46
716.577	5.54
716.603	2.54
716.63	-9.46
716.657	20.54
716.683	-13.46
716.71	-0.46
716.737	0.54
716.763	-1.46
716.79	4.54
716.817	28.54
716.843	7.54
716.87	-1.46
716.897	-13.46
716.923	15.54
716.95	0.54
716.976	-16.46
717.003	3.54
717.03	-2.46
717.056	-10.46
717.083	4.54
717.109	1.54
717.136	12.54
717.163	1.54
717.189	2.54
717.216	-9.46
717.242	3.54
717.269	-1.46
717.296	-2.46
717.322	10.54
717.349	15.54
717.375	10.54
717.402	10.54
717.428	-4.46
717.455	0.54
717.481	2.54
717.508	1.54
717.535	-12.46
717.561	-12.46
717.588	2.54
717.614	11.54
717.641	7.54
717.667	9.54
717.694	10.54
717.72	1.54
717.747	15.54
717.773	0.54
717.8	-0.46
717.826	13.54
717.853	0.54
717.88	3.54
717.906	15.54
717.933	-3.46
717.959	4.54
717.986	5.54
718.012	2.54
718.039	12.54
718.065	0.54
718.092	21.54
718.118	1.54
718.144	-2.46
718.171	11.54
718.197	7.54
718.224	-6.46
718.25	-4.46
718.277	0.54
718.303	-5.46
718.33	-1.46
718.356	-3.46
718.383	-10.46
718.409	-3.46
718.436	-6.46
718.462	-1.46
718.489	10.54
718.515	11.54
718.541	12.54
718.568	3.54
718.594	6.54
718.621	2.54
718.647	2.54
718.674	14.54
718.7	25.54
718.726	1.54
718.753	10.54
718.779	3.54
718.806	-12.46
718.832	-11.46
718.858	2.54
718.885	-0.46
718.911	-8.46
718.938	-0.46
718.964	-8.46
718.99	-4.46
719.017	8.54
719.043	22.54
719.07	10.54
719.096	-17.46
719.122	-0.46
719.149	1.54
719.175	4.54
719.201	10.54
719.228	-4.46
719.254	-7.46
719.281	-8.46
719.307	-8.46
719.333	2.54
719.36	22.54
719.386	-2.46
719.412	-4.46
719.439	-7.46
719.465	1.54
719.491	-20.46
719.518	4.54
719.544	-1.46
719.57	-4.46
719.597	20.54
719.623	-2.46
719.649	6.54
719.675	10.54
719.702	12.54
719.728	14.54
719.754	0.54
719.781	13.54
719.807	5.54
719.833	1.54
719.86	5.54
719.886	-1.46
719.912	-7.46
719.938	-0.46
719.965	8.54
719.991	7.54
720.017	-4.46
720.044	-10.46
720.07	15.54
720.096	3.54
720.122	-2.46
720.149	6.54
720.175	16.54
720.201	8.54
720.227	2.54
720.254	8.54
720.28	9.54
720.306	-2.46
720.332	10.54
720.359	12.54
720.385	21.54
720.411	-4.46
720.437	9.54
720.463	6.54
720.49	6.54
720.516	-8.46
720.542	6.54
720.568	10.54
720.595	17.54
720.621	3.54
720.647	10.54
720.673	19.54
720.699	0.54
720.725	7.54
720.752	10.54
720.778	-10.46
720.804	-0.46
720.83	20.54
720.856	4.54
720.883	-10.46
720.909	-3.46
720.935	-0.46
720.961	1.54
720.987	-3.46
721.013	7.54
721.04	4.54
721.066	-0.46
721.092	5.54
721.118	19.54
721.144	-0.46
721.17	-3.46
721.196	1.54
721.223	-14.46
721.249	-4.46
721.275	8.54
721.301	-4.46
721.327	11.54
721.353	5.54
721.379	-4.46
721.405	8.54
721.432	8.54
721.458	-8.46
721.484	5.54
721.51	-11.46
721.536	-3.46
721.562	16.54
721.588	-10.46
721.614	2.54
721.64	2.54
721.666	4.54
721.693	-6.46
721.719	14.54
721.745	3.54
721.771	-2.46
721.797	0.54
721.823	1.54
721.849	9.54
721.875	8.54
721.901	12.54
721.927	-3.46
721.953	-0.46
721.979	23.54
722.005	10.54
722.031	-7.46
722.057	3.54
722.083	19.54
722.109	0.54
722.135	7.54
722.161	0.54
722.187	-2.46
722.214	5.54
722.24	-10.46
722.266	-3.46
722.292	4.54
722.318	13.54
722.344	5.54
722.37	17.54
722.396	11.54
722.422	-6.46
722.448	-18.46
722.474	-7.46
722.5	14.54
722.526	9.54
722.552	-7.46
722.578	-15.46
722.603	10.54
722.629	3.54
722.655	7.54
722.681	-6.46
722.707	0.54
722.733	-0.46
722.759	-0.46
722.785	-12.46
722.811	2.54
722.837	-4.46
722.863	-1.46
722.889	5.54
722.915	-1.46
722.941	2.54
722.967	-2.46
722.993	9.54
723.019	-3.46
723.045	4.54
723.071	7.54
723.097	-7.46
723.122	3.54
723.148	-1.46
723.174	-2.46
723.2	8.54
723.226	-5.46
723.252	11.54
723.278	3.54
723.304	19.54
723.33	16.54
723.356	8.54
723.381	9.54
723.407	-11.46
723.433	19.54
723.459	-7.46
723.485	-6.46
723.511	7.54
723.537	2.54
723.563	-4.46
723.588	-7.46
723.614	9.54
723.64	-8.46
723.666	-4.46
723.692	0.54
723.718	-6.46
723.744	-3.46
723.769	1.54
723.795	0.54
723.821	10.54
723.847	-8.46
723.873	0.54
723.899	-0.46
723.924	-2.46
723.95	2.54
723.976	-4.46
724.002	-4.46
724.028	-6.46
724.053	-7.46
724.079	8.54
724.105	-0.46
724.131	3.54
724.157	-1.46
724.182	8.54
724.208	-3.46
724.234	-8.46
724.26	-9.46
724.286	8.54
724.311	-2.46
724.337	5.54
724.363	-4.46
724.389	11.54
724.415	7.54
724.44	33.54
724.466	-3.46
724.492	-0.46
724.518	-7.46
724.543	4.54
724.569	2.54
724.595	4.54
724.621	0.54
724.646	-6.46
724.672	4.54
724.698	-4.46
724.723	5.54
724.749	7.54
724.775	4.54
724.801	7.54
724.826	-0.46
724.852	-4.46
724.878	-13.46
724.904	1.54
724.929	17.54
724.955	-14.46
724.981	-4.46
725.006	-1.46
725.032	3.54
725.058	4.54
725.083	-10.46
725.109	2.54
725.135	-5.46
725.161	6.54
725.186	-4.46
725.212	2.54
725.238	2.54
725.263	-10.46
725.289	-15.46
725.315	2.54
725.34	-3.46
725.366	3.54
725.392	12.54
725.417	3.54
725.443	-16.46
725.468	-0.46
725.494	12.54
725.52	15.54
725.545	0.54
725.571	11.54
725.597	-0.46
725.622	-2.46
725.648	4.54
725.674	11.54
725.699	4.54
725.725	5.54
725.75	18.54
725.776	-3.46
725.802	9.54
725.827	14.54
725.853	12.54
725.878	9.54
725.904	6.54
725.93	6.54
725.955	-23.46
725.981	2.54
726.006	-3.46
726.032	16.54
726.057	2.54
726.083	-1.46
726.109	9.54
726.134	-3.46
726.16	-7.46
726.185	-4.46
726.211	10.54
726.236	6.54
726.262	-9.46
726.288	-0.46
726.313	21.54
726.339	22.54
726.364	10.54
726.39	8.54
726.415	-3.46
726.441	-3.46
726.466	-4.46
726.492	3.54
726.517	8.54
726.543	5.54
726.568	-11.46
726.594	-1.46
726.619	2.54
726.645	14.54
726.67	-2.46
726.696	0.54
726.721	6.54
726.747	-12.46
726.772	-9.46
726.798	-3.46
726.823	1.54
726.849	-7.46
726.874	10.54
726.9	22.54
726.925	4.54
726.951	4.54
726.976	11.54
727.002	2.54
727.027	5.54
727.053	11.54
727.078	-11.46
727.104	-4.46
727.129	-9.46
727.155	-8.46
727.18	13.54
727.205	17.54
727.231	4.54
727.256	13.54
727.282	2.54
727.307	24.54
727.333	-5.46
727.358	-7.46
727.383	-4.46
727.409	-3.46
727.434	-2.46
727.46	-2.46
727.485	-4.46
727.511	-1.46
727.536	-13.46
727.561	5.54
727.587	-14.46
727.612	-6.46
727.637	-1.46
727.663	-11.46
727.688	21.54
727.714	-1.46
727.739	1.54
727.764	9.54
727.79	8.54
727.815	-7.46
727.841	11.54
727.866	4.54
727.891	0.54
727.917	-9.46
727.942	-9.46
727.967	-0.46
727.993	-11.46
728.018	-0.46
728.043	-4.46
728.069	16.54
728.094	-7.46
728.119	-13.46
728.145	9.54
728.17	11.54
728.195	10.54
728.221	19.54
728.246	-8.46
728.271	-9.46
728.297	-4.46
728.322	-5.46
728.347	-4.46
728.373	0.54
728.398	4.54
728.423	-3.46
728.448	0.54
728.474	0.54
728.499	9.54
728.524	-10.46
728.55	-1.46
728.575	-13.46
728.6	3.54
728.625	1.54
728.651	-3.46
728.676	0.54
728.701	-3.46
728.727	-0.46
728.752	-0.46
728.777	-0.46
728.802	-2.46
728.828	3.54
728.853	6.54
728.878	-3.46
728.903	3.54
728.929	-16.46
728.954	-4.46
728.979	13.54
729.004	11.54
729.03	-8.46
729.055	8.54
729.08	-3.46
729.105	5.54
729.13	15.54
729.156	1.54
729.181	-2.46
729.206	-22.46
729.231	4.54
729.256	4.54
729.282	4.54
729.307	-6.46
729.332	2.54
729.357	-3.46
729.382	-0.46
729.408	-11.46
729.433	7.54
729.458	-11.46
729.483	-4.46
729.508	23.54
729.533	-8.46
729.559	6.54
729.584	-3.46
729.609	17.54
729.634	-6.46
729.659	-1.46
729.684	1.54
729.71	3.54
729.735	16.54
729.76	-7.46
729.785	-0.46
729.81	1.54
729.835	2.54
729.86	4.54
729.886	21.54
729.911	-0.46
729.936	3.54
729.961	-0.46
729.986	-15.46
730.011	3.54
730.036	-2.46
730.061	8.54
730.086	-9.46
730.112	6.54
730.137	13.54
730.162	-1.46
730.187	-9.46
730.212	4.54
730.237	-4.46
730.262	10.54
730.287	-2.46
730.312	10.54
730.337	-9.46
730.362	24.54
730.387	6.54
730.413	-3.46
730.438	-7.46
730.463	-14.46
730.488	-10.46
730.513	0.54
730.538	-0.46
730.563	22.54
730.588	18.54
730.613	19.54
730.638	2.54
730.663	4.54
730.688	19.54
730.713	-5.46
730.738	-7.46
730.763	-4.46
730.788	-3.46
730.813	6.54
730.838	3.54
730.863	4.54
730.888	-2.46
730.913	-18.46
730.938	-28.46
730.963	-8.46
730.988	10.54
731.013	17.54
731.038	-13.46
731.063	-10.46
731.088	-4.46
731.113	-0.46
731.138	-3.46
731.163	-2.46
731.188	-12.46
731.213	-9.46
731.238	10.54
731.263	0.54
731.288	-0.46
731.313	10.54
731.338	-6.46
731.363	5.54
731.388	9.54
731.413	-3.46
731.438	25.54
731.463	22.54
731.487	5.54
731.512	-15.46
731.537	4.54
731.562	-3.46
731.587	11.54
731.612	-0.46
731.637	-7.46
731.662	5.54
731.687	-11.46
731.712	-2.46
731.737	10.54
731.762	-3.46
731.786	7.54
731.811	3.54
731.836	-3.46
731.861	4.54
731.886	-5.46
731.911	5.54
731.936	11.54
731.961	1.54
731.986	-2.46
732.01	-2.46
732.035	7.54
732.06	23.54
732.085	-2.46
732.11	9.54
732.135	-0.46
732.16	-3.46
732.184	4.54
732.209	4.54
732.234	9.54
732.259	-4.46
732.284	8.54
732.309	8.54
732.334	-5.46
732.358	-21.46
732.383	-16.46
732.408	4.54
732.433	10.54
732.458	-0.46
732.482	-4.46
732.507	-12.46
732.532	-5.46
732.557	2.54
732.582	5.54
732.607	7.54
732.631	-13.46
732.656	8.54
732.681	-3.46
732.706	2.54
732.73	17.54
732.755	-6.46
732.78	-7.46
732.805	11.54
732.83	-10.46
732.854	1.54
732.879	7.54
732.904	-5.46
732.929	6.54
732.953	-7.46
732.978	2.54
733.003	-11.46
733.028	-5.46
733.052	-3.46
733.077	-2.46
733.102	-4.46
733.127	-7.46
733.151	7.54
733.176	5.54
733.201	8.54
733.226	0.54
733.25	-1.46
733.275	-8.46
733.3	0.54
733.324	13.54
733.349	5.54
733.374	12.54
733.399	11.54
733.423	-5.46
733.448	-4.46
733.473	1.54
733.497	8.54
733.522	-9.46
733.547	10.54
733.571	16.54
733.596	7.54
733.621	11.54
733.646	-8.46
733.67	2.54
733.695	16.54
733.72	16.54
733.744	2.54
733.769	6.54
733.794	20.54
733.818	0.54
733.843	-10.46
733.867	-14.46
733.892	-2.46
733.917	-4.46
733.941	-0.46
733.966	-7.46
733.991	1.54
734.015	8.54
734.04	16.54
734.065	18.54
734.089	18.54
734.114	-5.46
734.138	4.54
734.163	1.54
734.188	16.54
734.212	0.54
734.237	18.54
734.261	0.54
734.286	-4.46
734.311	0.54
734.335	3.54
734.36	3.54
734.384	12.54
734.409	20.54
734.434	-2.46
734.458	0.54
734.483	-9.46
734.507	-17.46
734.532	-7.46
734.556	0.54
734.581	1.54
734.606	17.54
734.63	-5.46
734.655	3.54
734.679	-8.46
734.704	-2.46
734.728	-1.46
734.753	7.54
734.777	3.54
734.802	8.54
734.826	5.54
734.851	-3.46
734.876	-0.46
734.9	-3.46
734.925	3.54
734.949	3.54
734.974	1.54
734.998	6.54
735.023	-10.46
735.047	-5.46
735.072	-0.46
735.096	7.54
735.121	4.54
735.145	-5.46
735.17	-7.46
735.194	6.54
735.219	2.54
735.243	-13.46
735.268	5.54
735.292	0.54
735.317	-2.46
735.341	-2.46
735.365	-21.46
735.39	3.54
735.414	14.54
735.439	-8.46
735.463	-10.46
735.488	0.54
735.512	-0.46
735.537	-11.46
735.561	7.54
735.586	0.54
735.61	-5.46
735.634	1.54
735.659	8.54
735.683	23.54
735.708	-5.46
735.732	-12.46
735.757	4.54
735.781	4.54
735.805	9.54
735.83	14.54
735.854	-2.46
735.879	6.54
735.903	16.54
735.927	21.54
735.952	8.54
735.976	-3.46
736.001	10.54
736.025	2.54
736.049	3.54
736.074	8.54
736.098	4.54
736.123	13.54
736.147	0.54
736.171	7.54
736.196	7.54
736.22	-7.46
736.244	12.54
736.269	9.54
736.293	4.54
736.317	3.54
736.342	11.54
736.366	17.54
736.39	20.54
736.415	13.54
736.439	-2.46
736.463	7.54
736.488	-6.46
736.512	-4.46
736.536	3.54
736.561	19.54
736.585	-3.46
736.609	-5.46
736.634	-14.46
736.658	-2.46
736.682	-15.46
736.707	-14.46
736.731	-6.46
736.755	22.54
736.78	18.54
736.804	21.54
736.828	1.54
736.852	6.54
736.877	2.54
736.901	-1.46
736.925	-0.46
736.949	13.54
736.974	-4.46
736.998	-15.46
737.022	0.54
737.047	-7.46
737.071	-8.46
737.095	28.54
737.119	26.54
737.144	16.54
737.168	-13.46
737.192	0.54
737.216	12.54
737.241	6.54
737.265	10.54
737.289	-1.46
737.313	-7.46
737.337	21.54
737.362	-4.46
737.386	1.54
737.41	0.54
737.434	-1.46
737.459	-9.46
737.483	0.54
737.507	12.54
737.531	12.54
737.555	6.54
737.58	14.54
737.604	0.54
737.628	-19.46
737.652	-14.46
737.676	-14.46
737.701	5.54
737.725	-4.46
737.749	9.54
737.773	-1.46
737.797	-4.46
737.821	-13.46
737.846	3.54
737.87	17.54
737.894	4.54
737.918	5.54
737.942	9.54
737.966	7.54
737.99	3.54
738.015	3.54
738.039	3.54
738.063	-3.46
738.087	17.54
738.111	2.54
738.135	-0.46
738.159	0.54
738.184	19.54
738.208	8.54
738.232	4.54
738.256	13.54
738.28	8.54
738.304	2.54
738.328	4.54
738.352	25.54
738.376	-7.46
738.4	-15.46
738.425	2.54
738.449	-6.46
738.473	20.54
738.497	11.54
738.521	1.54
738.545	11.54
738.569	20.54
738.593	21.54
738.617	1.54
738.641	-3.46
738.665	4.54
738.689	3.54
738.713	-4.46
738.737	8.54
738.762	1.54
738.786	1.54
738.81	-20.46
738.834	14.54
738.858	-2.46
738.882	-1.46
738.906	-4.46
738.93	20.54
738.954	9.54
738.978	-0.46
739.002	3.54
739.026	19.54
739.05	4.54
739.074	-3.46
739.098	12.54
739.122	2.54
739.146	10.54
739.17	18.54
739.194	19.54
739.218	-3.46
739.242	-3.46
739.266	7.54
739.29	13.54
739.314	13.54
739.338	-0.46
739.362	11.54
739.386	-0.46
739.41	-3.46
739.434	-0.46
739.458	-7.46
739.482	9.54
739.506	1.54
739.53	-3.46
739.554	-3.46
739.577	3.54
739.601	3.54
739.625	-16.46
739.649	-2.46
739.673	-10.46
739.697	4.54
739.721	-3.46
739.745	15.54
739.769	13.54
739.793	15.54
739.817	21.54
739.841	-16.46
739.865	-12.46
739.889	-12.46
739.912	3.54
739.936	-2.46
739.96	-5.46
739.984	-0.46
740.008	-5.46
740.032	-8.46
740.056	-10.46
740.08	-3.46
740.104	-7.46
740.127	7.54
740.151	8.54
740.175	15.54
740.199	14.54
740.223	30.54
740.247	11.54
740.271	16.54
740.295	-4.46
740.318	-10.46
740.342	-14.46
740.366	-8.46
740.39	5.54
740.414	7.54
740.438	-3.46
740.461	14.54
740.485	6.54
740.509	-4.46
740.533	6.54
740.557	-6.46
740.581	-12.46
740.604	-9.46
740.628	3.54
740.652	23.54
740.676	11.54
740.7	-0.46
740.723	1.54
740.747	15.54
740.771	-7.46
740.795	-4.46
740.819	10.54
740.842	4.54
740.866	20.54
740.89	8.54
740.914	-4.46
740.938	-3.46
740.961	4.54
740.985	-0.46
741.009	-2.46
741.033	9.54
741.056	17.54
741.08	-10.46
741.104	-10.46
741.128	-2.46
741.151	-9.46
741.175	1.54
741.199	-2.46
741.223	-4.46
741.246	-6.46
741.27	8.54
741.294	15.54
741.318	-13.46
741.341	-12.46
741.365	-2.46
741.389	2.54
741.413	1.54
741.436	20.54
741.46	3.54
741.484	16.54
741.507	6.54
741.531	20.54
741.555	14.54
741.579	0.54
741.602	18.54
741.626	16.54
741.65	5.54
741.673	14.54
741.697	1.54
741.721	13.54
741.744	-12.46
741.768	-2.46
741.792	8.54
741.815	-1.46
741.839	4.54
741.863	25.54
741.886	8.54
741.91	17.54
741.934	3.54
741.957	3.54
741.981	4.54
742.005	-3.46
742.028	-5.46
742.052	0.54
742.075	-2.46
742.099	14.54
742.123	11.54
742.146	4.54
742.17	-7.46
742.194	-9.46
742.217	-10.46
742.241	-7.46
742.264	-13.46
742.288	14.54
742.312	1.54
742.335	-4.46
742.359	0.54
742.382	8.54
742.406	17.54
742.43	-12.46
742.453	2.54
742.477	-6.46
742.5	3.54
742.524	-4.46
742.548	-6.46
742.571	4.54
742.595	-3.46
742.618	-3.46
742.642	-8.46
742.665	13.54
742.689	-14.46
742.712	8.54
742.736	-9.46
742.76	3.54
742.783	-3.46
742.807	1.54
742.83	0.54
742.854	-0.46
742.877	10.54
742.901	-0.46
742.924	-3.46
742.948	-15.46
742.971	12.54
742.995	8.54
743.018	-12.46
743.042	-3.46
743.065	5.54
743.089	0.54
743.112	17.54
743.136	1.54
743.159	-7.46
743.183	-2.46
743.206	-0.46
743.23	-1.46
743.253	-2.46
743.277	14.54
743.3	2.54
743.324	-5.46
743.347	7.54
743.371	13.54
743.394	13.54
743.418	1.54
743.441	13.54
743.465	8.54
743.488	7.54
743.512	12.54
743.535	-10.46
743.558	8.54
743.582	0.54
743.605	2.54
743.629	8.54
743.652	8.54
743.676	-4.46
743.699	0.54
743.723	2.54
743.746	0.54
743.769	1.54
743.793	6.54
743.816	18.54
743.84	19.54
743.863	-3.46
743.886	10.54
743.91	26.54
743.933	1.54
743.957	4.54
743.98	9.54
744.003	4.54
744.027	8.54
744.05	-4.46
744.074	14.54
744.097	-1.46
744.12	2.54
744.144	0.54
744.167	-2.46
744.19	0.54
744.214	-2.46
744.237	-13.46
744.26	16.54
744.284	-5.46
744.307	8.54
744.331	1.54
744.354	-5.46
744.377	-5.46
744.401	14.54
744.424	-8.46
744.447	-12.46
744.471	-12.46
