Data from HighRes_H2_15_09_11_07_2024_HR4C61891__89__15-11-05-302.txt Node

Date: Thu Nov 07 15:11:05 EST 2024
User: crc00042
Spectrometer: HR4C6189
Trigger mode: 4
Integration Time (sec): 1.000000E-1
Scans to average: 1
Electric dark correction enabled: true
Nonlinearity correction enabled: false
Boxcar width: 0
XAxis mode: Wavelengths
Number of Pixels in Spectrum: 3648
>>>>>Begin Spectral Data<<<<<
639.567	-25.54
639.602	-25.54
639.636	-25.54
639.67	-32.54
639.704	-8.54
639.738	-3.54
639.773	7.46
639.807	-11.54
639.841	12.46
639.875	13.46
639.909	4.46
639.943	-8.54
639.978	-15.54
640.012	-0.54
640.046	4.46
640.08	5.46
640.114	-0.54
640.148	-7.54
640.182	-3.54
640.217	6.46
640.251	23.46
640.285	6.46
640.319	-20.54
640.353	0.46
640.387	2.46
640.421	1.46
640.455	4.46
640.49	-1.54
640.524	0.46
640.558	-0.54
640.592	-0.54
640.626	3.46
640.66	14.46
640.694	-4.54
640.728	2.46
640.762	8.46
640.796	18.46
640.83	2.46
640.865	-14.54
640.899	-11.54
640.933	-5.54
640.967	5.46
641.001	12.46
641.035	24.46
641.069	4.46
641.103	-7.54
641.137	-0.54
641.171	-29.54
641.205	-0.54
641.239	14.46
641.273	2.46
641.307	4.46
641.341	-3.54
641.375	-4.54
641.409	-12.54
641.443	2.46
641.477	3.46
641.511	1.46
641.545	11.46
641.579	-3.54
641.614	6.46
641.648	9.46
641.682	-3.54
641.716	16.46
641.75	15.46
641.784	-1.54
641.818	0.46
641.852	12.46
641.886	2.46
641.919	16.46
641.953	10.46
641.987	-16.54
642.021	-9.54
642.055	4.46
642.089	5.46
642.123	-12.54
642.157	-9.54
642.191	-3.54
642.225	11.46
642.259	8.46
642.293	19.46
642.327	3.46
642.361	5.46
642.395	9.46
642.429	3.46
642.463	18.46
642.497	10.46
642.531	5.46
642.565	-2.54
642.599	-5.54
642.633	-2.54
642.666	1.46
642.7	10.46
642.734	25.46
642.768	1.46
642.802	-3.54
642.836	5.46
642.87	-21.54
642.904	1.46
642.938	16.46
642.972	1.46
643.005	11.46
643.039	20.46
643.073	-2.54
643.107	17.46
643.141	6.46
643.175	5.46
643.209	7.46
643.243	-0.54
643.276	10.46
643.31	0.46
643.344	-13.54
643.378	11.46
643.412	8.46
643.446	14.46
643.48	4.46
643.513	14.46
643.547	1.46
643.581	7.46
643.615	18.46
643.649	5.46
643.683	8.46
643.716	14.46
643.75	-10.54
643.784	5.46
643.818	16.46
643.852	-2.54
643.886	-6.54
643.919	12.46
643.953	-7.54
643.987	-0.54
644.021	9.46
644.055	14.46
644.088	1.46
644.122	-3.54
644.156	-2.54
644.19	3.46
644.224	1.46
644.257	6.46
644.291	-2.54
644.325	-1.54
644.359	8.46
644.392	29.46
644.426	22.46
644.46	7.46
644.494	15.46
644.527	-11.54
644.561	-6.54
644.595	1.46
644.629	-1.54
644.662	-9.54
644.696	18.46
644.73	4.46
644.764	8.46
644.797	-9.54
644.831	-6.54
644.865	15.46
644.899	11.46
644.932	12.46
644.966	3.46
645	3.46
645.033	5.46
645.067	-9.54
645.101	21.46
645.135	11.46
645.168	-8.54
645.202	-9.54
645.236	4.46
645.269	10.46
645.303	5.46
645.337	-16.54
645.37	-4.54
645.404	-7.54
645.438	1.46
645.471	-4.54
645.505	11.46
645.539	8.46
645.572	-14.54
645.606	-2.54
645.64	3.46
645.673	0.46
645.707	23.46
645.741	1.46
645.774	8.46
645.808	3.46
645.842	7.46
645.875	14.46
645.909	0.46
645.943	2.46
645.976	11.46
646.01	12.46
646.043	26.46
646.077	5.46
646.111	4.46
646.144	5.46
646.178	-2.54
646.212	-11.54
646.245	-6.54
646.279	-0.54
646.312	11.46
646.346	-2.54
646.38	-8.54
646.413	3.46
646.447	3.46
646.48	-8.54
646.514	13.46
646.547	0.46
646.581	-14.54
646.615	10.46
646.648	9.46
646.682	-8.54
646.715	14.46
646.749	24.46
646.782	-0.54
646.816	-2.54
646.85	1.46
646.883	-8.54
646.917	20.46
646.95	24.46
646.984	2.46
647.017	4.46
647.051	17.46
647.084	7.46
647.118	-2.54
647.151	5.46
647.185	6.46
647.218	-8.54
647.252	7.46
647.285	-6.54
647.319	-14.54
647.353	-6.54
647.386	17.46
647.42	-1.54
647.453	-3.54
647.487	-4.54
647.52	7.46
647.553	13.46
647.587	-6.54
647.62	-1.54
647.654	2.46
647.687	13.46
647.721	4.46
647.754	12.46
647.788	10.46
647.821	-5.54
647.855	16.46
647.888	21.46
647.922	-1.54
647.955	5.46
647.989	6.46
648.022	3.46
648.055	24.46
648.089	1.46
648.122	15.46
648.156	-0.54
648.189	3.46
648.223	5.46
648.256	27.46
648.29	1.46
648.323	4.46
648.356	12.46
648.39	3.46
648.423	8.46
648.457	-2.54
648.49	9.46
648.523	16.46
648.557	3.46
648.59	4.46
648.624	8.46
648.657	5.46
648.69	14.46
648.724	11.46
648.757	17.46
648.791	11.46
648.824	-2.54
648.857	28.46
648.891	-7.54
648.924	8.46
648.957	12.46
648.991	-0.54
649.024	17.46
649.057	-6.54
649.091	-3.54
649.124	7.46
649.158	-2.54
649.191	17.46
649.224	8.46
649.258	20.46
649.291	10.46
649.324	0.46
649.358	9.46
649.391	-0.54
649.424	-2.54
649.458	-1.54
649.491	1.46
649.524	-1.54
649.557	-4.54
649.591	-12.54
649.624	13.46
649.657	-14.54
649.691	-5.54
649.724	-0.54
649.757	16.46
649.791	-1.54
649.824	14.46
649.857	26.46
649.89	4.46
649.924	-6.54
649.957	4.46
649.99	-19.54
650.023	1.46
650.057	0.46
650.09	7.46
650.123	2.46
650.157	3.46
650.19	25.46
650.223	15.46
650.256	-11.54
650.29	-3.54
650.323	-8.54
650.356	7.46
650.389	-9.54
650.423	-1.54
650.456	25.46
650.489	6.46
650.522	15.46
650.555	20.46
650.589	2.46
650.622	8.46
650.655	12.46
650.688	13.46
650.721	-5.54
650.755	9.46
650.788	19.46
650.821	0.46
650.854	-5.54
650.887	5.46
650.921	2.46
650.954	-6.54
650.987	6.46
651.02	-3.54
651.053	-12.54
651.087	-13.54
651.12	21.46
651.153	11.46
651.186	8.46
651.219	-5.54
651.252	-4.54
651.286	14.46
651.319	6.46
651.352	1.46
651.385	3.46
651.418	15.46
651.451	24.46
651.484	4.46
651.518	3.46
651.551	22.46
651.584	-9.54
651.617	26.46
651.65	4.46
651.683	13.46
651.716	8.46
651.749	-4.54
651.783	5.46
651.816	19.46
651.849	7.46
651.882	7.46
651.915	-27.54
651.948	3.46
651.981	-10.54
652.014	-4.54
652.047	-9.54
652.08	-15.54
652.114	-6.54
652.147	-15.54
652.18	-0.54
652.213	17.46
652.246	7.46
652.279	10.46
652.312	10.46
652.345	5.46
652.378	13.46
652.411	20.46
652.444	6.46
652.477	3.46
652.51	6.46
652.543	-11.54
652.576	1.46
652.609	-5.54
652.642	-5.54
652.675	-3.54
652.709	-16.54
652.742	0.46
652.775	19.46
652.808	16.46
652.841	-11.54
652.874	3.46
652.907	-2.54
652.94	-0.54
652.973	-13.54
653.006	-3.54
653.039	0.46
653.072	-4.54
653.105	0.46
653.138	-15.54
653.171	-11.54
653.204	-4.54
653.237	-6.54
653.27	-8.54
653.303	-4.54
653.336	26.46
653.368	-3.54
653.401	-3.54
653.434	-14.54
653.467	14.46
653.5	-7.54
653.533	-5.54
653.566	13.46
653.599	6.46
653.632	2.46
653.665	12.46
653.698	-16.54
653.731	-11.54
653.764	9.46
653.797	3.46
653.83	2.46
653.863	-14.54
653.896	2.46
653.929	-6.54
653.961	1.46
653.994	3.46
654.027	-13.54
654.06	0.46
654.093	-4.54
654.126	1.46
654.159	-18.54
654.192	5.46
654.225	9.46
654.258	0.46
654.29	2.46
654.323	-1.54
654.356	-8.54
654.389	1.46
654.422	1.46
654.455	-4.54
654.488	5.46
654.521	-9.54
654.553	-8.54
654.586	11.46
654.619	-6.54
654.652	4.46
654.685	16.46
654.718	11.46
654.751	12.46
654.783	-19.54
654.816	23.46
654.849	5.46
654.882	-4.54
654.915	-3.54
654.948	8.46
654.98	-17.54
655.013	2.46
655.046	-6.54
655.079	6.46
655.112	1.46
655.144	-15.54
655.177	12.46
655.21	22.46
655.243	-2.54
655.276	3.46
655.308	0.46
655.341	-0.54
655.374	0.46
655.407	-6.54
655.44	-7.54
655.472	34.46
655.505	13.46
655.538	9.46
655.571	28.46
655.603	13.46
655.636	16.46
655.669	18.46
655.702	21.46
655.734	9.46
655.767	26.46
655.8	26.46
655.833	19.46
655.865	23.46
655.898	28.46
655.931	37.46
655.964	40.46
655.996	30.46
656.029	60.46
656.062	66.46
656.095	66.46
656.127	50.46
656.16	105.46
656.193	133.46
656.225	182.46
656.258	287.46
656.291	502.46
656.324	1112.46
656.356	3400.46
656.389	7564.46
656.422	5984.46
656.454	2058.46
656.487	703.46
656.52	261.46
656.552	120.46
656.585	73.46
656.618	38.46
656.65	38.46
656.683	24.46
656.716	9.46
656.748	18.46
656.781	9.46
656.814	4.46
656.846	12.46
656.879	-1.54
656.912	13.46
656.944	-0.54
656.977	-10.54
657.01	0.46
657.042	16.46
657.075	24.46
657.108	-11.54
657.14	2.46
657.173	13.46
657.205	43.46
657.238	19.46
657.271	1.46
657.303	-3.54
657.336	9.46
657.369	-1.54
657.401	2.46
657.434	-2.54
657.466	15.46
657.499	15.46
657.532	14.46
657.564	19.46
657.597	-2.54
657.629	14.46
657.662	-4.54
657.694	-4.54
657.727	-3.54
657.76	8.46
657.792	-1.54
657.825	13.46
657.857	1.46
657.89	-6.54
657.922	17.46
657.955	-0.54
657.987	10.46
658.02	11.46
658.053	22.46
658.085	12.46
658.118	3.46
658.15	6.46
658.183	10.46
658.215	-2.54
658.248	11.46
658.28	3.46
658.313	6.46
658.345	7.46
658.378	-15.54
658.41	-5.54
658.443	25.46
658.475	3.46
658.508	2.46
658.54	6.46
658.573	-12.54
658.605	22.46
658.638	5.46
658.67	9.46
658.703	7.46
658.735	-14.54
658.768	10.46
658.8	-17.54
658.833	14.46
658.865	10.46
658.898	3.46
658.93	-14.54
658.963	-4.54
658.995	1.46
659.028	-3.54
659.06	-21.54
659.092	2.46
659.125	-4.54
659.157	15.46
659.19	-5.54
659.222	9.46
659.255	12.46
659.287	9.46
659.32	-0.54
659.352	3.46
659.384	8.46
659.417	13.46
659.449	14.46
659.482	9.46
659.514	6.46
659.546	-2.54
659.579	1.46
659.611	1.46
659.644	-2.54
659.676	2.46
659.708	-1.54
659.741	-5.54
659.773	10.46
659.806	2.46
659.838	5.46
659.87	5.46
659.903	-23.54
659.935	8.46
659.967	0.46
660	6.46
660.032	-20.54
660.065	4.46
660.097	-2.54
660.129	10.46
660.162	2.46
660.194	11.46
660.226	4.46
660.259	13.46
660.291	-4.54
660.323	-5.54
660.356	8.46
660.388	-7.54
660.42	-4.54
660.453	1.46
660.485	2.46
660.517	8.46
660.55	16.46
660.582	12.46
660.614	17.46
660.647	6.46
660.679	-15.54
660.711	-6.54
660.743	-18.54
660.776	-2.54
660.808	0.46
660.84	0.46
660.873	8.46
660.905	-3.54
660.937	5.46
660.969	-10.54
661.002	-1.54
661.034	8.46
661.066	4.46
661.099	-4.54
661.131	1.46
661.163	-10.54
661.195	5.46
661.228	13.46
661.26	1.46
661.292	-2.54
661.324	-3.54
661.357	10.46
661.389	10.46
661.421	3.46
661.453	0.46
661.485	6.46
661.518	2.46
661.55	9.46
661.582	-8.54
661.614	4.46
661.647	-2.54
661.679	-2.54
661.711	6.46
661.743	-6.54
661.775	-1.54
661.808	25.46
661.84	-11.54
661.872	10.46
661.904	15.46
661.936	3.46
661.969	4.46
662.001	-6.54
662.033	-3.54
662.065	12.46
662.097	22.46
662.129	11.46
662.162	5.46
662.194	6.46
662.226	5.46
662.258	23.46
662.29	8.46
662.322	3.46
662.355	3.46
662.387	28.46
662.419	5.46
662.451	9.46
662.483	20.46
662.515	0.46
662.547	4.46
662.58	-4.54
662.612	2.46
662.644	-5.54
662.676	-1.54
662.708	25.46
662.74	-1.54
662.772	-5.54
662.804	4.46
662.836	2.46
662.869	-4.54
662.901	8.46
662.933	-9.54
662.965	15.46
662.997	5.46
663.029	-4.54
663.061	2.46
663.093	5.46
663.125	18.46
663.157	13.46
663.189	5.46
663.221	11.46
663.254	0.46
663.286	16.46
663.318	5.46
663.35	8.46
663.382	10.46
663.414	6.46
663.446	-0.54
663.478	-12.54
663.51	32.46
663.542	1.46
663.574	10.46
663.606	16.46
663.638	-9.54
663.67	-11.54
663.702	-8.54
663.734	-21.54
663.766	-4.54
663.798	10.46
663.83	16.46
663.862	-4.54
663.894	2.46
663.926	4.46
663.958	25.46
663.99	-22.54
664.022	-0.54
664.054	17.46
664.086	-0.54
664.118	-16.54
664.15	-10.54
664.182	12.46
664.214	8.46
664.246	17.46
664.278	11.46
664.31	7.46
664.342	3.46
664.374	-3.54
664.406	3.46
664.438	-4.54
664.47	29.46
664.502	0.46
664.534	-1.54
664.566	-8.54
664.598	4.46
664.63	4.46
664.662	5.46
664.693	-7.54
664.725	-17.54
664.757	1.46
664.789	-15.54
664.821	4.46
664.853	8.46
664.885	15.46
664.917	2.46
664.949	-1.54
664.981	23.46
665.013	-1.54
665.045	-19.54
665.076	-13.54
665.108	1.46
665.14	2.46
665.172	2.46
665.204	-1.54
665.236	0.46
665.268	19.46
665.3	-5.54
665.331	-5.54
665.363	17.46
665.395	4.46
665.427	-0.54
665.459	1.46
665.491	-0.54
665.523	1.46
665.555	-6.54
665.586	3.46
665.618	-4.54
665.65	-11.54
665.682	-1.54
665.714	-3.54
665.746	0.46
665.777	5.46
665.809	-13.54
665.841	-10.54
665.873	-3.54
665.905	9.46
665.937	20.46
665.968	-0.54
666	2.46
666.032	-0.54
666.064	16.46
666.096	1.46
666.127	1.46
666.159	17.46
666.191	20.46
666.223	2.46
666.255	-1.54
666.286	9.46
666.318	-2.54
666.35	4.46
666.382	3.46
666.413	-3.54
666.445	4.46
666.477	-8.54
666.509	-7.54
666.54	2.46
666.572	5.46
666.604	-8.54
666.636	3.46
666.667	22.46
666.699	17.46
666.731	-4.54
666.763	-2.54
666.794	8.46
666.826	-2.54
666.858	-7.54
666.89	6.46
666.921	12.46
666.953	16.46
666.985	13.46
667.017	25.46
667.048	10.46
667.08	9.46
667.112	9.46
667.143	-10.54
667.175	10.46
667.207	-7.54
667.238	9.46
667.27	4.46
667.302	-3.54
667.334	-13.54
667.365	24.46
667.397	14.46
667.429	-10.54
667.46	11.46
667.492	7.46
667.524	-3.54
667.555	6.46
667.587	-3.54
667.619	-7.54
667.65	0.46
667.682	-4.54
667.714	5.46
667.745	0.46
667.777	1.46
667.808	19.46
667.84	4.46
667.872	-4.54
667.903	8.46
667.935	-4.54
667.967	-3.54
667.998	9.46
668.03	2.46
668.061	15.46
668.093	-6.54
668.125	-8.54
668.156	-2.54
668.188	-0.54
668.22	-11.54
668.251	-2.54
668.283	6.46
668.314	-4.54
668.346	4.46
668.377	-6.54
668.409	-4.54
668.441	11.46
668.472	-8.54
668.504	0.46
668.535	8.46
668.567	25.46
668.599	9.46
668.63	6.46
668.662	6.46
668.693	4.46
668.725	8.46
668.756	2.46
668.788	4.46
668.819	13.46
668.851	9.46
668.882	2.46
668.914	-0.54
668.946	3.46
668.977	-0.54
669.009	12.46
669.04	-10.54
669.072	1.46
669.103	-5.54
669.135	-4.54
669.166	0.46
669.198	20.46
669.229	5.46
669.261	2.46
669.292	1.46
669.324	2.46
669.355	10.46
669.387	-2.54
669.418	22.46
669.45	-7.54
669.481	12.46
669.513	19.46
669.544	14.46
669.576	10.46
669.607	2.46
669.639	-4.54
669.67	2.46
669.701	2.46
669.733	0.46
669.764	5.46
669.796	5.46
669.827	-0.54
669.859	11.46
669.89	-1.54
669.922	9.46
669.953	7.46
669.985	13.46
670.016	8.46
670.047	20.46
670.079	-0.54
670.11	-0.54
670.142	5.46
670.173	-7.54
670.204	-2.54
670.236	4.46
670.267	-9.54
670.299	14.46
670.33	8.46
670.362	13.46
670.393	-16.54
670.424	5.46
670.456	-8.54
670.487	-0.54
670.518	-3.54
670.55	5.46
670.581	9.46
670.613	0.46
670.644	-1.54
670.675	-23.54
670.707	-4.54
670.738	10.46
670.769	8.46
670.801	4.46
670.832	13.46
670.864	-0.54
670.895	-0.54
670.926	-3.54
670.958	-5.54
670.989	-9.54
671.02	-2.54
671.052	-6.54
671.083	1.46
671.114	0.46
671.146	6.46
671.177	7.46
671.208	2.46
671.24	-8.54
671.271	-5.54
671.302	-2.54
671.333	-5.54
671.365	2.46
671.396	-5.54
671.427	5.46
671.459	6.46
671.49	8.46
671.521	4.46
671.553	3.46
671.584	-10.54
671.615	-11.54
671.646	-13.54
671.678	1.46
671.709	-7.54
671.74	-10.54
671.771	-22.54
671.803	-4.54
671.834	10.46
671.865	-4.54
671.896	-13.54
671.928	-5.54
671.959	-8.54
671.99	1.46
672.021	-6.54
672.053	-23.54
672.084	7.46
672.115	0.46
672.146	-3.54
672.178	-21.54
672.209	-9.54
672.24	-1.54
672.271	23.46
672.303	10.46
672.334	2.46
672.365	1.46
672.396	2.46
672.427	5.46
672.459	7.46
672.49	36.46
672.521	18.46
672.552	11.46
672.583	9.46
672.615	4.46
672.646	20.46
672.677	-9.54
672.708	-5.54
672.739	-13.54
672.77	-1.54
672.802	-0.54
672.833	-21.54
672.864	-3.54
672.895	-19.54
672.926	3.46
672.957	-4.54
672.989	1.46
673.02	5.46
673.051	-7.54
673.082	-0.54
673.113	4.46
673.144	9.46
673.175	-3.54
673.206	-12.54
673.238	-6.54
673.269	1.46
673.3	-2.54
673.331	-13.54
673.362	-7.54
673.393	-15.54
673.424	-9.54
673.455	17.46
673.487	11.46
673.518	12.46
673.549	-1.54
673.58	-0.54
673.611	8.46
673.642	-5.54
673.673	-6.54
673.704	-5.54
673.735	-1.54
673.766	-6.54
673.797	8.46
673.828	-5.54
673.86	-13.54
673.891	-18.54
673.922	-13.54
673.953	-13.54
673.984	1.46
674.015	8.46
674.046	-7.54
674.077	6.46
674.108	-12.54
674.139	-10.54
674.17	-9.54
674.201	-11.54
674.232	-8.54
674.263	3.46
674.294	-1.54
674.325	-14.54
674.356	2.46
674.387	3.46
674.418	-3.54
674.449	-5.54
674.48	-4.54
674.511	0.46
674.542	1.46
674.573	-4.54
674.604	8.46
674.635	3.46
674.666	20.46
674.697	4.46
674.728	-12.54
674.759	2.46
674.79	-7.54
674.821	-8.54
674.852	-14.54
674.883	-8.54
674.914	-2.54
674.945	9.46
674.976	5.46
675.007	-3.54
675.038	-18.54
675.069	-5.54
675.1	3.46
675.131	1.46
675.162	-22.54
675.193	-3.54
675.224	-4.54
675.254	16.46
675.285	0.46
675.316	19.46
675.347	-6.54
675.378	-9.54
675.409	1.46
675.44	7.46
675.471	-7.54
675.502	-20.54
675.533	-8.54
675.564	5.46
675.595	-8.54
675.625	13.46
675.656	10.46
675.687	0.46
675.718	-10.54
675.749	-13.54
675.78	2.46
675.811	7.46
675.842	20.46
675.873	-8.54
675.903	8.46
675.934	9.46
675.965	-1.54
675.996	-11.54
676.027	3.46
676.058	4.46
676.089	-13.54
676.119	-8.54
676.15	-14.54
676.181	-0.54
676.212	1.46
676.243	16.46
676.274	5.46
676.304	9.46
676.335	-26.54
676.366	5.46
676.397	6.46
676.428	-7.54
676.459	7.46
676.489	14.46
676.52	6.46
676.551	-1.54
676.582	-8.54
676.613	5.46
676.643	-7.54
676.674	8.46
676.705	-5.54
676.736	-2.54
676.767	-5.54
676.797	1.46
676.828	0.46
676.859	-19.54
676.89	-18.54
676.92	-8.54
676.951	8.46
676.982	4.46
677.013	-4.54
677.044	25.46
677.074	-11.54
677.105	-3.54
677.136	25.46
677.167	0.46
677.197	21.46
677.228	-4.54
677.259	-12.54
677.289	0.46
677.32	-12.54
677.351	-9.54
677.382	0.46
677.412	-3.54
677.443	5.46
677.474	-2.54
677.505	-18.54
677.535	1.46
677.566	3.46
677.597	-4.54
677.627	-4.54
677.658	2.46
677.689	-13.54
677.72	-6.54
677.75	1.46
677.781	-5.54
677.812	6.46
677.842	19.46
677.873	13.46
677.904	-0.54
677.934	1.46
677.965	-10.54
677.996	-6.54
678.026	6.46
678.057	0.46
678.088	-23.54
678.118	-3.54
678.149	-10.54
678.18	1.46
678.21	-5.54
678.241	5.46
678.272	-6.54
678.302	-8.54
678.333	-10.54
678.363	5.46
678.394	12.46
678.425	6.46
678.455	-2.54
678.486	2.46
678.517	-3.54
678.547	-3.54
678.578	0.46
678.608	-4.54
678.639	16.46
678.67	4.46
678.7	-10.54
678.731	2.46
678.761	-7.54
678.792	-2.54
678.823	9.46
678.853	-5.54
678.884	-8.54
678.914	4.46
678.945	-7.54
678.975	-8.54
679.006	5.46
679.037	9.46
679.067	4.46
679.098	4.46
679.128	10.46
679.159	8.46
679.189	27.46
679.22	-20.54
679.25	4.46
679.281	-5.54
679.312	2.46
679.342	8.46
679.373	33.46
679.403	2.46
679.434	9.46
679.464	-11.54
679.495	12.46
679.525	9.46
679.556	-0.54
679.586	24.46
679.617	12.46
679.647	-11.54
679.678	-3.54
679.708	-2.54
679.739	4.46
679.769	-2.54
679.8	-9.54
679.83	0.46
679.861	0.46
679.891	12.46
679.922	-8.54
679.952	3.46
679.983	-0.54
680.013	-2.54
680.044	-0.54
680.074	9.46
680.105	17.46
680.135	13.46
680.165	6.46
680.196	12.46
680.226	1.46
680.257	10.46
680.287	5.46
680.318	-1.54
680.348	-10.54
680.379	1.46
680.409	-7.54
680.439	-5.54
680.47	-9.54
680.5	-3.54
680.531	-5.54
680.561	-4.54
680.592	4.46
680.622	20.46
680.652	-5.54
680.683	5.46
680.713	-10.54
680.744	4.46
680.774	-4.54
680.804	8.46
680.835	3.46
680.865	-1.54
680.896	14.46
680.926	23.46
680.956	-2.54
680.987	-7.54
681.017	-12.54
681.047	4.46
681.078	2.46
681.108	6.46
681.139	4.46
681.169	-8.54
681.199	5.46
681.23	3.46
681.26	-5.54
681.29	2.46
681.321	-19.54
681.351	-4.54
681.381	3.46
681.412	1.46
681.442	12.46
681.472	22.46
681.503	16.46
681.533	3.46
681.563	-17.54
681.594	-2.54
681.624	7.46
681.654	-0.54
681.685	2.46
681.715	3.46
681.745	-3.54
681.775	-0.54
681.806	-1.54
681.836	8.46
681.866	-18.54
681.897	-0.54
681.927	-6.54
681.957	1.46
681.987	5.46
682.018	12.46
682.048	15.46
682.078	12.46
682.109	7.46
682.139	8.46
682.169	6.46
682.199	-4.54
682.23	-14.54
682.26	11.46
682.29	-1.54
682.32	-3.54
682.351	-7.54
682.381	-8.54
682.411	-8.54
682.441	1.46
682.472	-15.54
682.502	4.46
682.532	4.46
682.562	-3.54
682.592	9.46
682.623	24.46
682.653	3.46
682.683	-12.54
682.713	4.46
682.743	-2.54
682.774	-35.54
682.804	-6.54
682.834	22.46
682.864	3.46
682.894	17.46
682.925	-0.54
682.955	1.46
682.985	-12.54
683.015	17.46
683.045	16.46
683.076	-5.54
683.106	6.46
683.136	-10.54
683.166	-0.54
683.196	3.46
683.226	-18.54
683.257	-4.54
683.287	-17.54
683.317	-10.54
683.347	-3.54
683.377	-10.54
683.407	14.46
683.437	1.46
683.468	8.46
683.498	-22.54
683.528	2.46
683.558	-4.54
683.588	-11.54
683.618	-21.54
683.648	-7.54
683.678	15.46
683.708	0.46
683.739	-5.54
683.769	-10.54
683.799	-3.54
683.829	7.46
683.859	3.46
683.889	14.46
683.919	10.46
683.949	10.46
683.979	-1.54
684.009	0.46
684.039	3.46
684.07	-8.54
684.1	4.46
684.13	10.46
684.16	3.46
684.19	-17.54
684.22	-4.54
684.25	0.46
684.28	-0.54
684.31	16.46
684.34	-3.54
684.37	18.46
684.4	7.46
684.43	4.46
684.46	5.46
684.49	11.46
684.52	-0.54
684.55	4.46
684.58	8.46
684.61	0.46
684.64	0.46
684.67	14.46
684.7	-5.54
684.73	3.46
684.76	-16.54
684.79	18.46
684.82	9.46
684.85	-23.54
684.88	4.46
684.91	-0.54
684.94	-6.54
684.97	0.46
685	15.46
685.03	-2.54
685.06	-4.54
685.09	15.46
685.12	23.46
685.15	-7.54
685.18	8.46
685.21	15.46
685.24	-1.54
685.27	12.46
685.3	1.46
685.33	-1.54
685.36	-21.54
685.39	-8.54
685.42	-13.54
685.45	13.46
685.48	-3.54
685.51	-3.54
685.54	6.46
685.569	5.46
685.599	4.46
685.629	4.46
685.659	-1.54
685.689	7.46
685.719	0.46
685.749	-13.54
685.779	-1.54
685.809	0.46
685.839	-2.54
685.869	1.46
685.898	6.46
685.928	10.46
685.958	-7.54
685.988	10.46
686.018	1.46
686.048	-1.54
686.078	4.46
686.108	4.46
686.137	-1.54
686.167	36.46
686.197	0.46
686.227	5.46
686.257	30.46
686.287	26.46
686.317	16.46
686.346	7.46
686.376	-11.54
686.406	-11.54
686.436	-6.54
686.466	0.46
686.496	6.46
686.525	17.46
686.555	1.46
686.585	7.46
686.615	35.46
686.645	15.46
686.675	2.46
686.704	13.46
686.734	-0.54
686.764	0.46
686.794	2.46
686.824	-1.54
686.853	1.46
686.883	26.46
686.913	16.46
686.943	1.46
686.973	-4.54
687.002	4.46
687.032	3.46
687.062	-5.54
687.092	22.46
687.121	10.46
687.151	7.46
687.181	-9.54
687.211	4.46
687.24	-2.54
687.27	-6.54
687.3	2.46
687.33	11.46
687.359	-8.54
687.389	14.46
687.419	24.46
687.449	2.46
687.478	-1.54
687.508	-3.54
687.538	13.46
687.568	12.46
687.597	11.46
687.627	-1.54
687.657	4.46
687.686	3.46
687.716	14.46
687.746	-0.54
687.776	-2.54
687.805	15.46
687.835	7.46
687.865	26.46
687.894	2.46
687.924	15.46
687.954	3.46
687.983	0.46
688.013	15.46
688.043	13.46
688.072	-0.54
688.102	8.46
688.132	0.46
688.161	2.46
688.191	-1.54
688.221	12.46
688.25	-24.54
688.28	-7.54
688.31	6.46
688.339	7.46
688.369	-6.54
688.399	5.46
688.428	4.46
688.458	0.46
688.488	8.46
688.517	3.46
688.547	1.46
688.576	32.46
688.606	-4.54
688.636	-14.54
688.665	-1.54
688.695	8.46
688.725	19.46
688.754	14.46
688.784	-0.54
688.813	5.46
688.843	5.46
688.873	8.46
688.902	-20.54
688.932	-11.54
688.961	0.46
688.991	19.46
689.02	14.46
689.05	-10.54
689.08	7.46
689.109	18.46
689.139	-11.54
689.168	0.46
689.198	13.46
689.227	1.46
689.257	26.46
689.287	8.46
689.316	-8.54
689.346	-11.54
689.375	-17.54
689.405	4.46
689.434	-11.54
689.464	7.46
689.493	5.46
689.523	-7.54
689.552	0.46
689.582	12.46
689.611	-3.54
689.641	12.46
689.67	9.46
689.7	15.46
689.73	5.46
689.759	19.46
689.789	6.46
689.818	3.46
689.848	-7.54
689.877	18.46
689.906	1.46
689.936	-2.54
689.965	4.46
689.995	-1.54
690.024	21.46
690.054	0.46
690.083	4.46
690.113	5.46
690.142	-3.54
690.172	-2.54
690.201	5.46
690.231	-3.54
690.26	10.46
690.29	3.46
690.319	14.46
690.348	-5.54
690.378	3.46
690.407	5.46
690.437	-6.54
690.466	8.46
690.496	3.46
690.525	4.46
690.555	-12.54
690.584	3.46
690.613	4.46
690.643	8.46
690.672	13.46
690.702	3.46
690.731	13.46
690.76	-6.54
690.79	-3.54
690.819	-5.54
690.849	11.46
690.878	7.46
690.907	16.46
690.937	-10.54
690.966	5.46
690.996	8.46
691.025	-2.54
691.054	8.46
691.084	14.46
691.113	0.46
691.142	-0.54
691.172	7.46
691.201	9.46
691.23	-6.54
691.26	3.46
691.289	0.46
691.319	4.46
691.348	5.46
691.377	23.46
691.407	11.46
691.436	13.46
691.465	5.46
691.495	17.46
691.524	4.46
691.553	2.46
691.583	-2.54
691.612	4.46
691.641	1.46
691.67	-3.54
691.7	13.46
691.729	11.46
691.758	1.46
691.788	-2.54
691.817	-6.54
691.846	4.46
691.876	0.46
691.905	5.46
691.934	-5.54
691.963	10.46
691.993	2.46
692.022	-5.54
692.051	-0.54
692.081	9.46
692.11	14.46
692.139	17.46
692.168	0.46
692.198	11.46
692.227	6.46
692.256	-0.54
692.285	3.46
692.315	-11.54
692.344	-0.54
692.373	5.46
692.402	-11.54
692.432	-15.54
692.461	-14.54
692.49	0.46
692.519	1.46
692.548	22.46
692.578	5.46
692.607	-8.54
692.636	1.46
692.665	9.46
692.694	-4.54
692.724	1.46
692.753	7.46
692.782	6.46
692.811	-4.54
692.84	-1.54
692.87	-3.54
692.899	0.46
692.928	-7.54
692.957	13.46
692.986	0.46
693.016	8.46
693.045	13.46
693.074	9.46
693.103	8.46
693.132	6.46
693.161	2.46
693.191	-3.54
693.22	-12.54
693.249	-6.54
693.278	-4.54
693.307	7.46
693.336	-17.54
693.365	-12.54
693.395	-1.54
693.424	8.46
693.453	5.46
693.482	2.46
693.511	15.46
693.54	11.46
693.569	15.46
693.598	10.46
693.628	-8.54
693.657	11.46
693.686	25.46
693.715	12.46
693.744	16.46
693.773	19.46
693.802	2.46
693.831	-9.54
693.86	22.46
693.889	10.46
693.919	4.46
693.948	-0.54
693.977	-0.54
694.006	-5.54
694.035	1.46
694.064	15.46
694.093	12.46
694.122	-0.54
694.151	-1.54
694.18	5.46
694.209	31.46
694.238	7.46
694.267	36.46
694.296	25.46
694.325	-2.54
694.354	28.46
694.383	4.46
694.412	-0.54
694.441	-16.54
694.471	-16.54
694.5	-11.54
694.529	11.46
694.558	15.46
694.587	1.46
694.616	-19.54
694.645	4.46
694.674	12.46
694.703	3.46
694.732	12.46
694.761	9.46
694.79	26.46
694.819	-13.54
694.848	8.46
694.877	6.46
694.906	12.46
694.935	-2.54
694.963	18.46
694.992	5.46
695.021	-4.54
695.05	5.46
695.079	0.46
695.108	2.46
695.137	24.46
695.166	17.46
695.195	15.46
695.224	21.46
695.253	5.46
695.282	12.46
695.311	-0.54
695.34	0.46
695.369	2.46
695.398	13.46
695.427	16.46
695.456	0.46
695.485	10.46
695.513	18.46
695.542	18.46
695.571	4.46
695.6	10.46
695.629	9.46
695.658	11.46
695.687	4.46
695.716	3.46
695.745	25.46
695.774	0.46
695.802	-10.54
695.831	8.46
695.86	9.46
695.889	6.46
695.918	-2.54
695.947	-6.54
695.976	-3.54
696.005	3.46
696.033	-10.54
696.062	10.46
696.091	8.46
696.12	-11.54
696.149	14.46
696.178	8.46
696.207	9.46
696.235	-2.54
696.264	9.46
696.293	10.46
696.322	4.46
696.351	16.46
696.38	15.46
696.408	12.46
696.437	1.46
696.466	11.46
696.495	36.46
696.524	23.46
696.553	7.46
696.581	17.46
696.61	0.46
696.639	8.46
696.668	6.46
696.697	-3.54
696.725	2.46
696.754	12.46
696.783	1.46
696.812	7.46
696.84	23.46
696.869	16.46
696.898	5.46
696.927	-8.54
696.956	4.46
696.984	-11.54
697.013	-3.54
697.042	1.46
697.071	19.46
697.099	24.46
697.128	33.46
697.157	-6.54
697.186	-14.54
697.214	7.46
697.243	3.46
697.272	0.46
697.301	-4.54
697.329	-9.54
697.358	1.46
697.387	9.46
697.415	17.46
697.444	1.46
697.473	-10.54
697.502	0.46
697.53	16.46
697.559	-5.54
697.588	-4.54
697.616	4.46
697.645	-0.54
697.674	15.46
697.703	-6.54
697.731	13.46
697.76	-4.54
697.789	2.46
697.817	0.46
697.846	26.46
697.875	-2.54
697.903	25.46
697.932	13.46
697.961	3.46
697.989	16.46
698.018	-3.54
698.047	-7.54
698.075	-3.54
698.104	8.46
698.133	-5.54
698.161	3.46
698.19	0.46
698.218	8.46
698.247	12.46
698.276	22.46
698.304	10.46
698.333	5.46
698.362	-0.54
698.39	-3.54
698.419	19.46
698.447	4.46
698.476	-0.54
698.505	19.46
698.533	7.46
698.562	3.46
698.591	-15.54
698.619	0.46
698.648	3.46
698.676	1.46
698.705	4.46
698.733	-2.54
698.762	0.46
698.791	10.46
698.819	-4.54
698.848	-7.54
698.876	20.46
698.905	17.46
698.933	17.46
698.962	1.46
698.991	-8.54
699.019	8.46
699.048	12.46
699.076	4.46
699.105	-19.54
699.133	9.46
699.162	-4.54
699.19	9.46
699.219	15.46
699.248	-2.54
699.276	-4.54
699.305	-2.54
699.333	1.46
699.362	3.46
699.39	8.46
699.419	3.46
699.447	-3.54
699.476	8.46
699.504	12.46
699.533	4.46
699.561	-14.54
699.59	9.46
699.618	7.46
699.647	3.46
699.675	6.46
699.704	9.46
699.732	16.46
699.761	0.46
699.789	-13.54
699.818	3.46
699.846	1.46
699.874	-9.54
699.903	-2.54
699.931	1.46
699.96	-6.54
699.988	8.46
700.017	11.46
700.045	-4.54
700.074	-10.54
700.102	-1.54
700.13	-2.54
700.159	2.46
700.187	12.46
700.216	-0.54
700.244	9.46
700.273	13.46
700.301	6.46
700.329	13.46
700.358	10.46
700.386	4.46
700.415	0.46
700.443	-7.54
700.472	0.46
700.5	4.46
700.528	15.46
700.557	7.46
700.585	8.46
700.614	0.46
700.642	17.46
700.67	24.46
700.699	23.46
700.727	14.46
700.755	18.46
700.784	-3.54
700.812	3.46
700.841	-1.54
700.869	-8.54
700.897	0.46
700.926	7.46
700.954	19.46
700.982	16.46
701.011	-4.54
701.039	-1.54
701.067	-10.54
701.096	-3.54
701.124	-11.54
701.152	11.46
701.181	-2.54
701.209	-17.54
701.237	2.46
701.266	-12.54
701.294	4.46
701.322	1.46
701.351	7.46
701.379	-0.54
701.407	-7.54
701.435	-2.54
701.464	16.46
701.492	10.46
701.52	-18.54
701.549	1.46
701.577	-2.54
701.605	-6.54
701.634	11.46
701.662	11.46
701.69	-6.54
701.718	-2.54
701.747	11.46
701.775	-18.54
701.803	-5.54
701.831	11.46
701.86	11.46
701.888	21.46
701.916	-2.54
701.944	10.46
701.973	18.46
702.001	14.46
702.029	-9.54
702.057	-8.54
702.086	-14.54
702.114	-19.54
702.142	-8.54
702.17	-13.54
702.199	0.46
702.227	-2.54
702.255	10.46
702.283	-2.54
702.311	0.46
702.34	-8.54
702.368	-6.54
702.396	5.46
702.424	18.46
702.452	2.46
702.481	5.46
702.509	11.46
702.537	1.46
702.565	6.46
702.593	-2.54
702.621	-3.54
702.65	5.46
702.678	-2.54
702.706	15.46
702.734	7.46
702.762	0.46
702.79	-10.54
702.819	1.46
702.847	3.46
702.875	20.46
702.903	0.46
702.931	-7.54
702.959	4.46
702.988	-0.54
703.016	-7.54
703.044	-6.54
703.072	-2.54
703.1	-2.54
703.128	-3.54
703.156	-6.54
703.184	0.46
703.212	18.46
703.241	10.46
703.269	1.46
703.297	-3.54
703.325	-4.54
703.353	-3.54
703.381	-14.54
703.409	10.46
703.437	-6.54
703.465	-6.54
703.493	-0.54
703.522	0.46
703.55	8.46
703.578	-1.54
703.606	-20.54
703.634	-14.54
703.662	-6.54
703.69	-4.54
703.718	-0.54
703.746	2.46
703.774	3.46
703.802	32.46
703.83	9.46
703.858	6.46
703.886	-7.54
703.914	-7.54
703.942	1.46
703.97	0.46
703.998	-3.54
704.027	-2.54
704.055	7.46
704.083	-12.54
704.111	-16.54
704.139	12.46
704.167	-5.54
704.195	-0.54
704.223	2.46
704.251	-2.54
704.279	4.46
704.307	9.46
704.335	-2.54
704.363	-8.54
704.391	-10.54
704.419	-0.54
704.447	0.46
704.475	1.46
704.503	-20.54
704.531	8.46
704.558	27.46
704.586	14.46
704.614	-2.54
704.642	7.46
704.67	-10.54
704.698	-2.54
704.726	6.46
704.754	4.46
704.782	0.46
704.81	-7.54
704.838	16.46
704.866	12.46
704.894	-16.54
704.922	-0.54
704.95	11.46
704.978	18.46
705.006	9.46
705.034	10.46
705.061	12.46
705.089	0.46
705.117	-10.54
705.145	1.46
705.173	-4.54
705.201	7.46
705.229	-5.54
705.257	-3.54
705.285	3.46
705.313	5.46
705.34	-2.54
705.368	-0.54
705.396	14.46
705.424	13.46
705.452	-3.54
705.48	3.46
705.508	1.46
705.536	-11.54
705.563	-15.54
705.591	-5.54
705.619	6.46
705.647	17.46
705.675	0.46
705.703	-1.54
705.731	-0.54
705.758	3.46
705.786	9.46
705.814	29.46
705.842	3.46
705.87	7.46
705.898	16.46
705.925	5.46
705.953	3.46
705.981	-6.54
706.009	0.46
706.037	1.46
706.065	-2.54
706.092	-5.54
706.12	-2.54
706.148	-4.54
706.176	-1.54
706.204	-0.54
706.231	-5.54
706.259	-24.54
706.287	-7.54
706.315	-2.54
706.342	-0.54
706.37	11.46
706.398	12.46
706.426	2.46
706.454	-0.54
706.481	13.46
706.509	3.46
706.537	-0.54
706.565	-6.54
706.592	8.46
706.62	0.46
706.648	2.46
706.676	-4.54
706.703	8.46
706.731	4.46
706.759	-9.54
706.787	-1.54
706.814	7.46
706.842	3.46
706.87	1.46
706.897	-7.54
706.925	-5.54
706.953	20.46
706.981	24.46
707.008	0.46
707.036	5.46
707.064	-20.54
707.091	-15.54
707.119	12.46
707.147	0.46
707.174	-15.54
707.202	6.46
707.23	-9.54
707.258	11.46
707.285	-0.54
707.313	-7.54
707.341	-21.54
707.368	-10.54
707.396	11.46
707.424	28.46
707.451	5.46
707.479	3.46
707.507	3.46
707.534	0.46
707.562	-8.54
707.59	-8.54
707.617	-16.54
707.645	-3.54
707.672	-6.54
707.7	-6.54
707.728	15.46
707.755	16.46
707.783	5.46
707.811	8.46
707.838	-6.54
707.866	-1.54
707.893	0.46
707.921	-6.54
707.949	-8.54
707.976	2.46
708.004	-0.54
708.031	-7.54
708.059	-20.54
708.087	-5.54
708.114	7.46
708.142	9.46
708.169	-10.54
708.197	-2.54
708.225	-8.54
708.252	-10.54
708.28	7.46
708.307	-4.54
708.335	-9.54
708.362	-6.54
708.39	-25.54
708.418	-11.54
708.445	-15.54
708.473	-9.54
708.5	-5.54
708.528	-0.54
708.555	9.46
708.583	-0.54
708.61	-21.54
708.638	3.46
708.665	-8.54
708.693	-4.54
708.72	-8.54
708.748	-5.54
708.776	-3.54
708.803	31.46
708.831	16.46
708.858	24.46
708.886	2.46
708.913	13.46
708.941	-0.54
708.968	7.46
708.996	-1.54
709.023	32.46
709.051	1.46
709.078	4.46
709.105	-0.54
709.133	8.46
709.16	5.46
709.188	0.46
709.215	-4.54
709.243	5.46
709.27	-3.54
709.298	-2.54
709.325	-4.54
709.353	5.46
709.38	12.46
709.408	30.46
709.435	-3.54
709.462	2.46
709.49	4.46
709.517	-5.54
709.545	-14.54
709.572	7.46
709.6	5.46
709.627	9.46
709.655	-9.54
709.682	-11.54
709.709	1.46
709.737	2.46
709.764	-3.54
709.792	8.46
709.819	-0.54
709.846	-12.54
709.874	5.46
709.901	19.46
709.929	24.46
709.956	-7.54
709.983	3.46
710.011	-4.54
710.038	-8.54
710.066	7.46
710.093	22.46
710.12	-2.54
710.148	-3.54
710.175	-8.54
710.202	-4.54
710.23	-14.54
710.257	3.46
710.284	11.46
710.312	1.46
710.339	-4.54
710.366	-1.54
710.394	3.46
710.421	11.46
710.448	12.46
710.476	-3.54
710.503	-5.54
710.53	27.46
710.558	14.46
710.585	18.46
710.612	2.46
710.64	0.46
710.667	1.46
710.694	4.46
710.722	-4.54
710.749	8.46
710.776	-2.54
710.804	14.46
710.831	12.46
710.858	-7.54
710.885	-7.54
710.913	-2.54
710.94	33.46
710.967	16.46
710.995	8.46
711.022	12.46
711.049	-0.54
711.076	-9.54
711.104	13.46
711.131	-4.54
711.158	9.46
711.185	22.46
711.213	-4.54
711.24	2.46
711.267	-0.54
711.294	-4.54
711.322	11.46
711.349	-15.54
711.376	-16.54
711.403	3.46
711.431	0.46
711.458	2.46
711.485	-6.54
711.512	4.46
711.54	-6.54
711.567	3.46
711.594	9.46
711.621	0.46
711.648	-0.54
711.676	-5.54
711.703	-2.54
711.73	-20.54
711.757	-7.54
711.784	-0.54
711.812	8.46
711.839	0.46
711.866	-16.54
711.893	-8.54
711.92	7.46
711.947	-2.54
711.975	5.46
712.002	0.46
712.029	14.46
712.056	-4.54
712.083	3.46
712.11	2.46
712.138	4.46
712.165	-0.54
712.192	3.46
712.219	-15.54
712.246	-23.54
712.273	5.46
712.3	9.46
712.328	15.46
712.355	7.46
712.382	4.46
712.409	23.46
712.436	-2.54
712.463	12.46
712.49	24.46
712.517	8.46
712.544	-7.54
712.572	-3.54
712.599	-5.54
712.626	2.46
712.653	-15.54
712.68	-6.54
712.707	6.46
712.734	17.46
712.761	-2.54
712.788	4.46
712.815	8.46
712.842	16.46
712.87	6.46
712.897	-16.54
712.924	-8.54
712.951	-10.54
712.978	17.46
713.005	10.46
713.032	12.46
713.059	-14.54
713.086	-2.54
713.113	-8.54
713.14	-16.54
713.167	14.46
713.194	13.46
713.221	1.46
713.248	9.46
713.275	-0.54
713.302	-9.54
713.329	7.46
713.356	-5.54
713.383	-14.54
713.41	0.46
713.437	-20.54
713.464	4.46
713.491	10.46
713.518	4.46
713.545	4.46
713.572	-3.54
713.599	17.46
713.626	3.46
713.653	12.46
713.68	-8.54
713.707	1.46
713.734	0.46
713.761	1.46
713.788	-4.54
713.815	6.46
713.842	-16.54
713.869	-2.54
713.896	-3.54
713.923	-7.54
713.95	-6.54
713.977	-3.54
714.004	-1.54
714.031	-6.54
714.058	-9.54
714.085	3.46
714.112	13.46
714.139	1.46
714.165	-5.54
714.192	8.46
714.219	1.46
714.246	4.46
714.273	-5.54
714.3	-8.54
714.327	12.46
714.354	11.46
714.381	2.46
714.408	-4.54
714.435	-1.54
714.461	0.46
714.488	12.46
714.515	1.46
714.542	-7.54
714.569	-4.54
714.596	-5.54
714.623	1.46
714.65	-7.54
714.677	-0.54
714.703	-8.54
714.73	1.46
714.757	-6.54
714.784	3.46
714.811	-4.54
714.838	-11.54
714.865	-9.54
714.891	16.46
714.918	-2.54
714.945	-3.54
714.972	-14.54
714.999	-2.54
715.026	-1.54
715.052	16.46
715.079	-6.54
715.106	4.46
715.133	3.46
715.16	-4.54
715.187	1.46
715.213	4.46
715.24	-4.54
715.267	-2.54
715.294	-2.54
715.321	-0.54
715.347	4.46
715.374	-4.54
715.401	-0.54
715.428	5.46
715.455	5.46
715.481	-14.54
715.508	3.46
715.535	-2.54
715.562	20.46
715.588	16.46
715.615	-2.54
715.642	7.46
715.669	-4.54
715.695	1.46
715.722	0.46
715.749	20.46
715.776	13.46
715.802	3.46
715.829	-4.54
715.856	-12.54
715.883	-8.54
715.909	-18.54
715.936	0.46
715.963	-1.54
715.99	0.46
716.016	10.46
716.043	11.46
716.07	13.46
716.096	-11.54
716.123	-12.54
716.15	2.46
716.177	4.46
716.203	14.46
716.23	6.46
716.257	-0.54
716.283	1.46
716.31	-7.54
716.337	4.46
716.363	-4.54
716.39	-9.54
716.417	-0.54
716.443	-5.54
716.47	13.46
716.497	26.46
716.523	21.46
716.55	-3.54
716.577	14.46
716.603	4.46
716.63	4.46
716.657	10.46
716.683	-12.54
716.71	-2.54
716.737	-7.54
716.763	7.46
716.79	2.46
716.817	0.46
716.843	7.46
716.87	-4.54
716.897	-0.54
716.923	13.46
716.95	11.46
716.976	-5.54
717.003	7.46
717.03	-3.54
717.056	6.46
717.083	-2.54
717.109	-4.54
717.136	13.46
717.163	-4.54
717.189	5.46
717.216	-10.54
717.242	9.46
717.269	7.46
717.296	9.46
717.322	4.46
717.349	8.46
717.375	6.46
717.402	-3.54
717.428	3.46
717.455	6.46
717.481	9.46
717.508	3.46
717.535	10.46
717.561	-12.54
717.588	1.46
717.614	-11.54
717.641	2.46
717.667	0.46
717.694	6.46
717.72	-3.54
717.747	0.46
717.773	-8.54
717.8	7.46
717.826	0.46
717.853	5.46
717.88	19.46
717.906	-0.54
717.933	-3.54
717.959	0.46
717.986	-2.54
718.012	-3.54
718.039	10.46
718.065	7.46
718.092	11.46
718.118	-4.54
718.144	-6.54
718.171	24.46
718.197	20.46
718.224	4.46
718.25	9.46
718.277	9.46
718.303	-4.54
718.33	8.46
718.356	-8.54
718.383	-20.54
718.409	-5.54
718.436	10.46
718.462	1.46
718.489	-7.54
718.515	7.46
718.541	21.46
718.568	1.46
718.594	10.46
718.621	16.46
718.647	5.46
718.674	8.46
718.7	9.46
718.726	-3.54
718.753	1.46
718.779	21.46
718.806	-0.54
718.832	-8.54
718.858	4.46
718.885	-5.54
718.911	1.46
718.938	0.46
718.964	0.46
718.99	14.46
719.017	7.46
719.043	15.46
719.07	14.46
719.096	5.46
719.122	3.46
719.149	-8.54
719.175	-7.54
719.201	8.46
719.228	-0.54
719.254	-4.54
719.281	-16.54
719.307	-3.54
719.333	7.46
719.36	17.46
719.386	8.46
719.412	3.46
719.439	-10.54
719.465	-1.54
719.491	-18.54
719.518	5.46
719.544	4.46
719.57	34.46
719.597	9.46
719.623	-8.54
719.649	-1.54
719.675	-8.54
719.702	-0.54
719.728	19.46
719.754	-6.54
719.781	-9.54
719.807	-0.54
719.833	-13.54
719.86	1.46
719.886	-7.54
719.912	1.46
719.938	-2.54
719.965	13.46
719.991	14.46
720.017	-9.54
720.044	-6.54
720.07	12.46
720.096	11.46
720.122	7.46
720.149	14.46
720.175	13.46
720.201	0.46
720.227	12.46
720.254	14.46
720.28	4.46
720.306	3.46
720.332	3.46
720.359	3.46
720.385	12.46
720.411	8.46
720.437	10.46
720.463	3.46
720.49	15.46
720.516	-3.54
720.542	-9.54
720.568	1.46
720.595	-0.54
720.621	4.46
720.647	12.46
720.673	7.46
720.699	-8.54
720.725	-3.54
720.752	0.46
720.778	14.46
720.804	-6.54
720.83	9.46
720.856	1.46
720.883	-12.54
720.909	-6.54
720.935	6.46
720.961	16.46
720.987	3.46
721.013	0.46
721.04	-3.54
721.066	4.46
721.092	-3.54
721.118	6.46
721.144	-0.54
721.17	-2.54
721.196	-1.54
721.223	3.46
721.249	11.46
721.275	3.46
721.301	4.46
721.327	7.46
721.353	9.46
721.379	-5.54
721.405	5.46
721.432	1.46
721.458	-6.54
721.484	9.46
721.51	-9.54
721.536	4.46
721.562	7.46
721.588	5.46
721.614	3.46
721.64	-4.54
721.666	-4.54
721.693	-0.54
721.719	10.46
721.745	-4.54
721.771	-13.54
721.797	5.46
721.823	1.46
721.849	19.46
721.875	19.46
721.901	8.46
721.927	13.46
721.953	6.46
721.979	21.46
722.005	10.46
722.031	-12.54
722.057	0.46
722.083	9.46
722.109	0.46
722.135	16.46
722.161	-0.54
722.187	3.46
722.214	-4.54
722.24	-7.54
722.266	-3.54
722.292	9.46
722.318	10.46
722.344	6.46
722.37	11.46
722.396	12.46
722.422	6.46
722.448	10.46
722.474	-8.54
722.5	9.46
722.526	-3.54
722.552	1.46
722.578	0.46
722.603	11.46
722.629	-1.54
722.655	-6.54
722.681	-9.54
722.707	2.46
722.733	0.46
722.759	-18.54
722.785	-3.54
722.811	-5.54
722.837	-7.54
722.863	6.46
722.889	17.46
722.915	2.46
722.941	4.46
722.967	-5.54
722.993	21.46
723.019	9.46
723.045	6.46
723.071	8.46
723.097	-8.54
723.122	-2.54
723.148	1.46
723.174	2.46
723.2	7.46
723.226	5.46
723.252	8.46
723.278	-10.54
723.304	5.46
723.33	17.46
723.356	-7.54
723.381	-20.54
723.407	-11.54
723.433	9.46
723.459	3.46
723.485	-6.54
723.511	-4.54
723.537	-6.54
723.563	-4.54
723.588	9.46
723.614	5.46
723.64	7.46
723.666	22.46
723.692	4.46
723.718	2.46
723.744	-4.54
723.769	7.46
723.795	-0.54
723.821	-14.54
723.847	-2.54
723.873	-3.54
723.899	-7.54
723.924	-4.54
723.95	3.46
723.976	-2.54
724.002	0.46
724.028	6.46
724.053	-4.54
724.079	1.46
724.105	4.46
724.131	-11.54
724.157	-23.54
724.182	-4.54
724.208	-0.54
724.234	17.46
724.26	-10.54
724.286	1.46
724.311	-14.54
724.337	-6.54
724.363	-13.54
724.389	-6.54
724.415	-5.54
724.44	15.46
724.466	-6.54
724.492	-0.54
724.518	2.46
724.543	-4.54
724.569	5.46
724.595	-0.54
724.621	8.46
724.646	-0.54
724.672	-11.54
724.698	-4.54
724.723	-4.54
724.749	-3.54
724.775	7.46
724.801	10.46
724.826	-3.54
724.852	5.46
724.878	6.46
724.904	-7.54
724.929	5.46
724.955	-15.54
724.981	2.46
725.006	6.46
725.032	-5.54
725.058	11.46
725.083	3.46
725.109	-8.54
725.135	-3.54
725.161	0.46
725.186	1.46
725.212	-0.54
725.238	3.46
725.263	-4.54
725.289	-5.54
725.315	-9.54
725.34	-0.54
725.366	2.46
725.392	0.46
725.417	-2.54
725.443	-0.54
725.468	-12.54
725.494	19.46
725.52	38.46
725.545	13.46
725.571	-4.54
725.597	0.46
725.622	8.46
725.648	3.46
725.674	25.46
725.699	-2.54
725.725	12.46
725.75	18.46
725.776	-15.54
725.802	12.46
725.827	5.46
725.853	2.46
725.878	1.46
725.904	-3.54
725.93	-8.54
725.955	-6.54
725.981	-10.54
726.006	0.46
726.032	14.46
726.057	1.46
726.083	-15.54
726.109	-6.54
726.134	7.46
726.16	-2.54
726.185	-3.54
726.211	-7.54
726.236	4.46
726.262	0.46
726.288	1.46
726.313	18.46
726.339	11.46
726.364	-0.54
726.39	14.46
726.415	1.46
726.441	-9.54
726.466	4.46
726.492	-3.54
726.517	10.46
726.543	0.46
726.568	0.46
726.594	4.46
726.619	-2.54
726.645	9.46
726.67	3.46
726.696	18.46
726.721	-6.54
726.747	-5.54
726.772	-12.54
726.798	-8.54
726.823	1.46
726.849	5.46
726.874	13.46
726.9	17.46
726.925	16.46
726.951	1.46
726.976	9.46
727.002	12.46
727.027	-3.54
727.053	2.46
727.078	-16.54
727.104	-12.54
727.129	-6.54
727.155	-0.54
727.18	12.46
727.205	1.46
727.231	-11.54
727.256	3.46
727.282	2.46
727.307	0.46
727.333	-2.54
727.358	-2.54
727.383	-7.54
727.409	-3.54
727.434	-3.54
727.46	-13.54
727.485	3.46
727.511	-1.54
727.536	-14.54
727.561	-9.54
727.587	7.46
727.612	0.46
727.637	-6.54
727.663	-3.54
727.688	19.46
727.714	3.46
727.739	-13.54
727.764	-23.54
727.79	2.46
727.815	6.46
727.841	4.46
727.866	-2.54
727.891	1.46
727.917	-12.54
727.942	-4.54
727.967	0.46
727.993	-15.54
728.018	-0.54
728.043	2.46
728.069	10.46
728.094	24.46
728.119	4.46
728.145	22.46
728.17	-3.54
728.195	5.46
728.221	2.46
728.246	3.46
728.271	-4.54
728.297	0.46
728.322	19.46
728.347	8.46
728.373	-4.54
728.398	-6.54
728.423	3.46
728.448	0.46
728.474	-5.54
728.499	-3.54
728.524	-12.54
728.55	-13.54
728.575	-15.54
728.6	-3.54
728.625	-4.54
728.651	1.46
728.676	9.46
728.701	7.46
728.727	-9.54
728.752	-16.54
728.777	0.46
728.802	7.46
728.828	3.46
728.853	8.46
728.878	4.46
728.903	5.46
728.929	-10.54
728.954	-11.54
728.979	21.46
729.004	-3.54
729.03	-1.54
729.055	8.46
729.08	-4.54
729.105	-8.54
729.13	5.46
729.156	2.46
729.181	-4.54
729.206	-3.54
729.231	-4.54
729.256	16.46
729.282	5.46
729.307	-4.54
729.332	2.46
729.357	-12.54
729.382	3.46
729.408	3.46
729.433	0.46
729.458	15.46
729.483	-3.54
729.508	21.46
729.533	10.46
729.559	3.46
729.584	-4.54
729.609	9.46
729.634	-4.54
729.659	-16.54
729.684	-4.54
729.71	15.46
729.735	-5.54
729.76	-3.54
729.785	1.46
729.81	3.46
729.835	-34.54
729.86	-6.54
729.886	7.46
729.911	-9.54
729.936	-12.54
729.961	13.46
729.986	-7.54
730.011	1.46
730.036	2.46
730.061	4.46
730.086	3.46
730.112	2.46
730.137	31.46
730.162	10.46
730.187	-7.54
730.212	4.46
730.237	-10.54
730.262	-0.54
730.287	1.46
730.312	7.46
730.337	-16.54
730.362	3.46
730.387	3.46
730.413	-7.54
730.438	-5.54
730.463	16.46
730.488	4.46
730.513	-1.54
730.538	-9.54
730.563	13.46
730.588	16.46
730.613	10.46
730.638	-0.54
730.663	-0.54
730.688	32.46
730.713	7.46
730.738	3.46
730.763	7.46
730.788	-11.54
730.813	-4.54
730.838	-8.54
730.863	-1.54
730.888	1.46
730.913	-6.54
730.938	-21.54
730.963	-5.54
730.988	-2.54
731.013	9.46
731.038	-7.54
731.063	-11.54
731.088	-8.54
731.113	-7.54
731.138	0.46
731.163	-10.54
731.188	-13.54
731.213	0.46
731.238	32.46
731.263	-2.54
731.288	-5.54
731.313	0.46
731.338	5.46
731.363	-16.54
731.388	-9.54
731.413	0.46
731.438	24.46
731.463	17.46
731.487	13.46
731.512	-2.54
731.537	7.46
731.562	6.46
731.587	-3.54
731.612	-6.54
731.637	7.46
731.662	-2.54
731.687	3.46
731.712	-8.54
731.737	13.46
731.762	6.46
731.786	8.46
731.811	13.46
731.836	5.46
731.861	-10.54
731.886	4.46
731.911	24.46
731.936	6.46
731.961	4.46
731.986	-6.54
732.01	-4.54
732.035	12.46
732.06	5.46
732.085	5.46
732.11	4.46
732.135	-4.54
732.16	-16.54
732.184	-5.54
732.209	-10.54
732.234	5.46
732.259	-0.54
732.284	7.46
732.309	-2.54
732.334	1.46
732.358	-5.54
732.383	-13.54
732.408	-24.54
732.433	6.46
732.458	-3.54
732.482	12.46
732.507	-14.54
732.532	5.46
732.557	0.46
732.582	-0.54
732.607	-5.54
732.631	-12.54
732.656	-3.54
732.681	-5.54
732.706	-14.54
732.73	-1.54
732.755	8.46
732.78	-3.54
732.805	13.46
732.83	-6.54
732.854	4.46
732.879	3.46
732.904	-7.54
732.929	0.46
732.953	4.46
732.978	2.46
733.003	5.46
733.028	-3.54
733.052	11.46
733.077	-3.54
733.102	6.46
733.127	-8.54
733.151	-6.54
733.176	-6.54
733.201	-6.54
733.226	-1.54
733.25	7.46
733.275	0.46
733.3	4.46
733.324	24.46
733.349	4.46
733.374	4.46
733.399	0.46
733.423	0.46
733.448	-8.54
733.473	-7.54
733.497	5.46
733.522	1.46
733.547	11.46
733.571	18.46
733.596	5.46
733.621	14.46
733.646	0.46
733.67	20.46
733.695	-3.54
733.72	1.46
733.744	12.46
733.769	-0.54
733.794	5.46
733.818	8.46
733.843	11.46
733.867	-11.54
733.892	-2.54
733.917	-0.54
733.941	8.46
733.966	12.46
733.991	-5.54
734.015	26.46
734.04	-4.54
734.065	12.46
734.089	12.46
734.114	1.46
734.138	8.46
734.163	5.46
734.188	1.46
734.212	4.46
734.237	-5.54
734.261	-4.54
734.286	-1.54
734.311	-0.54
734.335	6.46
734.36	-6.54
734.384	13.46
734.409	11.46
734.434	-12.54
734.458	21.46
734.483	-2.54
734.507	-10.54
734.532	-3.54
734.556	5.46
734.581	0.46
734.606	-4.54
734.63	-7.54
734.655	-0.54
734.679	3.46
734.704	7.46
734.728	-11.54
734.753	-4.54
734.777	0.46
734.802	-5.54
734.826	15.46
734.851	6.46
734.876	11.46
734.9	5.46
734.925	-4.54
734.949	0.46
734.974	-3.54
734.998	8.46
735.023	-8.54
735.047	-15.54
735.072	17.46
735.096	4.46
735.121	11.46
735.145	-6.54
735.17	1.46
735.194	10.46
735.219	-18.54
735.243	-8.54
735.268	4.46
735.292	20.46
735.317	5.46
735.341	3.46
735.365	-11.54
735.39	7.46
735.414	9.46
735.439	7.46
735.463	-6.54
735.488	-9.54
735.512	-12.54
735.537	-10.54
735.561	-4.54
735.586	-8.54
735.61	1.46
735.634	-7.54
735.659	-3.54
735.683	18.46
735.708	0.46
735.732	11.46
735.757	-3.54
735.781	5.46
735.805	2.46
735.83	-11.54
735.854	-14.54
735.879	-3.54
735.903	7.46
735.927	-11.54
735.952	-9.54
735.976	-6.54
736.001	4.46
736.025	0.46
736.049	-0.54
736.074	-2.54
736.098	0.46
736.123	7.46
736.147	11.46
736.171	13.46
736.196	15.46
736.22	11.46
736.244	19.46
736.269	2.46
736.293	-0.54
736.317	7.46
736.342	22.46
736.366	17.46
736.39	14.46
736.415	14.46
736.439	0.46
736.463	-3.54
736.488	8.46
736.512	-1.54
736.536	7.46
736.561	24.46
736.585	-0.54
736.609	0.46
736.634	-8.54
736.658	-6.54
736.682	-2.54
736.707	-0.54
736.731	3.46
736.755	-2.54
736.78	10.46
736.804	22.46
736.828	3.46
736.852	8.46
736.877	-5.54
736.901	12.46
736.925	13.46
736.949	-0.54
736.974	3.46
736.998	-11.54
737.022	4.46
737.047	-10.54
737.071	-3.54
737.095	15.46
737.119	24.46
737.144	12.46
737.168	9.46
737.192	3.46
737.216	23.46
737.241	3.46
737.265	-5.54
737.289	-12.54
737.313	-5.54
737.337	1.46
737.362	17.46
737.386	0.46
737.41	-4.54
737.434	10.46
737.459	-2.54
737.483	15.46
737.507	9.46
737.531	-1.54
737.555	-13.54
737.58	9.46
737.604	-2.54
737.628	-18.54
737.652	-16.54
737.676	-5.54
737.701	4.46
737.725	11.46
737.749	-3.54
737.773	8.46
737.797	-4.54
737.821	-1.54
737.846	-7.54
737.87	33.46
737.894	5.46
737.918	-14.54
737.942	-6.54
737.966	3.46
737.99	15.46
738.015	13.46
738.039	8.46
738.063	-0.54
738.087	-10.54
738.111	-5.54
738.135	5.46
738.159	2.46
738.184	7.46
738.208	6.46
738.232	6.46
738.256	9.46
738.28	9.46
738.304	5.46
738.328	-5.54
738.352	2.46
738.376	-16.54
738.4	8.46
738.425	1.46
738.449	3.46
738.473	21.46
738.497	8.46
738.521	7.46
738.545	17.46
738.569	-0.54
738.593	6.46
738.617	23.46
738.641	2.46
738.665	4.46
738.689	16.46
738.713	-9.54
738.737	0.46
738.762	4.46
738.786	8.46
738.81	-0.54
738.834	14.46
738.858	-7.54
738.882	-4.54
738.906	-10.54
738.93	4.46
738.954	-4.54
738.978	9.46
739.002	-8.54
739.026	2.46
739.05	3.46
739.074	3.46
739.098	9.46
739.122	16.46
739.146	12.46
739.17	4.46
739.194	-6.54
739.218	-5.54
739.242	-4.54
739.266	-9.54
739.29	6.46
739.314	19.46
739.338	-12.54
739.362	3.46
739.386	13.46
739.41	-2.54
739.434	-19.54
739.458	24.46
739.482	4.46
739.506	0.46
739.53	-6.54
739.554	7.46
739.577	2.46
739.601	-12.54
739.625	1.46
739.649	-1.54
739.673	-4.54
739.697	5.46
739.721	-3.54
739.745	0.46
739.769	15.46
739.793	-0.54
739.817	11.46
739.841	0.46
739.865	5.46
739.889	4.46
739.912	8.46
739.936	-2.54
739.96	10.46
739.984	13.46
740.008	5.46
740.032	-5.54
740.056	5.46
740.08	8.46
740.104	8.46
740.127	-2.54
740.151	-0.54
740.175	4.46
740.199	-1.54
740.223	42.46
740.247	14.46
740.271	4.46
740.295	-6.54
740.318	-16.54
740.342	-4.54
740.366	9.46
740.39	-0.54
740.414	-10.54
740.438	1.46
740.461	17.46
740.485	9.46
740.509	-3.54
740.533	-6.54
740.557	-11.54
740.581	-0.54
740.604	-13.54
740.628	3.46
740.652	10.46
740.676	1.46
740.7	4.46
740.723	-2.54
740.747	3.46
740.771	-5.54
740.795	-15.54
740.819	0.46
740.842	7.46
740.866	11.46
740.89	0.46
740.914	-3.54
740.938	-11.54
740.961	4.46
740.985	-1.54
741.009	17.46
741.033	2.46
741.056	-7.54
741.08	-12.54
741.104	-2.54
741.128	-2.54
741.151	12.46
741.175	2.46
741.199	2.46
741.223	22.46
741.246	-2.54
741.27	4.46
741.294	16.46
741.318	-18.54
741.341	-0.54
741.365	-2.54
741.389	-5.54
741.413	2.46
741.436	17.46
741.46	4.46
741.484	15.46
741.507	5.46
741.531	31.46
741.555	7.46
741.579	6.46
741.602	2.46
741.626	-7.54
741.65	-3.54
741.673	5.46
741.697	5.46
741.721	9.46
741.744	-0.54
741.768	6.46
741.792	-4.54
741.815	-8.54
741.839	-0.54
741.863	23.46
741.886	16.46
741.91	14.46
741.934	3.46
741.957	-5.54
741.981	16.46
742.005	4.46
742.028	-11.54
742.052	-9.54
742.075	2.46
742.099	21.46
742.123	-15.54
742.146	-3.54
742.17	4.46
742.194	-4.54
742.217	-3.54
742.241	-1.54
742.264	-5.54
742.288	18.46
742.312	2.46
742.335	-0.54
742.359	8.46
742.382	13.46
742.406	6.46
742.43	1.46
742.453	7.46
742.477	-11.54
742.5	5.46
742.524	-13.54
742.548	7.46
742.571	3.46
742.595	1.46
742.618	-10.54
742.642	-0.54
742.665	6.46
742.689	-2.54
742.712	-0.54
742.736	-2.54
742.76	-5.54
742.783	5.46
742.807	15.46
742.83	19.46
742.854	-6.54
742.877	-5.54
742.901	-4.54
742.924	-8.54
742.948	-0.54
742.971	11.46
742.995	6.46
743.018	0.46
743.042	-3.54
743.065	-0.54
743.089	9.46
743.112	5.46
743.136	-1.54
743.159	-2.54
743.183	-3.54
743.206	7.46
743.23	3.46
743.253	5.46
743.277	7.46
743.3	-9.54
743.324	4.46
743.347	-13.54
743.371	4.46
743.394	14.46
743.418	14.46
743.441	6.46
743.465	4.46
743.488	2.46
743.512	-11.54
743.535	7.46
743.558	6.46
743.582	2.46
743.605	21.46
743.629	14.46
743.652	12.46
743.676	7.46
743.699	3.46
743.723	1.46
743.746	8.46
743.769	-9.54
743.793	6.46
743.816	-5.54
743.84	11.46
743.863	11.46
743.886	11.46
743.91	12.46
743.933	1.46
743.957	11.46
743.98	-4.54
744.003	-4.54
744.027	10.46
744.05	-5.54
744.074	8.46
744.097	6.46
744.12	7.46
744.144	-8.54
744.167	0.46
744.19	5.46
744.214	0.46
744.237	-1.54
744.26	16.46
744.284	3.46
744.307	-12.54
744.331	5.46
744.354	-5.54
744.377	-4.54
744.401	8.46
744.424	-9.54
744.447	0.46
744.471	-8.54
