Data from HighRes_H2_15_09_11_07_2024_HR4C61891__162__15-11-12-601.txt Node

Date: Thu Nov 07 15:11:12 EST 2024
User: crc00042
Spectrometer: HR4C6189
Trigger mode: 4
Integration Time (sec): 1.000000E-1
Scans to average: 1
Electric dark correction enabled: true
Nonlinearity correction enabled: false
Boxcar width: 0
XAxis mode: Wavelengths
Number of Pixels in Spectrum: 3648
>>>>>Begin Spectral Data<<<<<
639.567	-52.38
639.602	-52.38
639.636	-52.38
639.67	-45.38
639.704	-43.38
639.738	-9.38
639.773	16.62
639.807	-18.38
639.841	2.62
639.875	20.62
639.909	-5.38
639.943	-19.38
639.978	-11.38
640.012	15.62
640.046	19.62
640.08	-0.38
640.114	-7.38
640.148	-3.38
640.182	-24.38
640.217	-15.38
640.251	-4.38
640.285	-9.38
640.319	-14.38
640.353	-17.38
640.387	-10.38
640.421	-15.38
640.455	-8.38
640.49	-4.38
640.524	-2.38
640.558	7.62
640.592	1.62
640.626	3.62
640.66	0.62
640.694	-7.38
640.728	-3.38
640.762	7.62
640.796	13.62
640.83	14.62
640.865	2.62
640.899	-1.38
640.933	-12.38
640.967	1.62
641.001	11.62
641.035	2.62
641.069	19.62
641.103	-9.38
641.137	-9.38
641.171	-12.38
641.205	2.62
641.239	-0.38
641.273	3.62
641.307	4.62
641.341	5.62
641.375	-8.38
641.409	5.62
641.443	6.62
641.477	7.62
641.511	11.62
641.545	-3.38
641.579	-0.38
641.614	3.62
641.648	9.62
641.682	7.62
641.716	-2.38
641.75	5.62
641.784	1.62
641.818	-6.38
641.852	4.62
641.886	7.62
641.919	20.62
641.953	-10.38
641.987	-18.38
642.021	-13.38
642.055	1.62
642.089	-10.38
642.123	-3.38
642.157	1.62
642.191	-0.38
642.225	2.62
642.259	-18.38
642.293	0.62
642.327	-4.38
642.361	-2.38
642.395	1.62
642.429	-6.38
642.463	9.62
642.497	9.62
642.531	11.62
642.565	-13.38
642.599	-1.38
642.633	-20.38
642.666	14.62
642.7	8.62
642.734	19.62
642.768	-24.38
642.802	-12.38
642.836	5.62
642.87	-12.38
642.904	-0.38
642.938	-5.38
642.972	0.62
643.005	-7.38
643.039	-6.38
643.073	3.62
643.107	5.62
643.141	6.62
643.175	10.62
643.209	-0.38
643.243	4.62
643.276	1.62
643.31	-3.38
643.344	-4.38
643.378	11.62
643.412	17.62
643.446	0.62
643.48	-0.38
643.513	5.62
643.547	-6.38
643.581	-19.38
643.615	6.62
643.649	1.62
643.683	-8.38
643.716	-11.38
643.75	0.62
643.784	4.62
643.818	4.62
643.852	-11.38
643.886	-1.38
643.919	-9.38
643.953	-12.38
643.987	-10.38
644.021	12.62
644.055	7.62
644.088	-10.38
644.122	-5.38
644.156	-11.38
644.19	-9.38
644.224	-20.38
644.257	8.62
644.291	-2.38
644.325	-5.38
644.359	-10.38
644.392	14.62
644.426	8.62
644.46	7.62
644.494	7.62
644.527	-4.38
644.561	6.62
644.595	0.62
644.629	-0.38
644.662	-10.38
644.696	15.62
644.73	5.62
644.764	-8.38
644.797	4.62
644.831	-7.38
644.865	14.62
644.899	8.62
644.932	13.62
644.966	1.62
645	-7.38
645.033	-0.38
645.067	-14.38
645.101	3.62
645.135	-7.38
645.168	-13.38
645.202	-3.38
645.236	-15.38
645.269	13.62
645.303	1.62
645.337	-18.38
645.37	-13.38
645.404	4.62
645.438	9.62
645.471	1.62
645.505	8.62
645.539	9.62
645.572	-11.38
645.606	6.62
645.64	14.62
645.673	-6.38
645.707	8.62
645.741	6.62
645.774	-7.38
645.808	-4.38
645.842	-11.38
645.875	1.62
645.909	-28.38
645.943	-10.38
645.976	-6.38
646.01	3.62
646.043	1.62
646.077	8.62
646.111	-9.38
646.144	-6.38
646.178	13.62
646.212	-12.38
646.245	-3.38
646.279	-6.38
646.312	17.62
646.346	6.62
646.38	-14.38
646.413	11.62
646.447	0.62
646.48	4.62
646.514	9.62
646.547	-3.38
646.581	2.62
646.615	-6.38
646.648	-19.38
646.682	-16.38
646.715	-1.38
646.749	12.62
646.782	-4.38
646.816	13.62
646.85	13.62
646.883	-9.38
646.917	-0.38
646.95	-1.38
646.984	11.62
647.017	-2.38
647.051	0.62
647.084	13.62
647.118	3.62
647.151	-0.38
647.185	6.62
647.218	-8.38
647.252	6.62
647.285	-9.38
647.319	-9.38
647.353	-5.38
647.386	15.62
647.42	3.62
647.453	3.62
647.487	11.62
647.52	6.62
647.553	-5.38
647.587	-6.38
647.62	6.62
647.654	8.62
647.687	-8.38
647.721	9.62
647.754	6.62
647.788	-2.38
647.821	-4.38
647.855	13.62
647.888	13.62
647.922	-1.38
647.955	-8.38
647.989	-2.38
648.022	-13.38
648.055	0.62
648.089	-7.38
648.122	15.62
648.156	-5.38
648.189	-2.38
648.223	5.62
648.256	18.62
648.29	7.62
648.323	-5.38
648.356	10.62
648.39	8.62
648.423	-8.38
648.457	-12.38
648.49	-3.38
648.523	-2.38
648.557	-12.38
648.59	1.62
648.624	-12.38
648.657	-1.38
648.69	21.62
648.724	13.62
648.757	5.62
648.791	-1.38
648.824	8.62
648.857	4.62
648.891	1.62
648.924	2.62
648.957	-1.38
648.991	-11.38
649.024	-5.38
649.057	-18.38
649.091	-12.38
649.124	4.62
649.158	3.62
649.191	17.62
649.224	0.62
649.258	15.62
649.291	6.62
649.324	-5.38
649.358	6.62
649.391	-1.38
649.424	12.62
649.458	11.62
649.491	7.62
649.524	-0.38
649.557	3.62
649.591	-9.38
649.624	16.62
649.657	-22.38
649.691	1.62
649.724	0.62
649.757	-2.38
649.791	-14.38
649.824	6.62
649.857	4.62
649.89	6.62
649.924	-25.38
649.957	-0.38
649.99	-0.38
650.023	-11.38
650.057	-19.38
650.09	6.62
650.123	12.62
650.157	0.62
650.19	0.62
650.223	-2.38
650.256	-9.38
650.29	-18.38
650.323	1.62
650.356	-1.38
650.389	-2.38
650.423	-3.38
650.456	-3.38
650.489	-4.38
650.522	0.62
650.555	15.62
650.589	4.62
650.622	3.62
650.655	3.62
650.688	7.62
650.721	-6.38
650.755	-7.38
650.788	22.62
650.821	0.62
650.854	-15.38
650.887	-10.38
650.921	0.62
650.954	-14.38
650.987	-9.38
651.02	-20.38
651.053	-13.38
651.087	-18.38
651.12	2.62
651.153	3.62
651.186	-13.38
651.219	-4.38
651.252	10.62
651.286	-7.38
651.319	-2.38
651.352	-2.38
651.385	7.62
651.418	10.62
651.451	1.62
651.484	19.62
651.518	-18.38
651.551	6.62
651.584	-8.38
651.617	11.62
651.65	-5.38
651.683	3.62
651.716	1.62
651.749	-3.38
651.783	15.62
651.816	-0.38
651.849	2.62
651.882	-2.38
651.915	-11.38
651.948	7.62
651.981	-14.38
652.014	-26.38
652.047	-13.38
652.08	-24.38
652.114	-0.38
652.147	-17.38
652.18	10.62
652.213	20.62
652.246	-16.38
652.279	-16.38
652.312	-0.38
652.345	-0.38
652.378	11.62
652.411	6.62
652.444	-5.38
652.477	-7.38
652.51	1.62
652.543	-34.38
652.576	1.62
652.609	-0.38
652.642	-13.38
652.675	12.62
652.709	-15.38
652.742	0.62
652.775	-0.38
652.808	-1.38
652.841	0.62
652.874	-6.38
652.907	3.62
652.94	-26.38
652.973	-16.38
653.006	-4.38
653.039	-1.38
653.072	2.62
653.105	-11.38
653.138	-13.38
653.171	-13.38
653.204	-25.38
653.237	-6.38
653.27	-0.38
653.303	1.62
653.336	-1.38
653.368	-17.38
653.401	-12.38
653.434	4.62
653.467	-0.38
653.5	-10.38
653.533	-21.38
653.566	0.62
653.599	14.62
653.632	6.62
653.665	-0.38
653.698	-7.38
653.731	-12.38
653.764	1.62
653.797	0.62
653.83	-7.38
653.863	-1.38
653.896	-0.38
653.929	-6.38
653.961	10.62
653.994	-12.38
654.027	-15.38
654.06	-11.38
654.093	-8.38
654.126	6.62
654.159	-3.38
654.192	2.62
654.225	-19.38
654.258	-11.38
654.29	-8.38
654.323	6.62
654.356	-7.38
654.389	-2.38
654.422	-6.38
654.455	-3.38
654.488	-4.38
654.521	-16.38
654.553	-12.38
654.586	0.62
654.619	-17.38
654.652	-2.38
654.685	0.62
654.718	-7.38
654.751	0.62
654.783	0.62
654.816	9.62
654.849	-9.38
654.882	1.62
654.915	-26.38
654.948	7.62
654.98	-14.38
655.013	-1.38
655.046	-8.38
655.079	-8.38
655.112	-5.38
655.144	-8.38
655.177	-2.38
655.21	20.62
655.243	11.62
655.276	6.62
655.308	9.62
655.341	-7.38
655.374	6.62
655.407	-6.38
655.44	-1.38
655.472	5.62
655.505	15.62
655.538	3.62
655.571	24.62
655.603	3.62
655.636	9.62
655.669	24.62
655.702	13.62
655.734	3.62
655.767	24.62
655.8	20.62
655.833	12.62
655.865	43.62
655.898	20.62
655.931	29.62
655.964	49.62
655.996	54.62
656.029	82.62
656.062	56.62
656.095	63.62
656.127	62.62
656.16	99.62
656.193	125.62
656.225	182.62
656.258	268.62
656.291	513.62
656.324	1137.62
656.356	3448.62
656.389	7680.62
656.422	6125.62
656.454	2108.62
656.487	693.62
656.52	279.62
656.552	126.62
656.585	95.62
656.618	83.62
656.65	43.62
656.683	22.62
656.716	32.62
656.748	20.62
656.781	5.62
656.814	5.62
656.846	9.62
656.879	3.62
656.912	6.62
656.944	-14.38
656.977	-2.38
657.01	-5.38
657.042	1.62
657.075	3.62
657.108	-2.38
657.14	3.62
657.173	15.62
657.205	29.62
657.238	23.62
657.271	12.62
657.303	-18.38
657.336	-0.38
657.369	-8.38
657.401	4.62
657.434	-27.38
657.466	-7.38
657.499	-4.38
657.532	-9.38
657.564	13.62
657.597	3.62
657.629	15.62
657.662	-0.38
657.694	-10.38
657.727	-20.38
657.76	0.62
657.792	-8.38
657.825	-32.38
657.857	-18.38
657.89	-17.38
657.922	7.62
657.955	-9.38
657.987	0.62
658.02	8.62
658.053	14.62
658.085	-10.38
658.118	1.62
658.15	-11.38
658.183	23.62
658.215	1.62
658.248	-14.38
658.28	-19.38
658.313	3.62
658.345	-2.38
658.378	3.62
658.41	-14.38
658.443	3.62
658.475	6.62
658.508	17.62
658.54	17.62
658.573	-9.38
658.605	-3.38
658.638	-24.38
658.67	-7.38
658.703	3.62
658.735	-5.38
658.768	-19.38
658.8	-4.38
658.833	32.62
658.865	0.62
658.898	2.62
658.93	-10.38
658.963	-2.38
658.995	-7.38
659.028	6.62
659.06	2.62
659.092	-6.38
659.125	6.62
659.157	10.62
659.19	-11.38
659.222	-8.38
659.255	-0.38
659.287	-15.38
659.32	-4.38
659.352	8.62
659.384	11.62
659.417	-14.38
659.449	-1.38
659.482	7.62
659.514	-2.38
659.546	-1.38
659.579	-20.38
659.611	-6.38
659.644	-6.38
659.676	-0.38
659.708	-2.38
659.741	-8.38
659.773	-3.38
659.806	-13.38
659.838	-1.38
659.87	-5.38
659.903	-6.38
659.935	-6.38
659.967	-0.38
660	-2.38
660.032	-12.38
660.065	7.62
660.097	-2.38
660.129	-10.38
660.162	-15.38
660.194	-12.38
660.226	-1.38
660.259	21.62
660.291	-9.38
660.323	16.62
660.356	1.62
660.388	-5.38
660.42	-4.38
660.453	-8.38
660.485	15.62
660.517	6.62
660.55	4.62
660.582	-5.38
660.614	7.62
660.647	-8.38
660.679	-5.38
660.711	2.62
660.743	2.62
660.776	-3.38
660.808	-0.38
660.84	-11.38
660.873	2.62
660.905	-9.38
660.937	-7.38
660.969	-1.38
661.002	-4.38
661.034	12.62
661.066	16.62
661.099	19.62
661.131	9.62
661.163	6.62
661.195	3.62
661.228	10.62
661.26	-4.38
661.292	0.62
661.324	-4.38
661.357	5.62
661.389	-13.38
661.421	2.62
661.453	3.62
661.485	12.62
661.518	-9.38
661.55	-11.38
661.582	-15.38
661.614	-9.38
661.647	2.62
661.679	-10.38
661.711	-7.38
661.743	8.62
661.775	-8.38
661.808	15.62
661.84	-0.38
661.872	5.62
661.904	-5.38
661.936	2.62
661.969	-4.38
662.001	-10.38
662.033	-10.38
662.065	-6.38
662.097	12.62
662.129	7.62
662.162	-13.38
662.194	1.62
662.226	-1.38
662.258	-1.38
662.29	17.62
662.322	-17.38
662.355	-14.38
662.387	11.62
662.419	0.62
662.451	-5.38
662.483	3.62
662.515	-2.38
662.547	-20.38
662.58	-10.38
662.612	-25.38
662.644	-15.38
662.676	8.62
662.708	18.62
662.74	2.62
662.772	4.62
662.804	8.62
662.836	0.62
662.869	5.62
662.901	6.62
662.933	-3.38
662.965	19.62
662.997	6.62
663.029	-9.38
663.061	-0.38
663.093	-4.38
663.125	0.62
663.157	0.62
663.189	-9.38
663.221	5.62
663.254	9.62
663.286	16.62
663.318	-6.38
663.35	-10.38
663.382	-17.38
663.414	-5.38
663.446	-7.38
663.478	-23.38
663.51	15.62
663.542	-4.38
663.574	-12.38
663.606	0.62
663.638	-16.38
663.67	-16.38
663.702	-15.38
663.734	-0.38
663.766	11.62
663.798	0.62
663.83	-8.38
663.862	3.62
663.894	7.62
663.926	1.62
663.958	4.62
663.99	-3.38
664.022	-6.38
664.054	16.62
664.086	-10.38
664.118	-13.38
664.15	-24.38
664.182	-6.38
664.214	-17.38
664.246	5.62
664.278	8.62
664.31	5.62
664.342	8.62
664.374	-15.38
664.406	-2.38
664.438	3.62
664.47	15.62
664.502	11.62
664.534	-8.38
664.566	-15.38
664.598	16.62
664.63	-8.38
664.662	4.62
664.693	-11.38
664.725	-15.38
664.757	-4.38
664.789	-17.38
664.821	4.62
664.853	1.62
664.885	6.62
664.917	0.62
664.949	9.62
664.981	23.62
665.013	-1.38
665.045	5.62
665.076	8.62
665.108	-4.38
665.14	-4.38
665.172	-4.38
665.204	-22.38
665.236	-1.38
665.268	11.62
665.3	-13.38
665.331	-15.38
665.363	-1.38
665.395	-31.38
665.427	-5.38
665.459	0.62
665.491	-4.38
665.523	3.62
665.555	-10.38
665.586	-15.38
665.618	-12.38
665.65	-9.38
665.682	6.62
665.714	7.62
665.746	-3.38
665.777	-4.38
665.809	2.62
665.841	7.62
665.873	-1.38
665.905	3.62
665.937	18.62
665.968	2.62
666	-10.38
666.032	0.62
666.064	-1.38
666.096	-4.38
666.127	-0.38
666.159	8.62
666.191	7.62
666.223	-1.38
666.255	13.62
666.286	4.62
666.318	-1.38
666.35	16.62
666.382	1.62
666.413	-14.38
666.445	-7.38
666.477	-13.38
666.509	-8.38
666.54	-3.38
666.572	-8.38
666.604	3.62
666.636	-1.38
666.667	11.62
666.699	11.62
666.731	0.62
666.763	-2.38
666.794	-7.38
666.826	3.62
666.858	-16.38
666.89	0.62
666.921	3.62
666.953	-14.38
666.985	16.62
667.017	19.62
667.048	-1.38
667.08	-6.38
667.112	-1.38
667.143	-7.38
667.175	6.62
667.207	-7.38
667.238	-17.38
667.27	-4.38
667.302	-1.38
667.334	-15.38
667.365	3.62
667.397	-5.38
667.429	6.62
667.46	15.62
667.492	0.62
667.524	-20.38
667.555	-19.38
667.587	-4.38
667.619	-1.38
667.65	-20.38
667.682	-4.38
667.714	7.62
667.745	-7.38
667.777	-7.38
667.808	-10.38
667.84	9.62
667.872	4.62
667.903	15.62
667.935	7.62
667.967	3.62
667.998	5.62
668.03	-8.38
668.061	3.62
668.093	9.62
668.125	9.62
668.156	-3.38
668.188	-19.38
668.22	-3.38
668.251	-7.38
668.283	7.62
668.314	19.62
668.346	9.62
668.377	14.62
668.409	-6.38
668.441	15.62
668.472	0.62
668.504	-2.38
668.535	12.62
668.567	7.62
668.599	-4.38
668.63	-8.38
668.662	-1.38
668.693	17.62
668.725	-6.38
668.756	-1.38
668.788	6.62
668.819	-5.38
668.851	-7.38
668.882	-8.38
668.914	-4.38
668.946	-6.38
668.977	-21.38
669.009	-1.38
669.04	-17.38
669.072	5.62
669.103	-20.38
669.135	-4.38
669.166	-9.38
669.198	0.62
669.229	-6.38
669.261	-4.38
669.292	3.62
669.324	9.62
669.355	-0.38
669.387	-9.38
669.418	-2.38
669.45	-4.38
669.481	9.62
669.513	4.62
669.544	-2.38
669.576	-1.38
669.607	7.62
669.639	4.62
669.67	-3.38
669.701	11.62
669.733	0.62
669.764	-3.38
669.796	-5.38
669.827	-18.38
669.859	7.62
669.89	-0.38
669.922	-5.38
669.953	-2.38
669.985	1.62
670.016	16.62
670.047	1.62
670.079	4.62
670.11	-0.38
670.142	0.62
670.173	8.62
670.204	-9.38
670.236	6.62
670.267	-4.38
670.299	6.62
670.33	-5.38
670.362	-8.38
670.393	-7.38
670.424	1.62
670.456	-26.38
670.487	-29.38
670.518	-13.38
670.55	6.62
670.581	-2.38
670.613	5.62
670.644	-26.38
670.675	-13.38
670.707	6.62
670.738	-6.38
670.769	-10.38
670.801	-3.38
670.832	10.62
670.864	-16.38
670.895	-0.38
670.926	-17.38
670.958	-14.38
670.989	-10.38
671.02	-10.38
671.052	-28.38
671.083	-6.38
671.114	4.62
671.146	22.62
671.177	-0.38
671.208	-5.38
671.24	0.62
671.271	-15.38
671.302	10.62
671.333	-3.38
671.365	-5.38
671.396	-3.38
671.427	-15.38
671.459	-0.38
671.49	-0.38
671.521	-5.38
671.553	-2.38
671.584	-0.38
671.615	-23.38
671.646	-3.38
671.678	-5.38
671.709	-9.38
671.74	-11.38
671.771	-14.38
671.803	-11.38
671.834	-4.38
671.865	-5.38
671.896	-5.38
671.928	-2.38
671.959	-25.38
671.99	-20.38
672.021	-1.38
672.053	-12.38
672.084	3.62
672.115	3.62
672.146	-1.38
672.178	-34.38
672.209	-3.38
672.24	-3.38
672.271	9.62
672.303	-14.38
672.334	-12.38
672.365	0.62
672.396	6.62
672.427	7.62
672.459	7.62
672.49	6.62
672.521	-3.38
672.552	6.62
672.583	-0.38
672.615	-8.38
672.646	-15.38
672.677	-8.38
672.708	-3.38
672.739	0.62
672.77	3.62
672.802	-10.38
672.833	-4.38
672.864	-2.38
672.895	-0.38
672.926	-0.38
672.957	-17.38
672.989	-7.38
673.02	-11.38
673.051	-11.38
673.082	1.62
673.113	8.62
673.144	-9.38
673.175	1.62
673.206	-20.38
673.238	-1.38
673.269	3.62
673.3	-7.38
673.331	-2.38
673.362	-1.38
673.393	4.62
673.424	-9.38
673.455	-4.38
673.487	1.62
673.518	-0.38
673.549	0.62
673.58	-1.38
673.611	10.62
673.642	-2.38
673.673	-25.38
673.704	-2.38
673.735	-0.38
673.766	12.62
673.797	7.62
673.828	5.62
673.86	-18.38
673.891	-27.38
673.922	-25.38
673.953	0.62
673.984	5.62
674.015	0.62
674.046	-10.38
674.077	4.62
674.108	-2.38
674.139	-3.38
674.17	4.62
674.201	-0.38
674.232	-0.38
674.263	-8.38
674.294	6.62
674.325	-12.38
674.356	7.62
674.387	5.62
674.418	13.62
674.449	-4.38
674.48	-6.38
674.511	-3.38
674.542	13.62
674.573	-5.38
674.604	19.62
674.635	6.62
674.666	8.62
674.697	-4.38
674.728	-3.38
674.759	14.62
674.79	-12.38
674.821	-5.38
674.852	-1.38
674.883	-18.38
674.914	-25.38
674.945	5.62
674.976	1.62
675.007	-5.38
675.038	-17.38
675.069	-17.38
675.1	-15.38
675.131	-10.38
675.162	-14.38
675.193	-5.38
675.224	-1.38
675.254	-2.38
675.285	2.62
675.316	1.62
675.347	1.62
675.378	-9.38
675.409	-19.38
675.44	2.62
675.471	-4.38
675.502	-19.38
675.533	-13.38
675.564	-26.38
675.595	-12.38
675.625	7.62
675.656	-2.38
675.687	6.62
675.718	-26.38
675.749	-2.38
675.78	-14.38
675.811	-4.38
675.842	-4.38
675.873	-18.38
675.903	-26.38
675.934	-11.38
675.965	-8.38
675.996	-15.38
676.027	-8.38
676.058	0.62
676.089	-25.38
676.119	-22.38
676.15	-15.38
676.181	-8.38
676.212	-10.38
676.243	10.62
676.274	2.62
676.304	-11.38
676.335	-14.38
676.366	-7.38
676.397	-7.38
676.428	10.62
676.459	3.62
676.489	4.62
676.52	7.62
676.551	-5.38
676.582	-15.38
676.613	4.62
676.643	-9.38
676.674	-0.38
676.705	-9.38
676.736	-8.38
676.767	4.62
676.797	13.62
676.828	4.62
676.859	-8.38
676.89	-9.38
676.92	-4.38
676.951	12.62
676.982	2.62
677.013	-13.38
677.044	3.62
677.074	-8.38
677.105	-11.38
677.136	8.62
677.167	7.62
677.197	-4.38
677.228	-2.38
677.259	-0.38
677.289	-0.38
677.32	-19.38
677.351	-11.38
677.382	4.62
677.412	-14.38
677.443	11.62
677.474	5.62
677.505	-12.38
677.535	-3.38
677.566	-3.38
677.597	-23.38
677.627	-9.38
677.658	1.62
677.689	-0.38
677.72	11.62
677.75	-4.38
677.781	1.62
677.812	1.62
677.842	-3.38
677.873	-2.38
677.904	-15.38
677.934	-9.38
677.965	-20.38
677.996	-31.38
678.026	-22.38
678.057	-2.38
678.088	-18.38
678.118	-11.38
678.149	4.62
678.18	-11.38
678.21	-6.38
678.241	-15.38
678.272	-7.38
678.302	-10.38
678.333	-10.38
678.363	1.62
678.394	8.62
678.425	6.62
678.455	0.62
678.486	0.62
678.517	-15.38
678.547	-3.38
678.578	-4.38
678.608	-13.38
678.639	-5.38
678.67	-4.38
678.7	-13.38
678.731	-4.38
678.761	1.62
678.792	-10.38
678.823	4.62
678.853	-4.38
678.884	-11.38
678.914	5.62
678.945	-1.38
678.975	0.62
679.006	4.62
679.037	-20.38
679.067	30.62
679.098	-0.38
679.128	-10.38
679.159	-1.38
679.189	7.62
679.22	-13.38
679.25	12.62
679.281	-3.38
679.312	-23.38
679.342	-5.38
679.373	18.62
679.403	-10.38
679.434	8.62
679.464	-1.38
679.495	-3.38
679.525	0.62
679.556	-9.38
679.586	1.62
679.617	-4.38
679.647	-10.38
679.678	4.62
679.708	-3.38
679.739	-3.38
679.769	-3.38
679.8	3.62
679.83	-1.38
679.861	11.62
679.891	-9.38
679.922	-10.38
679.952	-1.38
679.983	0.62
680.013	2.62
680.044	-10.38
680.074	-3.38
680.105	1.62
680.135	-16.38
680.165	9.62
680.196	-4.38
680.226	15.62
680.257	24.62
680.287	-11.38
680.318	6.62
680.348	-1.38
680.379	14.62
680.409	12.62
680.439	18.62
680.47	-7.38
680.5	-11.38
680.531	-12.38
680.561	0.62
680.592	-0.38
680.622	-12.38
680.652	-11.38
680.683	7.62
680.713	-5.38
680.744	-14.38
680.774	-4.38
680.804	11.62
680.835	-6.38
680.865	-25.38
680.896	5.62
680.926	11.62
680.956	0.62
680.987	3.62
681.017	-13.38
681.047	3.62
681.078	-4.38
681.108	-10.38
681.139	6.62
681.169	-13.38
681.199	2.62
681.23	4.62
681.26	0.62
681.29	-6.38
681.321	-21.38
681.351	-4.38
681.381	-9.38
681.412	-9.38
681.442	-16.38
681.472	13.62
681.503	12.62
681.533	-0.38
681.563	-8.38
681.594	0.62
681.624	-3.38
681.654	-9.38
681.685	-20.38
681.715	2.62
681.745	-10.38
681.775	-0.38
681.806	1.62
681.836	-8.38
681.866	-5.38
681.897	-0.38
681.927	-6.38
681.957	-12.38
681.987	2.62
682.018	-2.38
682.048	-15.38
682.078	4.62
682.109	9.62
682.139	-12.38
682.169	2.62
682.199	-7.38
682.23	-5.38
682.26	11.62
682.29	-8.38
682.32	-19.38
682.351	0.62
682.381	-5.38
682.411	-13.38
682.441	-18.38
682.472	-0.38
682.502	-22.38
682.532	2.62
682.562	11.62
682.592	10.62
682.623	-3.38
682.653	0.62
682.683	-4.38
682.713	12.62
682.743	-1.38
682.774	-1.38
682.804	-1.38
682.834	8.62
682.864	-7.38
682.894	17.62
682.925	-9.38
682.955	-3.38
682.985	-18.38
683.015	-14.38
683.045	14.62
683.076	-14.38
683.106	-33.38
683.136	-8.38
683.166	-10.38
683.196	-7.38
683.226	-0.38
683.257	-13.38
683.287	-7.38
683.317	-5.38
683.347	-21.38
683.377	-11.38
683.407	8.62
683.437	10.62
683.468	3.62
683.498	-28.38
683.528	-7.38
683.558	-16.38
683.588	2.62
683.618	-4.38
683.648	0.62
683.678	5.62
683.708	-0.38
683.739	-8.38
683.769	7.62
683.799	2.62
683.829	-8.38
683.859	-11.38
683.889	7.62
683.919	8.62
683.949	-0.38
683.979	-15.38
684.009	-0.38
684.039	-2.38
684.07	-9.38
684.1	0.62
684.13	1.62
684.16	5.62
684.19	2.62
684.22	-7.38
684.25	2.62
684.28	-12.38
684.31	3.62
684.34	3.62
684.37	14.62
684.4	2.62
684.43	12.62
684.46	-5.38
684.49	-4.38
684.52	13.62
684.55	8.62
684.58	-3.38
684.61	-11.38
684.64	-1.38
684.67	1.62
684.7	-8.38
684.73	-4.38
684.76	0.62
684.79	4.62
684.82	-0.38
684.85	-9.38
684.88	0.62
684.91	-10.38
684.94	-4.38
684.97	-12.38
685	-2.38
685.03	-13.38
685.06	-25.38
685.09	3.62
685.12	4.62
685.15	-7.38
685.18	-6.38
685.21	4.62
685.24	11.62
685.27	10.62
685.3	-5.38
685.33	-3.38
685.36	-7.38
685.39	-5.38
685.42	3.62
685.45	7.62
685.48	-1.38
685.51	-11.38
685.54	3.62
685.569	1.62
685.599	6.62
685.629	-11.38
685.659	-6.38
685.689	-13.38
685.719	7.62
685.749	-17.38
685.779	0.62
685.809	4.62
685.839	6.62
685.869	-10.38
685.898	4.62
685.928	1.62
685.958	2.62
685.988	9.62
686.018	0.62
686.048	-2.38
686.078	17.62
686.108	10.62
686.137	5.62
686.167	16.62
686.197	-17.38
686.227	13.62
686.257	11.62
686.287	6.62
686.317	-15.38
686.346	-7.38
686.376	-13.38
686.406	-14.38
686.436	6.62
686.466	-16.38
686.496	2.62
686.525	-4.38
686.555	-7.38
686.585	3.62
686.615	43.62
686.645	19.62
686.675	-11.38
686.704	0.62
686.734	-1.38
686.764	-13.38
686.794	-2.38
686.824	-19.38
686.853	2.62
686.883	4.62
686.913	13.62
686.943	-8.38
686.973	-20.38
687.002	-6.38
687.032	14.62
687.062	-11.38
687.092	4.62
687.121	0.62
687.151	-11.38
687.181	5.62
687.211	8.62
687.24	-4.38
687.27	-1.38
687.3	-12.38
687.33	-18.38
687.359	-7.38
687.389	-4.38
687.419	-8.38
687.449	-18.38
687.478	-3.38
687.508	-14.38
687.538	1.62
687.568	-0.38
687.597	-3.38
687.627	3.62
687.657	-1.38
687.686	8.62
687.716	21.62
687.746	-12.38
687.776	-12.38
687.805	5.62
687.835	-2.38
687.865	6.62
687.894	15.62
687.924	1.62
687.954	-20.38
687.983	-2.38
688.013	-11.38
688.043	4.62
688.072	-11.38
688.102	12.62
688.132	1.62
688.161	-12.38
688.191	-8.38
688.221	15.62
688.25	-6.38
688.28	-1.38
688.31	-3.38
688.339	-4.38
688.369	-5.38
688.399	-0.38
688.428	-1.38
688.458	-0.38
688.488	-12.38
688.517	4.62
688.547	-8.38
688.576	22.62
688.606	0.62
688.636	-16.38
688.665	5.62
688.695	3.62
688.725	14.62
688.754	0.62
688.784	-13.38
688.813	11.62
688.843	9.62
688.873	-4.38
688.902	-2.38
688.932	2.62
688.961	8.62
688.991	-0.38
689.02	17.62
689.05	-4.38
689.08	23.62
689.109	12.62
689.139	5.62
689.168	12.62
689.198	-21.38
689.227	-8.38
689.257	-4.38
689.287	2.62
689.316	-3.38
689.346	-19.38
689.375	-8.38
689.405	-7.38
689.434	-5.38
689.464	9.62
689.493	-15.38
689.523	-13.38
689.552	-3.38
689.582	2.62
689.611	-6.38
689.641	-4.38
689.67	10.62
689.7	-7.38
689.73	5.62
689.759	-4.38
689.789	9.62
689.818	-15.38
689.848	-7.38
689.877	18.62
689.906	-16.38
689.936	-4.38
689.965	7.62
689.995	-14.38
690.024	3.62
690.054	-1.38
690.083	8.62
690.113	-9.38
690.142	-12.38
690.172	3.62
690.201	-3.38
690.231	-1.38
690.26	-0.38
690.29	1.62
690.319	5.62
690.348	-3.38
690.378	-2.38
690.407	-8.38
690.437	4.62
690.466	-1.38
690.496	-6.38
690.525	-3.38
690.555	2.62
690.584	-12.38
690.613	-1.38
690.643	15.62
690.672	9.62
690.702	15.62
690.731	-12.38
690.76	2.62
690.79	-15.38
690.819	-7.38
690.849	-12.38
690.878	-7.38
690.907	2.62
690.937	-3.38
690.966	1.62
690.996	-2.38
691.025	-16.38
691.054	-8.38
691.084	3.62
691.113	12.62
691.142	-2.38
691.172	-0.38
691.201	10.62
691.23	-13.38
691.26	-16.38
691.289	-6.38
691.319	0.62
691.348	-1.38
691.377	6.62
691.407	-5.38
691.436	2.62
691.465	-12.38
691.495	-10.38
691.524	5.62
691.553	-1.38
691.583	-16.38
691.612	7.62
691.641	3.62
691.67	-9.38
691.7	4.62
691.729	-9.38
691.758	10.62
691.788	6.62
691.817	-9.38
691.846	-4.38
691.876	2.62
691.905	-15.38
691.934	3.62
691.963	1.62
691.993	-16.38
692.022	-10.38
692.051	-15.38
692.081	2.62
692.11	4.62
692.139	7.62
692.168	16.62
692.198	15.62
692.227	3.62
692.256	-6.38
692.285	-19.38
692.315	-9.38
692.344	7.62
692.373	15.62
692.402	-10.38
692.432	-6.38
692.461	-5.38
692.49	-11.38
692.519	-4.38
692.548	9.62
692.578	-4.38
692.607	-7.38
692.636	-18.38
692.665	5.62
692.694	-8.38
692.724	-16.38
692.753	22.62
692.782	0.62
692.811	-26.38
692.84	-2.38
692.87	7.62
692.899	-13.38
692.928	-8.38
692.957	-1.38
692.986	10.62
693.016	-0.38
693.045	9.62
693.074	-1.38
693.103	-5.38
693.132	-3.38
693.161	-4.38
693.191	-9.38
693.22	-4.38
693.249	-0.38
693.278	0.62
693.307	-5.38
693.336	-19.38
693.365	-22.38
693.395	-7.38
693.424	-4.38
693.453	-1.38
693.482	-7.38
693.511	10.62
693.54	10.62
693.569	10.62
693.598	-1.38
693.628	-7.38
693.657	-0.38
693.686	-0.38
693.715	10.62
693.744	15.62
693.773	3.62
693.802	-3.38
693.831	-12.38
693.86	6.62
693.889	-11.38
693.919	3.62
693.948	-1.38
693.977	-2.38
694.006	-4.38
694.035	3.62
694.064	-9.38
694.093	5.62
694.122	-4.38
694.151	-6.38
694.18	-5.38
694.209	22.62
694.238	-2.38
694.267	19.62
694.296	-1.38
694.325	-8.38
694.354	0.62
694.383	24.62
694.412	0.62
694.441	-8.38
694.471	-4.38
694.5	-4.38
694.529	0.62
694.558	18.62
694.587	12.62
694.616	-3.38
694.645	-3.38
694.674	6.62
694.703	9.62
694.732	-0.38
694.761	3.62
694.79	18.62
694.819	-9.38
694.848	-0.38
694.877	10.62
694.906	27.62
694.935	7.62
694.963	6.62
694.992	-6.38
695.021	6.62
695.05	13.62
695.079	0.62
695.108	-9.38
695.137	12.62
695.166	-3.38
695.195	-11.38
695.224	-1.38
695.253	-8.38
695.282	5.62
695.311	7.62
695.34	5.62
695.369	10.62
695.398	9.62
695.427	1.62
695.456	5.62
695.485	2.62
695.513	-1.38
695.542	0.62
695.571	-7.38
695.6	10.62
695.629	0.62
695.658	9.62
695.687	5.62
695.716	-8.38
695.745	17.62
695.774	-4.38
695.802	-1.38
695.831	-0.38
695.86	11.62
695.889	15.62
695.918	-2.38
695.947	-14.38
695.976	-4.38
696.005	-1.38
696.033	5.62
696.062	22.62
696.091	-4.38
696.12	-5.38
696.149	2.62
696.178	-17.38
696.207	0.62
696.235	-15.38
696.264	-3.38
696.293	3.62
696.322	5.62
696.351	0.62
696.38	-6.38
696.408	-1.38
696.437	5.62
696.466	-13.38
696.495	-13.38
696.524	8.62
696.553	6.62
696.581	12.62
696.61	-4.38
696.639	-1.38
696.668	-3.38
696.697	-3.38
696.725	12.62
696.754	-12.38
696.783	13.62
696.812	3.62
696.84	-1.38
696.869	0.62
696.898	14.62
696.927	0.62
696.956	21.62
696.984	-1.38
697.013	11.62
697.042	-5.38
697.071	14.62
697.099	11.62
697.128	5.62
697.157	5.62
697.186	-9.38
697.214	4.62
697.243	-9.38
697.272	-16.38
697.301	7.62
697.329	7.62
697.358	-1.38
697.387	17.62
697.415	3.62
697.444	7.62
697.473	-0.38
697.502	-0.38
697.53	-4.38
697.559	-15.38
697.588	9.62
697.616	0.62
697.645	3.62
697.674	32.62
697.703	-1.38
697.731	11.62
697.76	3.62
697.789	-10.38
697.817	-9.38
697.846	11.62
697.875	-1.38
697.903	12.62
697.932	14.62
697.961	0.62
697.989	-8.38
698.018	11.62
698.047	6.62
698.075	22.62
698.104	0.62
698.133	-0.38
698.161	-4.38
698.19	-7.38
698.218	-5.38
698.247	3.62
698.276	-2.38
698.304	8.62
698.333	16.62
698.362	0.62
698.39	-0.38
698.419	12.62
698.447	-7.38
698.476	-4.38
698.505	0.62
698.533	0.62
698.562	4.62
698.591	11.62
698.619	-24.38
698.648	-3.38
698.676	-0.38
698.705	12.62
698.733	-5.38
698.762	10.62
698.791	7.62
698.819	-3.38
698.848	-15.38
698.876	7.62
698.905	-6.38
698.933	-9.38
698.962	-8.38
698.991	10.62
699.019	13.62
699.048	3.62
699.076	14.62
699.105	-4.38
699.133	2.62
699.162	-3.38
699.19	19.62
699.219	-10.38
699.248	-8.38
699.276	-7.38
699.305	-4.38
699.333	-1.38
699.362	-0.38
699.39	-1.38
699.419	-12.38
699.447	9.62
699.476	-12.38
699.504	-11.38
699.533	-0.38
699.561	-12.38
699.59	9.62
699.618	-1.38
699.647	11.62
699.675	6.62
699.704	12.62
699.732	9.62
699.761	0.62
699.789	6.62
699.818	14.62
699.846	5.62
699.874	-5.38
699.903	-18.38
699.931	-4.38
699.96	10.62
699.988	-15.38
700.017	-15.38
700.045	-2.38
700.074	-0.38
700.102	-3.38
700.13	-16.38
700.159	-1.38
700.187	0.62
700.216	-3.38
700.244	-4.38
700.273	0.62
700.301	2.62
700.329	17.62
700.358	15.62
700.386	-5.38
700.415	-1.38
700.443	-3.38
700.472	-14.38
700.5	6.62
700.528	20.62
700.557	7.62
700.585	-6.38
700.614	-3.38
700.642	5.62
700.67	1.62
700.699	8.62
700.727	2.62
700.755	7.62
700.784	10.62
700.812	3.62
700.841	8.62
700.869	2.62
700.897	-20.38
700.926	-13.38
700.954	8.62
700.982	12.62
701.011	-6.38
701.039	9.62
701.067	-3.38
701.096	9.62
701.124	-2.38
701.152	0.62
701.181	2.62
701.209	-18.38
701.237	-7.38
701.266	3.62
701.294	-20.38
701.322	-3.38
701.351	3.62
701.379	-2.38
701.407	-11.38
701.435	6.62
701.464	14.62
701.492	24.62
701.52	-1.38
701.549	-8.38
701.577	-34.38
701.605	3.62
701.634	-5.38
701.662	6.62
701.69	0.62
701.718	-9.38
701.747	11.62
701.775	-1.38
701.803	-15.38
701.831	11.62
701.86	-0.38
701.888	-9.38
701.916	-0.38
701.944	-2.38
701.973	-15.38
702.001	-13.38
702.029	-8.38
702.057	-15.38
702.086	-24.38
702.114	-5.38
702.142	-0.38
702.17	-3.38
702.199	-3.38
702.227	-15.38
702.255	-5.38
702.283	-2.38
702.311	-10.38
702.34	-9.38
702.368	-12.38
702.396	1.62
702.424	2.62
702.452	-8.38
702.481	-4.38
702.509	-2.38
702.537	12.62
702.565	9.62
702.593	-16.38
702.621	-10.38
702.65	3.62
702.678	-0.38
702.706	5.62
702.734	-10.38
702.762	-12.38
702.79	-2.38
702.819	-12.38
702.847	0.62
702.875	16.62
702.903	16.62
702.931	-11.38
702.959	-1.38
702.988	4.62
703.016	-11.38
703.044	-9.38
703.072	-2.38
703.1	5.62
703.128	-7.38
703.156	4.62
703.184	3.62
703.212	-3.38
703.241	-8.38
703.269	7.62
703.297	4.62
703.325	-0.38
703.353	-10.38
703.381	-14.38
703.409	1.62
703.437	-13.38
703.465	-20.38
703.493	-18.38
703.522	1.62
703.55	7.62
703.578	-10.38
703.606	-6.38
703.634	-7.38
703.662	-9.38
703.69	-3.38
703.718	-8.38
703.746	13.62
703.774	9.62
703.802	17.62
703.83	0.62
703.858	4.62
703.886	-17.38
703.914	-13.38
703.942	7.62
703.97	-9.38
703.998	6.62
704.027	1.62
704.055	12.62
704.083	-1.38
704.111	-7.38
704.139	-12.38
704.167	-5.38
704.195	-0.38
704.223	-5.38
704.251	-4.38
704.279	2.62
704.307	2.62
704.335	-17.38
704.363	-7.38
704.391	-2.38
704.419	-3.38
704.447	-7.38
704.475	-13.38
704.503	-23.38
704.531	8.62
704.558	-4.38
704.586	2.62
704.614	-25.38
704.642	-12.38
704.67	-12.38
704.698	-0.38
704.726	0.62
704.754	-19.38
704.782	-10.38
704.81	-7.38
704.838	21.62
704.866	6.62
704.894	-8.38
704.922	-0.38
704.95	6.62
704.978	3.62
705.006	-9.38
705.034	5.62
705.061	-16.38
705.089	-7.38
705.117	-21.38
705.145	-12.38
705.173	-24.38
705.201	-0.38
705.229	5.62
705.257	-4.38
705.285	-0.38
705.313	-0.38
705.34	15.62
705.368	3.62
705.396	-2.38
705.424	2.62
705.452	-10.38
705.48	-5.38
705.508	-6.38
705.536	-12.38
705.563	-24.38
705.591	-1.38
705.619	-5.38
705.647	-11.38
705.675	-14.38
705.703	1.62
705.731	-5.38
705.758	3.62
705.786	6.62
705.814	14.62
705.842	8.62
705.87	4.62
705.898	-3.38
705.925	-6.38
705.953	-4.38
705.981	-4.38
706.009	-16.38
706.037	1.62
706.065	12.62
706.092	-9.38
706.12	-17.38
706.148	-16.38
706.176	-10.38
706.204	5.62
706.231	-9.38
706.259	-12.38
706.287	-4.38
706.315	-4.38
706.342	-6.38
706.37	1.62
706.398	-15.38
706.426	-14.38
706.454	-4.38
706.481	-11.38
706.509	-9.38
706.537	-2.38
706.565	-2.38
706.592	4.62
706.62	-7.38
706.648	-9.38
706.676	-17.38
706.703	0.62
706.731	-2.38
706.759	-21.38
706.787	-8.38
706.814	-3.38
706.842	-2.38
706.87	5.62
706.897	3.62
706.925	-15.38
706.953	9.62
706.981	19.62
707.008	1.62
707.036	-5.38
707.064	2.62
707.091	-19.38
707.119	4.62
707.147	-3.38
707.174	-14.38
707.202	1.62
707.23	-11.38
707.258	-5.38
707.285	-15.38
707.313	-23.38
707.341	-26.38
707.368	-17.38
707.396	-5.38
707.424	5.62
707.451	-3.38
707.479	-1.38
707.507	5.62
707.534	-16.38
707.562	0.62
707.59	-21.38
707.617	-0.38
707.645	-7.38
707.672	-13.38
707.7	-11.38
707.728	3.62
707.755	1.62
707.783	-1.38
707.811	8.62
707.838	-15.38
707.866	-3.38
707.893	4.62
707.921	4.62
707.949	-9.38
707.976	9.62
708.004	8.62
708.031	-11.38
708.059	-7.38
708.087	-10.38
708.114	-13.38
708.142	-2.38
708.169	3.62
708.197	-13.38
708.225	1.62
708.252	-2.38
708.28	2.62
708.307	0.62
708.335	-1.38
708.362	-4.38
708.39	-12.38
708.418	0.62
708.445	-6.38
708.473	-12.38
708.5	-19.38
708.528	-10.38
708.555	-10.38
708.583	3.62
708.61	3.62
708.638	-2.38
708.665	-19.38
708.693	-17.38
708.72	-19.38
708.748	-12.38
708.776	-2.38
708.803	3.62
708.831	-1.38
708.858	-3.38
708.886	2.62
708.913	-10.38
708.941	-8.38
708.968	3.62
708.996	-20.38
709.023	14.62
709.051	-9.38
709.078	-0.38
709.105	2.62
709.133	-4.38
709.16	-10.38
709.188	-3.38
709.215	1.62
709.243	-6.38
709.27	0.62
709.298	-4.38
709.325	-8.38
709.353	-3.38
709.38	8.62
709.408	-2.38
709.435	-7.38
709.462	3.62
709.49	-0.38
709.517	0.62
709.545	-5.38
709.572	2.62
709.6	-20.38
709.627	-1.38
709.655	-8.38
709.682	-1.38
709.709	-17.38
709.737	0.62
709.764	-17.38
709.792	3.62
709.819	-8.38
709.846	-5.38
709.874	5.62
709.901	2.62
709.929	0.62
709.956	-0.38
709.983	-10.38
710.011	-13.38
710.038	-7.38
710.066	-7.38
710.093	0.62
710.12	-1.38
710.148	-1.38
710.175	3.62
710.202	11.62
710.23	-8.38
710.257	-0.38
710.284	-3.38
710.312	9.62
710.339	19.62
710.366	-12.38
710.394	-10.38
710.421	-0.38
710.448	11.62
710.476	-27.38
710.503	-5.38
710.53	7.62
710.558	13.62
710.585	14.62
710.612	-11.38
710.64	-5.38
710.667	-0.38
710.694	-7.38
710.722	-5.38
710.749	-5.38
710.776	-11.38
710.804	3.62
710.831	-9.38
710.858	-11.38
710.885	-2.38
710.913	-8.38
710.94	26.62
710.967	11.62
710.995	8.62
711.022	4.62
711.049	2.62
711.076	-26.38
711.104	-18.38
711.131	-24.38
711.158	-27.38
711.185	4.62
711.213	-18.38
711.24	-10.38
711.267	8.62
711.294	-9.38
711.322	-7.38
711.349	-2.38
711.376	-9.38
711.403	1.62
711.431	-22.38
711.458	-12.38
711.485	-8.38
711.512	0.62
711.54	0.62
711.567	2.62
711.594	-20.38
711.621	-15.38
711.648	-12.38
711.676	-21.38
711.703	0.62
711.73	-27.38
711.757	4.62
711.784	-2.38
711.812	2.62
711.839	-0.38
711.866	-13.38
711.893	-1.38
711.92	-2.38
711.947	-7.38
711.975	2.62
712.002	-7.38
712.029	-3.38
712.056	-3.38
712.083	-2.38
712.11	-16.38
712.138	6.62
712.165	11.62
712.192	-0.38
712.219	-2.38
712.246	-15.38
712.273	-14.38
712.3	-17.38
712.328	-10.38
712.355	-5.38
712.382	-17.38
712.409	10.62
712.436	-24.38
712.463	3.62
712.49	4.62
712.517	0.62
712.544	-8.38
712.572	-9.38
712.599	-16.38
712.626	-2.38
712.653	-23.38
712.68	-1.38
712.707	3.62
712.734	-2.38
712.761	5.62
712.788	3.62
712.815	6.62
712.842	19.62
712.87	3.62
712.897	-26.38
712.924	-15.38
712.951	1.62
712.978	11.62
713.005	14.62
713.032	5.62
713.059	-4.38
713.086	-3.38
713.113	-1.38
713.14	-21.38
713.167	-5.38
713.194	-1.38
713.221	6.62
713.248	8.62
713.275	-10.38
713.302	-8.38
713.329	-3.38
713.356	-1.38
713.383	-1.38
713.41	11.62
713.437	-20.38
713.464	-3.38
713.491	-2.38
713.518	-3.38
713.545	-2.38
713.572	0.62
713.599	9.62
713.626	2.62
713.653	15.62
713.68	-7.38
713.707	-4.38
713.734	-2.38
713.761	-9.38
713.788	-8.38
713.815	2.62
713.842	-7.38
713.869	5.62
713.896	-0.38
713.923	2.62
713.95	0.62
713.977	-1.38
714.004	-0.38
714.031	0.62
714.058	-4.38
714.085	-12.38
714.112	14.62
714.139	-8.38
714.165	-16.38
714.192	-20.38
714.219	-1.38
714.246	-5.38
714.273	-20.38
714.3	-6.38
714.327	-2.38
714.354	1.62
714.381	-3.38
714.408	-9.38
714.435	4.62
714.461	-11.38
714.488	13.62
714.515	-8.38
714.542	-12.38
714.569	-0.38
714.596	-9.38
714.623	-7.38
714.65	-17.38
714.677	-5.38
714.703	-8.38
714.73	-3.38
714.757	3.62
714.784	0.62
714.811	-9.38
714.838	5.62
714.865	-5.38
714.891	6.62
714.918	-12.38
714.945	-13.38
714.972	-5.38
714.999	-1.38
715.026	-20.38
715.052	14.62
715.079	-9.38
715.106	-1.38
715.133	14.62
715.16	-13.38
715.187	20.62
715.213	6.62
715.24	-9.38
715.267	0.62
715.294	-13.38
715.321	-13.38
715.347	-11.38
715.374	-15.38
715.401	-8.38
715.428	-15.38
715.455	-3.38
715.481	-10.38
715.508	-4.38
715.535	-10.38
715.562	22.62
715.588	18.62
715.615	-8.38
715.642	-7.38
715.669	4.62
715.695	-0.38
715.722	-12.38
715.749	-8.38
715.776	4.62
715.802	-6.38
715.829	-5.38
715.856	-10.38
715.883	11.62
715.909	-11.38
715.936	-21.38
715.963	-5.38
715.99	-8.38
716.016	-3.38
716.043	14.62
716.07	-6.38
716.096	-16.38
716.123	-12.38
716.15	2.62
716.177	10.62
716.203	3.62
716.23	0.62
716.257	-8.38
716.283	11.62
716.31	-2.38
716.337	-3.38
716.363	1.62
716.39	1.62
716.417	10.62
716.443	-16.38
716.47	18.62
716.497	9.62
716.523	15.62
716.55	-12.38
716.577	8.62
716.603	-17.38
716.63	6.62
716.657	9.62
716.683	-3.38
716.71	-5.38
716.737	2.62
716.763	10.62
716.79	9.62
716.817	14.62
716.843	6.62
716.87	-14.38
716.897	-4.38
716.923	15.62
716.95	-0.38
716.976	5.62
717.003	-9.38
717.03	-1.38
717.056	6.62
717.083	4.62
717.109	2.62
717.136	-1.38
717.163	2.62
717.189	7.62
717.216	-8.38
717.242	-0.38
717.269	-16.38
717.296	1.62
717.322	6.62
717.349	8.62
717.375	6.62
717.402	1.62
717.428	-15.38
717.455	-6.38
717.481	-3.38
717.508	3.62
717.535	9.62
717.561	4.62
717.588	-5.38
717.614	-2.38
717.641	-13.38
717.667	-5.38
717.694	-0.38
717.72	-5.38
717.747	-7.38
717.773	-3.38
717.8	10.62
717.826	-7.38
717.853	-20.38
717.88	4.62
717.906	3.62
717.933	18.62
717.959	4.62
717.986	9.62
718.012	-5.38
718.039	0.62
718.065	1.62
718.092	8.62
718.118	-9.38
718.144	-7.38
718.171	12.62
718.197	12.62
718.224	-3.38
718.25	12.62
718.277	7.62
718.303	4.62
718.33	-5.38
718.356	-4.38
718.383	5.62
718.409	-13.38
718.436	6.62
718.462	-19.38
718.489	-10.38
718.515	4.62
718.541	15.62
718.568	-1.38
718.594	6.62
718.621	9.62
718.647	-4.38
718.674	-1.38
718.7	1.62
718.726	-2.38
718.753	-10.38
718.779	-4.38
718.806	-10.38
718.832	-20.38
718.858	-12.38
718.885	-5.38
718.911	3.62
718.938	-7.38
718.964	-7.38
718.99	6.62
719.017	-5.38
719.043	0.62
719.07	12.62
719.096	-2.38
719.122	15.62
719.149	-5.38
719.175	6.62
719.201	9.62
719.228	3.62
719.254	-2.38
719.281	-19.38
719.307	0.62
719.333	-13.38
719.36	3.62
719.386	9.62
719.412	2.62
719.439	-13.38
719.465	-0.38
719.491	-13.38
719.518	5.62
719.544	-1.38
719.57	-0.38
719.597	4.62
719.623	-6.38
719.649	8.62
719.675	-14.38
719.702	-13.38
719.728	-5.38
719.754	-4.38
719.781	-23.38
719.807	-11.38
719.833	-6.38
719.86	-3.38
719.886	4.62
719.912	6.62
719.938	-6.38
719.965	-3.38
719.991	-5.38
720.017	0.62
720.044	-9.38
720.07	2.62
720.096	-0.38
720.122	-0.38
720.149	-3.38
720.175	10.62
720.201	11.62
720.227	-5.38
720.254	20.62
720.28	-7.38
720.306	-4.38
720.332	-0.38
720.359	3.62
720.385	4.62
720.411	-8.38
720.437	1.62
720.463	6.62
720.49	-2.38
720.516	-18.38
720.542	-1.38
720.568	7.62
720.595	-10.38
720.621	-4.38
720.647	11.62
720.673	4.62
720.699	-15.38
720.725	-5.38
720.752	0.62
720.778	17.62
720.804	-1.38
720.83	7.62
720.856	-8.38
720.883	-10.38
720.909	4.62
720.935	17.62
720.961	5.62
720.987	-9.38
721.013	-1.38
721.04	-14.38
721.066	-20.38
721.092	-9.38
721.118	3.62
721.144	-5.38
721.17	0.62
721.196	3.62
721.223	-5.38
721.249	-8.38
721.275	17.62
721.301	-16.38
721.327	15.62
721.353	-5.38
721.379	-13.38
721.405	6.62
721.432	-2.38
721.458	-4.38
721.484	5.62
721.51	-12.38
721.536	-10.38
721.562	-7.38
721.588	-11.38
721.614	-16.38
721.64	-18.38
721.666	-1.38
721.693	-12.38
721.719	0.62
721.745	-24.38
721.771	-13.38
721.797	2.62
721.823	1.62
721.849	20.62
721.875	1.62
721.901	-3.38
721.927	5.62
721.953	-4.38
721.979	10.62
722.005	5.62
722.031	2.62
722.057	-7.38
722.083	0.62
722.109	5.62
722.135	6.62
722.161	6.62
722.187	-4.38
722.214	-0.38
722.24	-1.38
722.266	0.62
722.292	2.62
722.318	2.62
722.344	7.62
722.37	-2.38
722.396	2.62
722.422	12.62
722.448	-1.38
722.474	-17.38
722.5	16.62
722.526	5.62
722.552	-10.38
722.578	-13.38
722.603	5.62
722.629	-8.38
722.655	-3.38
722.681	-8.38
722.707	-8.38
722.733	-5.38
722.759	-6.38
722.785	3.62
722.811	9.62
722.837	-3.38
722.863	0.62
722.889	0.62
722.915	-9.38
722.941	2.62
722.967	2.62
722.993	3.62
723.019	-5.38
723.045	-24.38
723.071	1.62
723.097	1.62
723.122	3.62
723.148	-1.38
723.174	0.62
723.2	-7.38
723.226	-20.38
723.252	13.62
723.278	-5.38
723.304	-5.38
723.33	-1.38
723.356	-5.38
723.381	-4.38
723.407	-11.38
723.433	2.62
723.459	-2.38
723.485	-5.38
723.511	11.62
723.537	-12.38
723.563	-3.38
723.588	1.62
723.614	23.62
723.64	3.62
723.666	13.62
723.692	-2.38
723.718	7.62
723.744	17.62
723.769	-0.38
723.795	-15.38
723.821	-0.38
723.847	3.62
723.873	5.62
723.899	6.62
723.924	-4.38
723.95	17.62
723.976	-6.38
724.002	-2.38
724.028	4.62
724.053	3.62
724.079	-5.38
724.105	-1.38
724.131	-16.38
724.157	-0.38
724.182	-6.38
724.208	-7.38
724.234	-12.38
724.26	-16.38
724.286	-2.38
724.311	-3.38
724.337	-5.38
724.363	-5.38
724.389	15.62
724.415	8.62
724.44	18.62
724.466	-0.38
724.492	-3.38
724.518	2.62
724.543	-6.38
724.569	8.62
724.595	-7.38
724.621	-7.38
724.646	-4.38
724.672	-5.38
724.698	-7.38
724.723	-10.38
724.749	1.62
724.775	-3.38
724.801	-14.38
724.826	-9.38
724.852	-28.38
724.878	-18.38
724.904	-10.38
724.929	-13.38
724.955	-12.38
724.981	-1.38
725.006	-12.38
725.032	-12.38
725.058	11.62
725.083	-0.38
725.109	-15.38
725.135	3.62
725.161	1.62
725.186	-10.38
725.212	12.62
725.238	0.62
725.263	-5.38
725.289	-17.38
725.315	-11.38
725.34	-6.38
725.366	6.62
725.392	-5.38
725.417	-3.38
725.443	3.62
725.468	-5.38
725.494	3.62
725.52	-0.38
725.545	10.62
725.571	-7.38
725.597	-4.38
725.622	-0.38
725.648	-2.38
725.674	-9.38
725.699	-4.38
725.725	-2.38
725.75	22.62
725.776	-5.38
725.802	1.62
725.827	-6.38
725.853	-6.38
725.878	12.62
725.904	-0.38
725.93	-4.38
725.955	-8.38
725.981	-9.38
726.006	-13.38
726.032	9.62
726.057	-18.38
726.083	-16.38
726.109	-5.38
726.134	-8.38
726.16	8.62
726.185	-1.38
726.211	-12.38
726.236	11.62
726.262	-23.38
726.288	-10.38
726.313	9.62
726.339	-3.38
726.364	14.62
726.39	5.62
726.415	-2.38
726.441	-11.38
726.466	-11.38
726.492	1.62
726.517	3.62
726.543	2.62
726.568	8.62
726.594	-9.38
726.619	16.62
726.645	-9.38
726.67	-9.38
726.696	11.62
726.721	-12.38
726.747	-0.38
726.772	-2.38
726.798	8.62
726.823	3.62
726.849	-9.38
726.874	9.62
726.9	36.62
726.925	18.62
726.951	-11.38
726.976	-8.38
727.002	-3.38
727.027	4.62
727.053	2.62
727.078	-9.38
727.104	7.62
727.129	-12.38
727.155	0.62
727.18	3.62
727.205	3.62
727.231	0.62
727.256	-10.38
727.282	-8.38
727.307	7.62
727.333	-11.38
727.358	-2.38
727.383	1.62
727.409	3.62
727.434	11.62
727.46	-7.38
727.485	-1.38
727.511	7.62
727.536	-18.38
727.561	-12.38
727.587	-16.38
727.612	5.62
727.637	-13.38
727.663	-7.38
727.688	22.62
727.714	-3.38
727.739	-7.38
727.764	-2.38
727.79	-0.38
727.815	4.62
727.841	12.62
727.866	-4.38
727.891	2.62
727.917	-3.38
727.942	-25.38
727.967	-8.38
727.993	-24.38
728.018	-24.38
728.043	-0.38
728.069	5.62
728.094	12.62
728.119	-5.38
728.145	0.62
728.17	-8.38
728.195	-13.38
728.221	4.62
728.246	-26.38
728.271	-12.38
728.297	-5.38
728.322	-3.38
728.347	-9.38
728.373	-6.38
728.398	0.62
728.423	1.62
728.448	2.62
728.474	-8.38
728.499	-12.38
728.524	-13.38
728.55	-17.38
728.575	-15.38
728.6	-1.38
728.625	-11.38
728.651	-7.38
728.676	-6.38
728.701	8.62
728.727	-4.38
728.752	-6.38
728.777	-11.38
728.802	2.62
728.828	7.62
728.853	-0.38
728.878	1.62
728.903	-11.38
728.929	-9.38
728.954	-21.38
728.979	-5.38
729.004	-5.38
729.03	-2.38
729.055	-4.38
729.08	-26.38
729.105	-21.38
729.13	7.62
729.156	2.62
729.181	0.62
729.206	-10.38
729.231	-12.38
729.256	-3.38
729.282	16.62
729.307	-8.38
729.332	-8.38
729.357	-1.38
729.382	-19.38
729.408	-18.38
729.433	5.62
729.458	4.62
729.483	13.62
729.508	7.62
729.533	-6.38
729.559	4.62
729.584	-15.38
729.609	-11.38
729.634	4.62
729.659	-18.38
729.684	-18.38
729.71	-1.38
729.735	-1.38
729.76	-3.38
729.785	-7.38
729.81	-4.38
729.835	-20.38
729.86	-11.38
729.886	-1.38
729.911	6.62
729.936	1.62
729.961	-1.38
729.986	-12.38
730.011	-14.38
730.036	-7.38
730.061	-7.38
730.086	-5.38
730.112	-3.38
730.137	7.62
730.162	-7.38
730.187	-15.38
730.212	9.62
730.237	-21.38
730.262	-5.38
730.287	-1.38
730.312	12.62
730.337	-23.38
730.362	3.62
730.387	-8.38
730.413	-18.38
730.438	-15.38
730.463	-17.38
730.488	-9.38
730.513	-0.38
730.538	-12.38
730.563	3.62
730.588	12.62
730.613	17.62
730.638	0.62
730.663	-4.38
730.688	11.62
730.713	-5.38
730.738	-13.38
730.763	-11.38
730.788	-20.38
730.813	13.62
730.838	-4.38
730.863	-0.38
730.888	-0.38
730.913	-13.38
730.938	-24.38
730.963	-16.38
730.988	-10.38
731.013	-10.38
731.038	-9.38
731.063	-6.38
731.088	-0.38
731.113	-9.38
731.138	5.62
731.163	-3.38
731.188	-13.38
731.213	-3.38
731.238	1.62
731.263	-17.38
731.288	-11.38
731.313	-4.38
731.338	-7.38
731.363	-13.38
731.388	-3.38
731.413	4.62
731.438	8.62
731.463	-9.38
731.487	0.62
731.512	3.62
731.537	-4.38
731.562	-10.38
731.587	-4.38
731.612	-4.38
731.637	-12.38
731.662	-2.38
731.687	-11.38
731.712	-18.38
731.737	-7.38
731.762	-6.38
731.786	-5.38
731.811	2.62
731.836	-11.38
731.861	-11.38
731.886	-11.38
731.911	-3.38
731.936	2.62
731.961	2.62
731.986	-19.38
732.01	-13.38
732.035	-4.38
732.06	-1.38
732.085	-6.38
732.11	-4.38
732.135	-8.38
732.16	-13.38
732.184	-10.38
732.209	-4.38
732.234	5.62
732.259	3.62
732.284	13.62
732.309	-1.38
732.334	-15.38
732.358	-19.38
732.383	-12.38
732.408	-12.38
732.433	7.62
732.458	-4.38
732.482	9.62
732.507	3.62
732.532	1.62
732.557	7.62
732.582	10.62
732.607	-3.38
732.631	-5.38
732.656	4.62
732.681	4.62
732.706	-5.38
732.73	-8.38
732.755	-14.38
732.78	-0.38
732.805	-2.38
732.83	-12.38
732.854	-10.38
732.879	1.62
732.904	-24.38
732.929	-9.38
732.953	-10.38
732.978	-19.38
733.003	-9.38
733.028	-0.38
733.052	1.62
733.077	-4.38
733.102	13.62
733.127	-13.38
733.151	-7.38
733.176	2.62
733.201	-13.38
733.226	5.62
733.25	-14.38
733.275	-1.38
733.3	-5.38
733.324	-4.38
733.349	8.62
733.374	0.62
733.399	3.62
733.423	-9.38
733.448	-9.38
733.473	-7.38
733.497	-15.38
733.522	-19.38
733.547	0.62
733.571	-3.38
733.596	8.62
733.621	6.62
733.646	-6.38
733.67	-4.38
733.695	-10.38
733.72	-7.38
733.744	5.62
733.769	-8.38
733.794	10.62
733.818	-8.38
733.843	3.62
733.867	-0.38
733.892	4.62
733.917	5.62
733.941	-0.38
733.966	-17.38
733.991	-17.38
734.015	-2.38
734.04	-7.38
734.065	-1.38
734.089	15.62
734.114	-8.38
734.138	5.62
734.163	-9.38
734.188	-12.38
734.212	-5.38
734.237	-6.38
734.261	-17.38
734.286	-11.38
734.311	-2.38
734.335	-20.38
734.36	-2.38
734.384	-9.38
734.409	0.62
734.434	-13.38
734.458	-1.38
734.483	-23.38
734.507	-21.38
734.532	-16.38
734.556	-11.38
734.581	-18.38
734.606	2.62
734.63	-7.38
734.655	-10.38
734.679	5.62
734.704	-5.38
734.728	-7.38
734.753	-7.38
734.777	2.62
734.802	-8.38
734.826	-18.38
734.851	-1.38
734.876	2.62
734.9	5.62
734.925	-0.38
734.949	0.62
734.974	-7.38
734.998	-10.38
735.023	-13.38
735.047	-12.38
735.072	20.62
735.096	-7.38
735.121	-4.38
735.145	-12.38
735.17	-1.38
735.194	-4.38
735.219	2.62
735.243	2.62
735.268	-7.38
735.292	5.62
735.317	-2.38
735.341	9.62
735.365	-11.38
735.39	1.62
735.414	3.62
735.439	15.62
735.463	7.62
735.488	21.62
735.512	3.62
735.537	-8.38
735.561	-16.38
735.586	-10.38
735.61	-4.38
735.634	-8.38
735.659	-3.38
735.683	0.62
735.708	-7.38
735.732	-15.38
735.757	-4.38
735.781	-5.38
735.805	-2.38
735.83	-9.38
735.854	-4.38
735.879	-8.38
735.903	-9.38
735.927	-15.38
735.952	0.62
735.976	-2.38
736.001	-10.38
736.025	0.62
736.049	1.62
736.074	7.62
736.098	3.62
736.123	-17.38
736.147	2.62
736.171	-10.38
736.196	-7.38
736.22	-11.38
736.244	6.62
736.269	-7.38
736.293	-15.38
736.317	-12.38
736.342	9.62
736.366	12.62
736.39	17.62
736.415	2.62
736.439	9.62
736.463	8.62
736.488	2.62
736.512	-2.38
736.536	4.62
736.561	1.62
736.585	-1.38
736.609	14.62
736.634	-8.38
736.658	-2.38
736.682	-21.38
736.707	-4.38
736.731	-13.38
736.755	2.62
736.78	1.62
736.804	5.62
736.828	-4.38
736.852	-25.38
736.877	-3.38
736.901	3.62
736.925	-1.38
736.949	6.62
736.974	-8.38
736.998	-18.38
737.022	-7.38
737.047	-9.38
737.071	-23.38
737.095	-1.38
737.119	12.62
737.144	3.62
737.168	-0.38
737.192	-11.38
737.216	-10.38
737.241	-19.38
737.265	-3.38
737.289	-12.38
737.313	-16.38
737.337	3.62
737.362	-7.38
737.386	-1.38
737.41	4.62
737.434	-3.38
737.459	-8.38
737.483	-2.38
737.507	-0.38
737.531	3.62
737.555	11.62
737.58	-5.38
737.604	-5.38
737.628	-12.38
737.652	-9.38
737.676	-13.38
737.701	-1.38
737.725	-15.38
737.749	3.62
737.773	-2.38
737.797	-16.38
737.821	-4.38
737.846	-7.38
737.87	21.62
737.894	-1.38
737.918	-3.38
737.942	-10.38
737.966	11.62
737.99	4.62
738.015	11.62
738.039	3.62
738.063	-10.38
738.087	8.62
738.111	-10.38
738.135	22.62
738.159	6.62
738.184	-8.38
738.208	0.62
738.232	-4.38
738.256	4.62
738.28	18.62
738.304	11.62
738.328	-9.38
738.352	-1.38
738.376	-9.38
738.4	-15.38
738.425	6.62
738.449	-7.38
738.473	2.62
738.497	10.62
738.521	-13.38
738.545	-12.38
738.569	-0.38
738.593	9.62
738.617	3.62
738.641	-9.38
738.665	2.62
738.689	-5.38
738.713	-7.38
738.737	3.62
738.762	4.62
738.786	4.62
738.81	-10.38
738.834	7.62
738.858	-2.38
738.882	0.62
738.906	-15.38
738.93	-3.38
738.954	11.62
738.978	3.62
739.002	-3.38
739.026	-0.38
739.05	8.62
739.074	-7.38
739.098	14.62
739.122	-5.38
739.146	11.62
739.17	16.62
739.194	-5.38
739.218	-21.38
739.242	-0.38
739.266	-9.38
739.29	-3.38
739.314	-3.38
739.338	-1.38
739.362	-8.38
739.386	3.62
739.41	-6.38
739.434	-12.38
739.458	6.62
739.482	6.62
739.506	-1.38
739.53	10.62
739.554	5.62
739.577	-6.38
739.601	-4.38
739.625	-11.38
739.649	7.62
739.673	-5.38
739.697	-1.38
739.721	-16.38
739.745	-1.38
739.769	0.62
739.793	0.62
739.817	3.62
739.841	-13.38
739.865	-10.38
739.889	-9.38
739.912	0.62
739.936	-5.38
739.96	-8.38
739.984	21.62
740.008	-6.38
740.032	-13.38
740.056	-6.38
740.08	3.62
740.104	1.62
740.127	6.62
740.151	7.62
740.175	11.62
740.199	-3.38
740.223	48.62
740.247	8.62
740.271	-4.38
740.295	-8.38
740.318	-30.38
740.342	-2.38
740.366	3.62
740.39	11.62
740.414	0.62
740.438	-13.38
740.461	14.62
740.485	2.62
740.509	-7.38
740.533	12.62
740.557	-9.38
740.581	-4.38
740.604	-17.38
740.628	-4.38
740.652	15.62
740.676	-7.38
740.7	-1.38
740.723	2.62
740.747	-5.38
740.771	1.62
740.795	-12.38
740.819	2.62
740.842	-7.38
740.866	-5.38
740.89	-1.38
740.914	-5.38
740.938	-9.38
740.961	-7.38
740.985	7.62
741.009	-7.38
741.033	-3.38
741.056	-3.38
741.08	-13.38
741.104	-8.38
741.128	-7.38
741.151	-1.38
741.175	-8.38
741.199	8.62
741.223	3.62
741.246	-4.38
741.27	-2.38
741.294	3.62
741.318	-2.38
741.341	-12.38
741.365	-8.38
741.389	7.62
741.413	5.62
741.436	8.62
741.46	-14.38
741.484	-1.38
741.507	-24.38
741.531	18.62
741.555	9.62
741.579	-1.38
741.602	-0.38
741.626	3.62
741.65	6.62
741.673	3.62
741.697	-2.38
741.721	9.62
741.744	-12.38
741.768	-18.38
741.792	-12.38
741.815	-6.38
741.839	-0.38
741.863	12.62
741.886	7.62
741.91	0.62
741.934	-3.38
741.957	-22.38
741.981	-0.38
742.005	-2.38
742.028	-5.38
742.052	-1.38
742.075	3.62
742.099	-2.38
742.123	-1.38
742.146	8.62
742.17	2.62
742.194	-13.38
742.217	-4.38
742.241	-9.38
742.264	-3.38
742.288	15.62
742.312	0.62
742.335	-4.38
742.359	10.62
742.382	-0.38
742.406	8.62
742.43	-0.38
742.453	8.62
742.477	-2.38
742.5	15.62
742.524	-10.38
742.548	-19.38
742.571	1.62
742.595	10.62
742.618	-16.38
742.642	-10.38
742.665	13.62
742.689	1.62
742.712	-5.38
742.736	-4.38
742.76	-0.38
742.783	6.62
742.807	7.62
742.83	6.62
742.854	-19.38
742.877	-4.38
742.901	-4.38
742.924	-9.38
742.948	1.62
742.971	8.62
742.995	-4.38
743.018	-16.38
743.042	-11.38
743.065	-6.38
743.089	2.62
743.112	-0.38
743.136	-8.38
743.159	-13.38
743.183	-11.38
743.206	3.62
743.23	-11.38
743.253	6.62
743.277	9.62
743.3	-4.38
743.324	-0.38
743.347	-11.38
743.371	2.62
743.394	4.62
743.418	12.62
743.441	12.62
743.465	-4.38
743.488	-5.38
743.512	-13.38
743.535	-9.38
743.558	-0.38
743.582	-0.38
743.605	-2.38
743.629	1.62
743.652	0.62
743.676	4.62
743.699	8.62
743.723	6.62
743.746	6.62
743.769	12.62
743.793	6.62
743.816	-15.38
743.84	9.62
743.863	-4.38
743.886	0.62
743.91	4.62
743.933	1.62
743.957	8.62
743.98	-6.38
744.003	1.62
744.027	-2.38
744.05	1.62
744.074	-5.38
744.097	-18.38
744.12	-16.38
744.144	-9.38
744.167	21.62
744.19	2.62
744.214	-6.38
744.237	1.62
744.26	17.62
744.284	4.62
744.307	-8.38
744.331	-2.38
744.354	-12.38
744.377	-6.38
744.401	-2.38
744.424	-9.38
744.447	-0.38
744.471	-5.38
