Data from HighRes_H2_15_09_11_07_2024_HR4C61891__158__15-11-12-201.txt Node

Date: Thu Nov 07 15:11:12 EST 2024
User: crc00042
Spectrometer: HR4C6189
Trigger mode: 4
Integration Time (sec): 1.000000E-1
Scans to average: 1
Electric dark correction enabled: true
Nonlinearity correction enabled: false
Boxcar width: 0
XAxis mode: Wavelengths
Number of Pixels in Spectrum: 3648
>>>>>Begin Spectral Data<<<<<
639.567	-43.23
639.602	-43.23
639.636	-43.23
639.67	-39.23
639.704	-5.23
639.738	3.77
639.773	4.77
639.807	-11.23
639.841	-6.23
639.875	3.77
639.909	11.77
639.943	-10.23
639.978	-9.23
640.012	0.77
640.046	24.77
640.08	-3.23
640.114	0.77
640.148	-10.23
640.182	-17.23
640.217	-2.23
640.251	18.77
640.285	20.77
640.319	-7.23
640.353	-5.23
640.387	11.77
640.421	-1.23
640.455	4.77
640.49	0.77
640.524	-4.23
640.558	-3.23
640.592	-3.23
640.626	8.77
640.66	19.77
640.694	-8.23
640.728	5.77
640.762	8.77
640.796	15.77
640.83	17.77
640.865	-9.23
640.899	4.77
640.933	-3.23
640.967	3.77
641.001	11.77
641.035	-1.23
641.069	-1.23
641.103	0.77
641.137	12.77
641.171	-19.23
641.205	29.77
641.239	19.77
641.273	26.77
641.307	7.77
641.341	1.77
641.375	2.77
641.409	-10.23
641.443	0.77
641.477	12.77
641.511	9.77
641.545	18.77
641.579	-0.23
641.614	8.77
641.648	0.77
641.682	-15.23
641.716	7.77
641.75	0.77
641.784	5.77
641.818	-3.23
641.852	-4.23
641.886	-17.23
641.919	6.77
641.953	-4.23
641.987	-3.23
642.021	-16.23
642.055	5.77
642.089	15.77
642.123	-9.23
642.157	-6.23
642.191	-7.23
642.225	12.77
642.259	5.77
642.293	9.77
642.327	-5.23
642.361	-9.23
642.395	11.77
642.429	24.77
642.463	8.77
642.497	16.77
642.531	7.77
642.565	8.77
642.599	7.77
642.633	-15.23
642.666	4.77
642.7	11.77
642.734	11.77
642.768	-5.23
642.802	8.77
642.836	8.77
642.87	7.77
642.904	-0.23
642.938	7.77
642.972	5.77
643.005	16.77
643.039	5.77
643.073	3.77
643.107	8.77
643.141	8.77
643.175	20.77
643.209	6.77
643.243	8.77
643.276	18.77
643.31	12.77
643.344	13.77
643.378	-2.23
643.412	12.77
643.446	8.77
643.48	3.77
643.513	16.77
643.547	9.77
643.581	-22.23
643.615	0.77
643.649	0.77
643.683	7.77
643.716	-0.23
643.75	10.77
643.784	-16.23
643.818	15.77
643.852	15.77
643.886	-1.23
643.919	7.77
643.953	6.77
643.987	6.77
644.021	11.77
644.055	19.77
644.088	4.77
644.122	-13.23
644.156	-4.23
644.19	7.77
644.224	5.77
644.257	8.77
644.291	12.77
644.325	10.77
644.359	-4.23
644.392	11.77
644.426	26.77
644.46	6.77
644.494	4.77
644.527	-14.23
644.561	4.77
644.595	-1.23
644.629	-10.23
644.662	-10.23
644.696	1.77
644.73	0.77
644.764	7.77
644.797	1.77
644.831	5.77
644.865	12.77
644.899	3.77
644.932	29.77
644.966	3.77
645	9.77
645.033	16.77
645.067	4.77
645.101	6.77
645.135	0.77
645.168	7.77
645.202	-7.23
645.236	-2.23
645.269	26.77
645.303	14.77
645.337	-1.23
645.37	5.77
645.404	11.77
645.438	9.77
645.471	-6.23
645.505	23.77
645.539	4.77
645.572	1.77
645.606	4.77
645.64	12.77
645.673	10.77
645.707	21.77
645.741	7.77
645.774	1.77
645.808	19.77
645.842	-1.23
645.875	8.77
645.909	-16.23
645.943	2.77
645.976	8.77
646.01	23.77
646.043	12.77
646.077	15.77
646.111	14.77
646.144	15.77
646.178	11.77
646.212	-18.23
646.245	1.77
646.279	8.77
646.312	18.77
646.346	12.77
646.38	-11.23
646.413	-7.23
646.447	-5.23
646.48	6.77
646.514	17.77
646.547	1.77
646.581	7.77
646.615	-1.23
646.648	-12.23
646.682	-7.23
646.715	7.77
646.749	23.77
646.782	-5.23
646.816	-3.23
646.85	10.77
646.883	-2.23
646.917	12.77
646.95	-3.23
646.984	9.77
647.017	-1.23
647.051	0.77
647.084	20.77
647.118	-2.23
647.151	2.77
647.185	3.77
647.218	-2.23
647.252	8.77
647.285	-8.23
647.319	-3.23
647.353	-2.23
647.386	17.77
647.42	2.77
647.453	-7.23
647.487	1.77
647.52	5.77
647.553	8.77
647.587	4.77
647.62	-8.23
647.654	-2.23
647.687	-2.23
647.721	4.77
647.754	13.77
647.788	-8.23
647.821	-18.23
647.855	-1.23
647.888	4.77
647.922	20.77
647.955	10.77
647.989	7.77
648.022	-1.23
648.055	16.77
648.089	2.77
648.122	20.77
648.156	0.77
648.189	9.77
648.223	0.77
648.256	13.77
648.29	7.77
648.323	-0.23
648.356	23.77
648.39	17.77
648.423	-2.23
648.457	-1.23
648.49	7.77
648.523	26.77
648.557	-15.23
648.59	-1.23
648.624	4.77
648.657	0.77
648.69	32.77
648.724	16.77
648.757	24.77
648.791	12.77
648.824	16.77
648.857	19.77
648.891	12.77
648.924	-3.23
648.957	13.77
648.991	-3.23
649.024	17.77
649.057	-3.23
649.091	2.77
649.124	10.77
649.158	12.77
649.191	18.77
649.224	-2.23
649.258	21.77
649.291	17.77
649.324	19.77
649.358	-4.23
649.391	10.77
649.424	14.77
649.458	2.77
649.491	-12.23
649.524	1.77
649.557	1.77
649.591	-15.23
649.624	5.77
649.657	-7.23
649.691	-3.23
649.724	2.77
649.757	-9.23
649.791	5.77
649.824	5.77
649.857	4.77
649.89	-11.23
649.924	-3.23
649.957	-3.23
649.99	-9.23
650.023	-7.23
650.057	-7.23
650.09	12.77
650.123	8.77
650.157	28.77
650.19	11.77
650.223	-2.23
650.256	-11.23
650.29	-3.23
650.323	2.77
650.356	5.77
650.389	5.77
650.423	3.77
650.456	2.77
650.489	-2.23
650.522	-0.23
650.555	29.77
650.589	4.77
650.622	-0.23
650.655	5.77
650.688	11.77
650.721	-4.23
650.755	9.77
650.788	4.77
650.821	-5.23
650.854	0.77
650.887	-1.23
650.921	-7.23
650.954	19.77
650.987	1.77
651.02	-2.23
651.053	-6.23
651.087	4.77
651.12	5.77
651.153	3.77
651.186	4.77
651.219	-3.23
651.252	14.77
651.286	24.77
651.319	-12.23
651.352	-8.23
651.385	2.77
651.418	-1.23
651.451	15.77
651.484	14.77
651.518	10.77
651.551	10.77
651.584	-18.23
651.617	20.77
651.65	9.77
651.683	23.77
651.716	-0.23
651.749	-10.23
651.783	-5.23
651.816	3.77
651.849	6.77
651.882	16.77
651.915	-5.23
651.948	14.77
651.981	-2.23
652.014	-6.23
652.047	-14.23
652.08	-11.23
652.114	-0.23
652.147	-5.23
652.18	4.77
652.213	21.77
652.246	-14.23
652.279	-14.23
652.312	4.77
652.345	-4.23
652.378	0.77
652.411	18.77
652.444	21.77
652.477	-4.23
652.51	4.77
652.543	3.77
652.576	3.77
652.609	-3.23
652.642	7.77
652.675	18.77
652.709	3.77
652.742	2.77
652.775	-7.23
652.808	9.77
652.841	-5.23
652.874	-6.23
652.907	2.77
652.94	-3.23
652.973	-7.23
653.006	-8.23
653.039	6.77
653.072	9.77
653.105	5.77
653.138	-4.23
653.171	-5.23
653.204	-5.23
653.237	9.77
653.27	-6.23
653.303	-2.23
653.336	14.77
653.368	-0.23
653.401	28.77
653.434	1.77
653.467	5.77
653.5	-12.23
653.533	-0.23
653.566	-4.23
653.599	-5.23
653.632	-0.23
653.665	6.77
653.698	-3.23
653.731	6.77
653.764	9.77
653.797	-8.23
653.83	-1.23
653.863	-11.23
653.896	-4.23
653.929	1.77
653.961	14.77
653.994	10.77
654.027	-18.23
654.06	10.77
654.093	-5.23
654.126	3.77
654.159	-2.23
654.192	3.77
654.225	-4.23
654.258	-9.23
654.29	5.77
654.323	4.77
654.356	8.77
654.389	16.77
654.422	4.77
654.455	7.77
654.488	10.77
654.521	-1.23
654.553	3.77
654.586	4.77
654.619	1.77
654.652	7.77
654.685	2.77
654.718	12.77
654.751	4.77
654.783	-6.23
654.816	21.77
654.849	6.77
654.882	-0.23
654.915	-28.23
654.948	4.77
654.98	-3.23
655.013	10.77
655.046	1.77
655.079	9.77
655.112	11.77
655.144	-10.23
655.177	5.77
655.21	4.77
655.243	19.77
655.276	14.77
655.308	-0.23
655.341	-9.23
655.374	14.77
655.407	-15.23
655.44	5.77
655.472	7.77
655.505	4.77
655.538	-6.23
655.571	16.77
655.603	-18.23
655.636	0.77
655.669	26.77
655.702	8.77
655.734	0.77
655.767	28.77
655.8	11.77
655.833	18.77
655.865	34.77
655.898	18.77
655.931	34.77
655.964	33.77
655.996	57.77
656.029	74.77
656.062	60.77
656.095	69.77
656.127	59.77
656.16	93.77
656.193	135.77
656.225	177.77
656.258	274.77
656.291	501.77
656.324	1086.77
656.356	3397.77
656.389	7575.77
656.422	6052.77
656.454	2091.77
656.487	715.77
656.52	265.77
656.552	120.77
656.585	83.77
656.618	60.77
656.65	41.77
656.683	32.77
656.716	35.77
656.748	14.77
656.781	-2.23
656.814	9.77
656.846	-0.23
656.879	14.77
656.912	5.77
656.944	-2.23
656.977	-10.23
657.01	0.77
657.042	-4.23
657.075	3.77
657.108	9.77
657.14	9.77
657.173	8.77
657.205	21.77
657.238	16.77
657.271	9.77
657.303	-9.23
657.336	-7.23
657.369	7.77
657.401	-4.23
657.434	-9.23
657.466	2.77
657.499	0.77
657.532	-5.23
657.564	23.77
657.597	4.77
657.629	-7.23
657.662	1.77
657.694	11.77
657.727	-7.23
657.76	11.77
657.792	-9.23
657.825	-2.23
657.857	7.77
657.89	-8.23
657.922	4.77
657.955	3.77
657.987	6.77
658.02	17.77
658.053	13.77
658.085	3.77
658.118	3.77
658.15	8.77
658.183	19.77
658.215	-3.23
658.248	-3.23
658.28	-16.23
658.313	26.77
658.345	8.77
658.378	2.77
658.41	-3.23
658.443	10.77
658.475	4.77
658.508	10.77
658.54	7.77
658.573	-12.23
658.605	-0.23
658.638	-5.23
658.67	-11.23
658.703	4.77
658.735	-8.23
658.768	14.77
658.8	-8.23
658.833	25.77
658.865	12.77
658.898	5.77
658.93	-0.23
658.963	12.77
658.995	-19.23
659.028	12.77
659.06	5.77
659.092	10.77
659.125	-8.23
659.157	0.77
659.19	-22.23
659.222	-12.23
659.255	16.77
659.287	-10.23
659.32	-7.23
659.352	-2.23
659.384	22.77
659.417	-2.23
659.449	-8.23
659.482	5.77
659.514	1.77
659.546	0.77
659.579	-1.23
659.611	10.77
659.644	-6.23
659.676	0.77
659.708	-6.23
659.741	-18.23
659.773	5.77
659.806	16.77
659.838	-5.23
659.87	-8.23
659.903	8.77
659.935	14.77
659.967	11.77
660	14.77
660.032	-23.23
660.065	16.77
660.097	10.77
660.129	1.77
660.162	-0.23
660.194	-1.23
660.226	6.77
660.259	0.77
660.291	3.77
660.323	-11.23
660.356	-5.23
660.388	-10.23
660.42	-8.23
660.453	26.77
660.485	12.77
660.517	17.77
660.55	14.77
660.582	2.77
660.614	3.77
660.647	2.77
660.679	-8.23
660.711	20.77
660.743	-14.23
660.776	-15.23
660.808	-2.23
660.84	2.77
660.873	1.77
660.905	8.77
660.937	-7.23
660.969	7.77
661.002	-5.23
661.034	14.77
661.066	-1.23
661.099	4.77
661.131	12.77
661.163	8.77
661.195	-5.23
661.228	16.77
661.26	-0.23
661.292	-8.23
661.324	12.77
661.357	5.77
661.389	10.77
661.421	9.77
661.453	1.77
661.485	-5.23
661.518	0.77
661.55	-11.23
661.582	-8.23
661.614	-1.23
661.647	2.77
661.679	-9.23
661.711	6.77
661.743	-5.23
661.775	0.77
661.808	11.77
661.84	-15.23
661.872	0.77
661.904	9.77
661.936	0.77
661.969	-14.23
662.001	1.77
662.033	8.77
662.065	-5.23
662.097	9.77
662.129	12.77
662.162	-5.23
662.194	12.77
662.226	-3.23
662.258	25.77
662.29	1.77
662.322	-2.23
662.355	-6.23
662.387	32.77
662.419	11.77
662.451	13.77
662.483	-5.23
662.515	-4.23
662.547	-3.23
662.58	-11.23
662.612	-29.23
662.644	-11.23
662.676	-8.23
662.708	8.77
662.74	3.77
662.772	3.77
662.804	-3.23
662.836	4.77
662.869	4.77
662.901	22.77
662.933	1.77
662.965	10.77
662.997	-4.23
663.029	-11.23
663.061	-9.23
663.093	-9.23
663.125	10.77
663.157	12.77
663.189	0.77
663.221	14.77
663.254	5.77
663.286	6.77
663.318	10.77
663.35	4.77
663.382	3.77
663.414	6.77
663.446	9.77
663.478	-8.23
663.51	31.77
663.542	-4.23
663.574	4.77
663.606	-1.23
663.638	-11.23
663.67	2.77
663.702	3.77
663.734	5.77
663.766	8.77
663.798	-10.23
663.83	9.77
663.862	10.77
663.894	-0.23
663.926	10.77
663.958	11.77
663.99	0.77
664.022	-4.23
664.054	5.77
664.086	2.77
664.118	-12.23
664.15	-12.23
664.182	3.77
664.214	-2.23
664.246	4.77
664.278	14.77
664.31	18.77
664.342	8.77
664.374	8.77
664.406	2.77
664.438	-7.23
664.47	7.77
664.502	11.77
664.534	-0.23
664.566	-8.23
664.598	18.77
664.63	3.77
664.662	7.77
664.693	-6.23
664.725	-2.23
664.757	-3.23
664.789	-10.23
664.821	-1.23
664.853	16.77
664.885	3.77
664.917	-6.23
664.949	15.77
664.981	18.77
665.013	9.77
665.045	-18.23
665.076	3.77
665.108	-8.23
665.14	1.77
665.172	2.77
665.204	0.77
665.236	-11.23
665.268	30.77
665.3	-4.23
665.331	-7.23
665.363	2.77
665.395	0.77
665.427	-7.23
665.459	3.77
665.491	-2.23
665.523	4.77
665.555	12.77
665.586	14.77
665.618	-15.23
665.65	-13.23
665.682	13.77
665.714	9.77
665.746	11.77
665.777	14.77
665.809	18.77
665.841	1.77
665.873	0.77
665.905	10.77
665.937	9.77
665.968	10.77
666	4.77
666.032	-0.23
666.064	-17.23
666.096	0.77
666.127	8.77
666.159	8.77
666.191	1.77
666.223	5.77
666.255	9.77
666.286	0.77
666.318	-11.23
666.35	19.77
666.382	9.77
666.413	-9.23
666.445	-19.23
666.477	1.77
666.509	-1.23
666.54	-7.23
666.572	-5.23
666.604	2.77
666.636	16.77
666.667	24.77
666.699	30.77
666.731	6.77
666.763	-5.23
666.794	5.77
666.826	12.77
666.858	-2.23
666.89	4.77
666.921	11.77
666.953	11.77
666.985	8.77
667.017	8.77
667.048	-4.23
667.08	-26.23
667.112	-8.23
667.143	-3.23
667.175	7.77
667.207	7.77
667.238	-4.23
667.27	-1.23
667.302	-4.23
667.334	5.77
667.365	10.77
667.397	-0.23
667.429	-24.23
667.46	15.77
667.492	11.77
667.524	-1.23
667.555	-7.23
667.587	8.77
667.619	-0.23
667.65	-10.23
667.682	9.77
667.714	6.77
667.745	-11.23
667.777	9.77
667.808	7.77
667.84	-5.23
667.872	6.77
667.903	9.77
667.935	8.77
667.967	9.77
667.998	13.77
668.03	2.77
668.061	9.77
668.093	7.77
668.125	0.77
668.156	11.77
668.188	-3.23
668.22	-0.23
668.251	6.77
668.283	1.77
668.314	14.77
668.346	-0.23
668.377	0.77
668.409	-11.23
668.441	16.77
668.472	21.77
668.504	23.77
668.535	11.77
668.567	16.77
668.599	3.77
668.63	6.77
668.662	6.77
668.693	16.77
668.725	3.77
668.756	8.77
668.788	3.77
668.819	3.77
668.851	5.77
668.882	-1.23
668.914	4.77
668.946	-1.23
668.977	-3.23
669.009	-12.23
669.04	2.77
669.072	10.77
669.103	5.77
669.135	-2.23
669.166	2.77
669.198	-7.23
669.229	8.77
669.261	0.77
669.292	2.77
669.324	7.77
669.355	5.77
669.387	0.77
669.418	11.77
669.45	-16.23
669.481	16.77
669.513	20.77
669.544	6.77
669.576	-5.23
669.607	2.77
669.639	11.77
669.67	-10.23
669.701	2.77
669.733	-1.23
669.764	1.77
669.796	1.77
669.827	-10.23
669.859	-16.23
669.89	5.77
669.922	19.77
669.953	15.77
669.985	10.77
670.016	8.77
670.047	5.77
670.079	-10.23
670.11	8.77
670.142	-1.23
670.173	-7.23
670.204	2.77
670.236	-8.23
670.267	-9.23
670.299	6.77
670.33	14.77
670.362	14.77
670.393	-5.23
670.424	12.77
670.456	-15.23
670.487	4.77
670.518	16.77
670.55	-3.23
670.581	-9.23
670.613	3.77
670.644	0.77
670.675	-5.23
670.707	-14.23
670.738	-5.23
670.769	-5.23
670.801	-5.23
670.832	1.77
670.864	-18.23
670.895	-3.23
670.926	-12.23
670.958	3.77
670.989	16.77
671.02	-11.23
671.052	12.77
671.083	-7.23
671.114	2.77
671.146	18.77
671.177	-3.23
671.208	-5.23
671.24	-8.23
671.271	-7.23
671.302	16.77
671.333	-0.23
671.365	-2.23
671.396	-4.23
671.427	20.77
671.459	-1.23
671.49	14.77
671.521	9.77
671.553	1.77
671.584	1.77
671.615	1.77
671.646	5.77
671.678	5.77
671.709	-13.23
671.74	-15.23
671.771	-8.23
671.803	-5.23
671.834	7.77
671.865	-9.23
671.896	4.77
671.928	-2.23
671.959	-8.23
671.99	-11.23
672.021	6.77
672.053	-5.23
672.084	-2.23
672.115	3.77
672.146	6.77
672.178	-23.23
672.209	-16.23
672.24	-13.23
672.271	16.77
672.303	2.77
672.334	-4.23
672.365	13.77
672.396	4.77
672.427	0.77
672.459	7.77
672.49	22.77
672.521	10.77
672.552	18.77
672.583	31.77
672.615	10.77
672.646	2.77
672.677	3.77
672.708	7.77
672.739	-5.23
672.77	16.77
672.802	4.77
672.833	-12.23
672.864	9.77
672.895	14.77
672.926	5.77
672.957	-13.23
672.989	-0.23
673.02	-8.23
673.051	-7.23
673.082	14.77
673.113	9.77
673.144	16.77
673.175	4.77
673.206	-3.23
673.238	-5.23
673.269	-9.23
673.3	-11.23
673.331	4.77
673.362	-5.23
673.393	-7.23
673.424	5.77
673.455	21.77
673.487	6.77
673.518	17.77
673.549	-2.23
673.58	-9.23
673.611	9.77
673.642	-1.23
673.673	-25.23
673.704	-4.23
673.735	2.77
673.766	14.77
673.797	6.77
673.828	4.77
673.86	-6.23
673.891	-18.23
673.922	-8.23
673.953	-3.23
673.984	10.77
674.015	0.77
674.046	-4.23
674.077	4.77
674.108	-32.23
674.139	-8.23
674.17	-5.23
674.201	-16.23
674.232	3.77
674.263	-3.23
674.294	-0.23
674.325	3.77
674.356	19.77
674.387	17.77
674.418	-5.23
674.449	-4.23
674.48	-20.23
674.511	10.77
674.542	9.77
674.573	-2.23
674.604	8.77
674.635	4.77
674.666	5.77
674.697	11.77
674.728	0.77
674.759	4.77
674.79	0.77
674.821	-4.23
674.852	-5.23
674.883	-12.23
674.914	-8.23
674.945	-8.23
674.976	-9.23
675.007	-12.23
675.038	3.77
675.069	-11.23
675.1	-21.23
675.131	-2.23
675.162	-17.23
675.193	-3.23
675.224	0.77
675.254	16.77
675.285	0.77
675.316	9.77
675.347	-7.23
675.378	-3.23
675.409	2.77
675.44	13.77
675.471	7.77
675.502	0.77
675.533	11.77
675.564	-0.23
675.595	-13.23
675.625	22.77
675.656	-0.23
675.687	8.77
675.718	-2.23
675.749	-3.23
675.78	-5.23
675.811	-18.23
675.842	12.77
675.873	6.77
675.903	2.77
675.934	3.77
675.965	-3.23
675.996	-0.23
676.027	6.77
676.058	-7.23
676.089	-15.23
676.119	5.77
676.15	7.77
676.181	-2.23
676.212	-9.23
676.243	20.77
676.274	-14.23
676.304	19.77
676.335	-14.23
676.366	-4.23
676.397	-4.23
676.428	5.77
676.459	15.77
676.489	2.77
676.52	4.77
676.551	-4.23
676.582	-13.23
676.613	4.77
676.643	-3.23
676.674	1.77
676.705	-21.23
676.736	-11.23
676.767	3.77
676.797	12.77
676.828	8.77
676.859	14.77
676.89	-1.23
676.92	2.77
676.951	9.77
676.982	-13.23
677.013	-3.23
677.044	20.77
677.074	10.77
677.105	12.77
677.136	7.77
677.167	-0.23
677.197	20.77
677.228	0.77
677.259	-0.23
677.289	1.77
677.32	-6.23
677.351	-7.23
677.382	0.77
677.412	-15.23
677.443	1.77
677.474	-14.23
677.505	-5.23
677.535	1.77
677.566	-1.23
677.597	-9.23
677.627	-12.23
677.658	-0.23
677.689	-6.23
677.72	-6.23
677.75	-4.23
677.781	0.77
677.812	4.77
677.842	6.77
677.873	6.77
677.904	10.77
677.934	-7.23
677.965	4.77
677.996	-12.23
678.026	-1.23
678.057	1.77
678.088	-5.23
678.118	7.77
678.149	3.77
678.18	1.77
678.21	-8.23
678.241	1.77
678.272	2.77
678.302	-13.23
678.333	5.77
678.363	0.77
678.394	-9.23
678.425	-1.23
678.455	-0.23
678.486	7.77
678.517	-10.23
678.547	-2.23
678.578	0.77
678.608	-2.23
678.639	13.77
678.67	9.77
678.7	-6.23
678.731	9.77
678.761	4.77
678.792	-6.23
678.823	14.77
678.853	4.77
678.884	13.77
678.914	19.77
678.945	20.77
678.975	6.77
679.006	3.77
679.037	-5.23
679.067	22.77
679.098	-5.23
679.128	-3.23
679.159	-8.23
679.189	8.77
679.22	-2.23
679.25	9.77
679.281	-11.23
679.312	-1.23
679.342	-8.23
679.373	14.77
679.403	7.77
679.434	15.77
679.464	10.77
679.495	13.77
679.525	14.77
679.556	-7.23
679.586	12.77
679.617	9.77
679.647	10.77
679.678	5.77
679.708	-0.23
679.739	-5.23
679.769	-7.23
679.8	2.77
679.83	-3.23
679.861	13.77
679.891	8.77
679.922	-7.23
679.952	-7.23
679.983	-4.23
680.013	1.77
680.044	0.77
680.074	8.77
680.105	8.77
680.135	4.77
680.165	20.77
680.196	14.77
680.226	11.77
680.257	-5.23
680.287	0.77
680.318	18.77
680.348	-4.23
680.379	4.77
680.409	6.77
680.439	2.77
680.47	5.77
680.5	2.77
680.531	6.77
680.561	10.77
680.592	0.77
680.622	10.77
680.652	14.77
680.683	10.77
680.713	5.77
680.744	-3.23
680.774	-8.23
680.804	-1.23
680.835	2.77
680.865	-9.23
680.896	26.77
680.926	19.77
680.956	1.77
680.987	13.77
681.017	-28.23
681.047	4.77
681.078	-3.23
681.108	-7.23
681.139	-9.23
681.169	1.77
681.199	-4.23
681.23	-2.23
681.26	-6.23
681.29	7.77
681.321	1.77
681.351	2.77
681.381	-8.23
681.412	13.77
681.442	3.77
681.472	6.77
681.503	15.77
681.533	16.77
681.563	-6.23
681.594	-15.23
681.624	11.77
681.654	-1.23
681.685	-8.23
681.715	8.77
681.745	11.77
681.775	8.77
681.806	-5.23
681.836	-2.23
681.866	-5.23
681.897	-16.23
681.927	-10.23
681.957	-9.23
681.987	13.77
682.018	10.77
682.048	4.77
682.078	-7.23
682.109	29.77
682.139	14.77
682.169	0.77
682.199	12.77
682.23	-4.23
682.26	0.77
682.29	-22.23
682.32	-8.23
682.351	-10.23
682.381	-8.23
682.411	-0.23
682.441	0.77
682.472	-2.23
682.502	-4.23
682.532	-23.23
682.562	4.77
682.592	10.77
682.623	2.77
682.653	11.77
682.683	8.77
682.713	11.77
682.743	2.77
682.774	7.77
682.804	11.77
682.834	14.77
682.864	-7.23
682.894	-4.23
682.925	-11.23
682.955	-8.23
682.985	-6.23
683.015	9.77
683.045	4.77
683.076	2.77
683.106	4.77
683.136	9.77
683.166	-24.23
683.196	-7.23
683.226	-6.23
683.257	1.77
683.287	-8.23
683.317	-19.23
683.347	4.77
683.377	11.77
683.407	12.77
683.437	-12.23
683.468	0.77
683.498	-7.23
683.528	4.77
683.558	15.77
683.588	5.77
683.618	-12.23
683.648	0.77
683.678	18.77
683.708	7.77
683.739	6.77
683.769	15.77
683.799	1.77
683.829	-4.23
683.859	4.77
683.889	13.77
683.919	-11.23
683.949	-2.23
683.979	-6.23
684.009	-13.23
684.039	2.77
684.07	15.77
684.1	15.77
684.13	-2.23
684.16	-5.23
684.19	0.77
684.22	17.77
684.25	0.77
684.28	-14.23
684.31	8.77
684.34	22.77
684.37	16.77
684.4	-2.23
684.43	12.77
684.46	-1.23
684.49	6.77
684.52	-3.23
684.55	16.77
684.58	-0.23
684.61	2.77
684.64	15.77
684.67	15.77
684.7	5.77
684.73	1.77
684.76	-2.23
684.79	21.77
684.82	10.77
684.85	0.77
684.88	5.77
684.91	14.77
684.94	2.77
684.97	-0.23
685	-18.23
685.03	-8.23
685.06	-4.23
685.09	-8.23
685.12	11.77
685.15	-9.23
685.18	-13.23
685.21	-8.23
685.24	11.77
685.27	9.77
685.3	12.77
685.33	16.77
685.36	7.77
685.39	1.77
685.42	-5.23
685.45	-15.23
685.48	-2.23
685.51	3.77
685.54	23.77
685.569	16.77
685.599	4.77
685.629	-1.23
685.659	-10.23
685.689	-4.23
685.719	-3.23
685.749	0.77
685.779	4.77
685.809	3.77
685.839	0.77
685.869	-20.23
685.898	-14.23
685.928	4.77
685.958	0.77
685.988	20.77
686.018	0.77
686.048	14.77
686.078	8.77
686.108	7.77
686.137	8.77
686.167	11.77
686.197	-8.23
686.227	0.77
686.257	21.77
686.287	21.77
686.317	-2.23
686.346	-8.23
686.376	-6.23
686.406	-6.23
686.436	8.77
686.466	-9.23
686.496	1.77
686.525	13.77
686.555	-7.23
686.585	9.77
686.615	23.77
686.645	2.77
686.675	-6.23
686.704	-2.23
686.734	1.77
686.764	0.77
686.794	7.77
686.824	13.77
686.853	14.77
686.883	16.77
686.913	12.77
686.943	12.77
686.973	2.77
687.002	7.77
687.032	7.77
687.062	-0.23
687.092	21.77
687.121	0.77
687.151	12.77
687.181	-1.23
687.211	14.77
687.24	0.77
687.27	6.77
687.3	5.77
687.33	12.77
687.359	-12.23
687.389	-6.23
687.419	-2.23
687.449	-3.23
687.478	8.77
687.508	12.77
687.538	13.77
687.568	7.77
687.597	-0.23
687.627	-2.23
687.657	7.77
687.686	14.77
687.716	19.77
687.746	-15.23
687.776	-8.23
687.805	-5.23
687.835	8.77
687.865	21.77
687.894	2.77
687.924	-1.23
687.954	-4.23
687.983	4.77
688.013	12.77
688.043	7.77
688.072	-21.23
688.102	-8.23
688.132	0.77
688.161	3.77
688.191	-11.23
688.221	24.77
688.25	-4.23
688.28	7.77
688.31	-8.23
688.339	3.77
688.369	-6.23
688.399	-16.23
688.428	-0.23
688.458	8.77
688.488	-13.23
688.517	3.77
688.547	-1.23
688.576	35.77
688.606	10.77
688.636	7.77
688.665	-8.23
688.695	20.77
688.725	5.77
688.754	2.77
688.784	17.77
688.813	17.77
688.843	-3.23
688.873	-16.23
688.902	1.77
688.932	-6.23
688.961	-4.23
688.991	14.77
689.02	18.77
689.05	-3.23
689.08	17.77
689.109	15.77
689.139	22.77
689.168	16.77
689.198	-1.23
689.227	3.77
689.257	7.77
689.287	28.77
689.316	1.77
689.346	-1.23
689.375	-19.23
689.405	2.77
689.434	-1.23
689.464	-6.23
689.493	6.77
689.523	5.77
689.552	-7.23
689.582	-0.23
689.611	-5.23
689.641	0.77
689.67	0.77
689.7	-5.23
689.73	5.77
689.759	1.77
689.789	0.77
689.818	0.77
689.848	12.77
689.877	30.77
689.906	6.77
689.936	-1.23
689.965	14.77
689.995	3.77
690.024	-5.23
690.054	-7.23
690.083	24.77
690.113	8.77
690.142	1.77
690.172	12.77
690.201	10.77
690.231	9.77
690.26	3.77
690.29	7.77
690.319	-2.23
690.348	-9.23
690.378	0.77
690.407	10.77
690.437	-9.23
690.466	6.77
690.496	-4.23
690.525	17.77
690.555	-6.23
690.584	-12.23
690.613	-3.23
690.643	18.77
690.672	16.77
690.702	5.77
690.731	-6.23
690.76	-18.23
690.79	-3.23
690.819	-6.23
690.849	8.77
690.878	3.77
690.907	-0.23
690.937	13.77
690.966	8.77
690.996	-0.23
691.025	-2.23
691.054	9.77
691.084	12.77
691.113	-0.23
691.142	15.77
691.172	18.77
691.201	9.77
691.23	3.77
691.26	5.77
691.289	-4.23
691.319	10.77
691.348	6.77
691.377	18.77
691.407	4.77
691.436	4.77
691.465	11.77
691.495	-19.23
691.524	-6.23
691.553	-23.23
691.583	-0.23
691.612	22.77
691.641	-0.23
691.67	-9.23
691.7	5.77
691.729	-9.23
691.758	8.77
691.788	4.77
691.817	2.77
691.846	-9.23
691.876	12.77
691.905	0.77
691.934	-4.23
691.963	16.77
691.993	3.77
692.022	0.77
692.051	-9.23
692.081	11.77
692.11	26.77
692.139	4.77
692.168	3.77
692.198	15.77
692.227	24.77
692.256	5.77
692.285	6.77
692.315	-6.23
692.344	0.77
692.373	9.77
692.402	-3.23
692.432	14.77
692.461	23.77
692.49	7.77
692.519	-5.23
692.548	1.77
692.578	10.77
692.607	-8.23
692.636	-6.23
692.665	16.77
692.694	-10.23
692.724	-6.23
692.753	7.77
692.782	12.77
692.811	-10.23
692.84	7.77
692.87	8.77
692.899	3.77
692.928	-0.23
692.957	10.77
692.986	7.77
693.016	9.77
693.045	2.77
693.074	2.77
693.103	-2.23
693.132	-3.23
693.161	14.77
693.191	-11.23
693.22	0.77
693.249	-6.23
693.278	-3.23
693.307	5.77
693.336	0.77
693.365	-14.23
693.395	-7.23
693.424	-8.23
693.453	4.77
693.482	10.77
693.511	18.77
693.54	13.77
693.569	1.77
693.598	-6.23
693.628	1.77
693.657	5.77
693.686	22.77
693.715	10.77
693.744	10.77
693.773	11.77
693.802	19.77
693.831	5.77
693.86	19.77
693.889	-2.23
693.919	6.77
693.948	-4.23
693.977	6.77
694.006	-0.23
694.035	6.77
694.064	1.77
694.093	2.77
694.122	3.77
694.151	-2.23
694.18	0.77
694.209	19.77
694.238	12.77
694.267	32.77
694.296	14.77
694.325	7.77
694.354	16.77
694.383	10.77
694.412	1.77
694.441	2.77
694.471	8.77
694.5	-16.23
694.529	3.77
694.558	22.77
694.587	-1.23
694.616	9.77
694.645	10.77
694.674	26.77
694.703	16.77
694.732	-14.23
694.761	6.77
694.79	-7.23
694.819	-18.23
694.848	7.77
694.877	22.77
694.906	38.77
694.935	5.77
694.963	27.77
694.992	8.77
695.021	-2.23
695.05	10.77
695.079	21.77
695.108	3.77
695.137	10.77
695.166	-5.23
695.195	-7.23
695.224	17.77
695.253	1.77
695.282	-7.23
695.311	9.77
695.34	4.77
695.369	4.77
695.398	6.77
695.427	15.77
695.456	0.77
695.485	-0.23
695.513	-14.23
695.542	-8.23
695.571	1.77
695.6	9.77
695.629	6.77
695.658	13.77
695.687	13.77
695.716	9.77
695.745	38.77
695.774	2.77
695.802	5.77
695.831	9.77
695.86	8.77
695.889	12.77
695.918	2.77
695.947	1.77
695.976	5.77
696.005	14.77
696.033	3.77
696.062	23.77
696.091	-1.23
696.12	2.77
696.149	8.77
696.178	6.77
696.207	12.77
696.235	-9.23
696.264	24.77
696.293	5.77
696.322	11.77
696.351	2.77
696.38	-8.23
696.408	6.77
696.437	15.77
696.466	13.77
696.495	12.77
696.524	8.77
696.553	4.77
696.581	-2.23
696.61	7.77
696.639	5.77
696.668	8.77
696.697	-1.23
696.725	9.77
696.754	-13.23
696.783	2.77
696.812	4.77
696.84	0.77
696.869	-0.23
696.898	-1.23
696.927	14.77
696.956	21.77
696.984	-1.23
697.013	-4.23
697.042	18.77
697.071	-0.23
697.099	11.77
697.128	19.77
697.157	9.77
697.186	28.77
697.214	2.77
697.243	-0.23
697.272	-5.23
697.301	15.77
697.329	11.77
697.358	4.77
697.387	22.77
697.415	8.77
697.444	7.77
697.473	-1.23
697.502	-8.23
697.53	12.77
697.559	-0.23
697.588	1.77
697.616	-1.23
697.645	-9.23
697.674	5.77
697.703	-11.23
697.731	18.77
697.76	15.77
697.789	11.77
697.817	13.77
697.846	22.77
697.875	9.77
697.903	18.77
697.932	3.77
697.961	12.77
697.989	10.77
698.018	14.77
698.047	11.77
698.075	6.77
698.104	-0.23
698.133	20.77
698.161	0.77
698.19	6.77
698.218	4.77
698.247	14.77
698.276	-1.23
698.304	13.77
698.333	3.77
698.362	12.77
698.39	9.77
698.419	21.77
698.447	-0.23
698.476	2.77
698.505	6.77
698.533	-3.23
698.562	-4.23
698.591	-8.23
698.619	-12.23
698.648	3.77
698.676	4.77
698.705	0.77
698.733	-6.23
698.762	17.77
698.791	9.77
698.819	-0.23
698.848	1.77
698.876	13.77
698.905	0.77
698.933	16.77
698.962	2.77
698.991	-2.23
699.019	13.77
699.048	4.77
699.076	22.77
699.105	-3.23
699.133	-11.23
699.162	13.77
699.19	16.77
699.219	3.77
699.248	2.77
699.276	-16.23
699.305	-9.23
699.333	0.77
699.362	1.77
699.39	11.77
699.419	-15.23
699.447	-7.23
699.476	-0.23
699.504	-2.23
699.533	-1.23
699.561	8.77
699.59	1.77
699.618	-3.23
699.647	3.77
699.675	-3.23
699.704	1.77
699.732	-3.23
699.761	-0.23
699.789	8.77
699.818	2.77
699.846	-8.23
699.874	-16.23
699.903	7.77
699.931	-1.23
699.96	4.77
699.988	-4.23
700.017	-0.23
700.045	-8.23
700.074	8.77
700.102	24.77
700.13	-11.23
700.159	-0.23
700.187	12.77
700.216	0.77
700.244	-7.23
700.273	6.77
700.301	14.77
700.329	14.77
700.358	8.77
700.386	-2.23
700.415	3.77
700.443	-21.23
700.472	-14.23
700.5	11.77
700.528	13.77
700.557	12.77
700.585	10.77
700.614	19.77
700.642	16.77
700.67	26.77
700.699	17.77
700.727	1.77
700.755	5.77
700.784	5.77
700.812	3.77
700.841	8.77
700.869	-0.23
700.897	-15.23
700.926	-0.23
700.954	-3.23
700.982	-4.23
701.011	0.77
701.039	12.77
701.067	0.77
701.096	13.77
701.124	-0.23
701.152	14.77
701.181	-9.23
701.209	-5.23
701.237	-6.23
701.266	1.77
701.294	-6.23
701.322	13.77
701.351	11.77
701.379	16.77
701.407	3.77
701.435	10.77
701.464	12.77
701.492	16.77
701.52	0.77
701.549	13.77
701.577	13.77
701.605	-3.23
701.634	-8.23
701.662	20.77
701.69	-4.23
701.718	-3.23
701.747	6.77
701.775	-0.23
701.803	-7.23
701.831	-0.23
701.86	-3.23
701.888	18.77
701.916	4.77
701.944	-0.23
701.973	-6.23
702.001	-22.23
702.029	-11.23
702.057	-14.23
702.086	-9.23
702.114	-6.23
702.142	4.77
702.17	-2.23
702.199	0.77
702.227	3.77
702.255	3.77
702.283	-2.23
702.311	12.77
702.34	1.77
702.368	6.77
702.396	3.77
702.424	-8.23
702.452	3.77
702.481	-0.23
702.509	5.77
702.537	-10.23
702.565	19.77
702.593	-5.23
702.621	-2.23
702.65	21.77
702.678	-0.23
702.706	8.77
702.734	-8.23
702.762	4.77
702.79	13.77
702.819	-2.23
702.847	11.77
702.875	16.77
702.903	14.77
702.931	-8.23
702.959	6.77
702.988	8.77
703.016	-11.23
703.044	-6.23
703.072	-1.23
703.1	-14.23
703.128	7.77
703.156	12.77
703.184	0.77
703.212	5.77
703.241	0.77
703.269	9.77
703.297	-3.23
703.325	8.77
703.353	-7.23
703.381	-8.23
703.409	-2.23
703.437	-0.23
703.465	-0.23
703.493	-2.23
703.522	-3.23
703.55	3.77
703.578	-11.23
703.606	1.77
703.634	3.77
703.662	3.77
703.69	-7.23
703.718	-0.23
703.746	6.77
703.774	0.77
703.802	21.77
703.83	-18.23
703.858	-4.23
703.886	-7.23
703.914	-12.23
703.942	25.77
703.97	3.77
703.998	-2.23
704.027	7.77
704.055	2.77
704.083	-8.23
704.111	-8.23
704.139	-7.23
704.167	-1.23
704.195	-7.23
704.223	-2.23
704.251	-6.23
704.279	-4.23
704.307	3.77
704.335	-18.23
704.363	5.77
704.391	-6.23
704.419	1.77
704.447	6.77
704.475	8.77
704.503	0.77
704.531	-1.23
704.558	5.77
704.586	6.77
704.614	11.77
704.642	13.77
704.67	-5.23
704.698	-2.23
704.726	4.77
704.754	5.77
704.782	5.77
704.81	4.77
704.838	7.77
704.866	6.77
704.894	-4.23
704.922	-1.23
704.95	4.77
704.978	8.77
705.006	7.77
705.034	12.77
705.061	-18.23
705.089	1.77
705.117	-21.23
705.145	6.77
705.173	12.77
705.201	-6.23
705.229	14.77
705.257	8.77
705.285	6.77
705.313	7.77
705.34	-4.23
705.368	-6.23
705.396	7.77
705.424	11.77
705.452	-2.23
705.48	6.77
705.508	4.77
705.536	18.77
705.563	2.77
705.591	-5.23
705.619	6.77
705.647	-3.23
705.675	8.77
705.703	17.77
705.731	-8.23
705.758	1.77
705.786	9.77
705.814	24.77
705.842	7.77
705.87	20.77
705.898	10.77
705.925	-10.23
705.953	9.77
705.981	6.77
706.009	-10.23
706.037	-3.23
706.065	-11.23
706.092	-15.23
706.12	-2.23
706.148	-1.23
706.176	1.77
706.204	4.77
706.231	9.77
706.259	-6.23
706.287	15.77
706.315	2.77
706.342	-7.23
706.37	22.77
706.398	9.77
706.426	0.77
706.454	4.77
706.481	19.77
706.509	-5.23
706.537	-4.23
706.565	-2.23
706.592	12.77
706.62	7.77
706.648	3.77
706.676	-8.23
706.703	5.77
706.731	-3.23
706.759	6.77
706.787	-5.23
706.814	7.77
706.842	0.77
706.87	5.77
706.897	2.77
706.925	-7.23
706.953	18.77
706.981	18.77
707.008	7.77
707.036	4.77
707.064	-0.23
707.091	-8.23
707.119	4.77
707.147	-6.23
707.174	-6.23
707.202	11.77
707.23	-8.23
707.258	0.77
707.285	-17.23
707.313	16.77
707.341	-1.23
707.368	-5.23
707.396	-7.23
707.424	11.77
707.451	-8.23
707.479	-15.23
707.507	-2.23
707.534	-4.23
707.562	-2.23
707.59	0.77
707.617	-2.23
707.645	6.77
707.672	-7.23
707.7	-0.23
707.728	4.77
707.755	-7.23
707.783	0.77
707.811	-4.23
707.838	1.77
707.866	0.77
707.893	-3.23
707.921	-1.23
707.949	0.77
707.976	4.77
708.004	-0.23
708.031	-2.23
708.059	-3.23
708.087	5.77
708.114	-11.23
708.142	13.77
708.169	0.77
708.197	-4.23
708.225	6.77
708.252	-5.23
708.28	-10.23
708.307	-20.23
708.335	-5.23
708.362	0.77
708.39	-9.23
708.418	3.77
708.445	-2.23
708.473	-5.23
708.5	-9.23
708.528	-2.23
708.555	15.77
708.583	3.77
708.61	2.77
708.638	14.77
708.665	-1.23
708.693	6.77
708.72	7.77
708.748	-14.23
708.776	-8.23
708.803	19.77
708.831	-3.23
708.858	18.77
708.886	-4.23
708.913	5.77
708.941	-18.23
708.968	21.77
708.996	1.77
709.023	18.77
709.051	0.77
709.078	6.77
709.105	14.77
709.133	4.77
709.16	-0.23
709.188	20.77
709.215	8.77
709.243	8.77
709.27	-13.23
709.298	1.77
709.325	1.77
709.353	13.77
709.38	10.77
709.408	20.77
709.435	-0.23
709.462	0.77
709.49	-3.23
709.517	3.77
709.545	-9.23
709.572	0.77
709.6	2.77
709.627	4.77
709.655	-13.23
709.682	-9.23
709.709	-4.23
709.737	4.77
709.764	1.77
709.792	11.77
709.819	4.77
709.846	-12.23
709.874	7.77
709.901	1.77
709.929	28.77
709.956	7.77
709.983	-6.23
710.011	6.77
710.038	0.77
710.066	-1.23
710.093	12.77
710.12	7.77
710.148	-4.23
710.175	-15.23
710.202	0.77
710.23	6.77
710.257	0.77
710.284	3.77
710.312	5.77
710.339	-3.23
710.366	-7.23
710.394	4.77
710.421	-3.23
710.448	19.77
710.476	-11.23
710.503	-4.23
710.53	7.77
710.558	14.77
710.585	11.77
710.612	4.77
710.64	-5.23
710.667	5.77
710.694	-2.23
710.722	0.77
710.749	-1.23
710.776	4.77
710.804	8.77
710.831	7.77
710.858	5.77
710.885	0.77
710.913	-5.23
710.94	16.77
710.967	0.77
710.995	7.77
711.022	5.77
711.049	6.77
711.076	-5.23
711.104	-2.23
711.131	-10.23
711.158	2.77
711.185	15.77
711.213	5.77
711.24	-4.23
711.267	-5.23
711.294	1.77
711.322	5.77
711.349	-1.23
711.376	-2.23
711.403	1.77
711.431	-10.23
711.458	-7.23
711.485	3.77
711.512	4.77
711.54	-10.23
711.567	-8.23
711.594	-12.23
711.621	-0.23
711.648	6.77
711.676	5.77
711.703	0.77
711.73	-15.23
711.757	11.77
711.784	0.77
711.812	4.77
711.839	-12.23
711.866	-20.23
711.893	-13.23
711.92	6.77
711.947	14.77
711.975	13.77
712.002	2.77
712.029	11.77
712.056	1.77
712.083	11.77
712.11	-3.23
712.138	7.77
712.165	6.77
712.192	7.77
712.219	1.77
712.246	-28.23
712.273	-13.23
712.3	-11.23
712.328	-1.23
712.355	9.77
712.382	-13.23
712.409	13.77
712.436	-8.23
712.463	20.77
712.49	-2.23
712.517	-5.23
712.544	-9.23
712.572	3.77
712.599	2.77
712.626	11.77
712.653	-12.23
712.68	0.77
712.707	24.77
712.734	27.77
712.761	4.77
712.788	-2.23
712.815	-12.23
712.842	7.77
712.87	0.77
712.897	-8.23
712.924	-6.23
712.951	4.77
712.978	3.77
713.005	16.77
713.032	-4.23
713.059	1.77
713.086	-5.23
713.113	-5.23
713.14	-9.23
713.167	7.77
713.194	15.77
713.221	-1.23
713.248	-0.23
713.275	1.77
713.302	1.77
713.329	0.77
713.356	16.77
713.383	2.77
713.41	3.77
713.437	-12.23
713.464	5.77
713.491	0.77
713.518	12.77
713.545	-2.23
713.572	-10.23
713.599	17.77
713.626	0.77
713.653	16.77
713.68	-13.23
713.707	-2.23
713.734	-2.23
713.761	-9.23
713.788	-10.23
713.815	4.77
713.842	4.77
713.869	5.77
713.896	-6.23
713.923	9.77
713.95	3.77
713.977	1.77
714.004	-5.23
714.031	-3.23
714.058	2.77
714.085	-10.23
714.112	20.77
714.139	2.77
714.165	-11.23
714.192	-23.23
714.219	4.77
714.246	4.77
714.273	4.77
714.3	2.77
714.327	6.77
714.354	0.77
714.381	3.77
714.408	4.77
714.435	2.77
714.461	3.77
714.488	7.77
714.515	-6.23
714.542	-5.23
714.569	-14.23
714.596	0.77
714.623	13.77
714.65	-4.23
714.677	3.77
714.703	3.77
714.73	4.77
714.757	12.77
714.784	-0.23
714.811	-13.23
714.838	6.77
714.865	-7.23
714.891	27.77
714.918	0.77
714.945	-1.23
714.972	0.77
714.999	4.77
715.026	-7.23
715.052	10.77
715.079	0.77
715.106	15.77
715.133	5.77
715.16	0.77
715.187	3.77
715.213	6.77
715.24	-3.23
715.267	-6.23
715.294	-13.23
715.321	-6.23
715.347	-11.23
715.374	1.77
715.401	-2.23
715.428	1.77
715.455	10.77
715.481	0.77
715.508	-0.23
715.535	2.77
715.562	25.77
715.588	1.77
715.615	9.77
715.642	-3.23
715.669	8.77
715.695	-11.23
715.722	-22.23
715.749	9.77
715.776	7.77
715.802	0.77
715.829	-3.23
715.856	-10.23
715.883	10.77
715.909	-15.23
715.936	5.77
715.963	6.77
715.99	-5.23
716.016	8.77
716.043	12.77
716.07	-2.23
716.096	-22.23
716.123	-7.23
716.15	3.77
716.177	3.77
716.203	4.77
716.23	12.77
716.257	13.77
716.283	4.77
716.31	16.77
716.337	3.77
716.363	1.77
716.39	-0.23
716.417	12.77
716.443	2.77
716.47	8.77
716.497	8.77
716.523	15.77
716.55	-3.23
716.577	7.77
716.603	-4.23
716.63	13.77
716.657	21.77
716.683	-4.23
716.71	3.77
716.737	0.77
716.763	5.77
716.79	-2.23
716.817	9.77
716.843	-4.23
716.87	-13.23
716.897	-3.23
716.923	8.77
716.95	5.77
716.976	-14.23
717.003	4.77
717.03	12.77
717.056	-6.23
717.083	-1.23
717.109	11.77
717.136	-3.23
717.163	-11.23
717.189	3.77
717.216	4.77
717.242	2.77
717.269	-0.23
717.296	18.77
717.322	12.77
717.349	20.77
717.375	15.77
717.402	5.77
717.428	-0.23
717.455	8.77
717.481	3.77
717.508	20.77
717.535	9.77
717.561	0.77
717.588	-3.23
717.614	-11.23
717.641	0.77
717.667	-2.23
717.694	-2.23
717.72	3.77
717.747	12.77
717.773	-4.23
717.8	13.77
717.826	6.77
717.853	4.77
717.88	4.77
717.906	2.77
717.933	5.77
717.959	11.77
717.986	2.77
718.012	-6.23
718.039	7.77
718.065	-9.23
718.092	5.77
718.118	-11.23
718.144	20.77
718.171	25.77
718.197	26.77
718.224	8.77
718.25	8.77
718.277	3.77
718.303	3.77
718.33	4.77
718.356	-11.23
718.383	3.77
718.409	8.77
718.436	0.77
718.462	0.77
718.489	-3.23
718.515	-2.23
718.541	19.77
718.568	4.77
718.594	4.77
718.621	7.77
718.647	0.77
718.674	13.77
718.7	18.77
718.726	-4.23
718.753	-8.23
718.779	3.77
718.806	-12.23
718.832	-8.23
718.858	2.77
718.885	-11.23
718.911	-0.23
718.938	11.77
718.964	-5.23
718.99	-0.23
719.017	-2.23
719.043	13.77
719.07	20.77
719.096	7.77
719.122	8.77
719.149	3.77
719.175	7.77
719.201	1.77
719.228	-6.23
719.254	6.77
719.281	-8.23
719.307	-7.23
719.333	3.77
719.36	4.77
719.386	0.77
719.412	15.77
719.439	1.77
719.465	-9.23
719.491	-3.23
719.518	14.77
719.544	-0.23
719.57	20.77
719.597	-3.23
719.623	-6.23
719.649	19.77
719.675	11.77
719.702	-0.23
719.728	4.77
719.754	-12.23
719.781	4.77
719.807	0.77
719.833	-1.23
719.86	6.77
719.886	-4.23
719.912	-6.23
719.938	16.77
719.965	5.77
719.991	1.77
720.017	-5.23
720.044	-0.23
720.07	-4.23
720.096	7.77
720.122	3.77
720.149	-2.23
720.175	22.77
720.201	12.77
720.227	2.77
720.254	-1.23
720.28	6.77
720.306	-0.23
720.332	9.77
720.359	-2.23
720.385	8.77
720.411	5.77
720.437	9.77
720.463	7.77
720.49	5.77
720.516	-3.23
720.542	-8.23
720.568	0.77
720.595	7.77
720.621	11.77
720.647	17.77
720.673	-0.23
720.699	0.77
720.725	8.77
720.752	5.77
720.778	19.77
720.804	13.77
720.83	-15.23
720.856	-3.23
720.883	-18.23
720.909	5.77
720.935	2.77
720.961	10.77
720.987	8.77
721.013	0.77
721.04	3.77
721.066	2.77
721.092	1.77
721.118	4.77
721.144	4.77
721.17	-0.23
721.196	1.77
721.223	-7.23
721.249	11.77
721.275	3.77
721.301	-0.23
721.327	5.77
721.353	9.77
721.379	2.77
721.405	-2.23
721.432	7.77
721.458	-11.23
721.484	-6.23
721.51	-16.23
721.536	3.77
721.562	-0.23
721.588	6.77
721.614	-9.23
721.64	-7.23
721.666	2.77
721.693	-6.23
721.719	-8.23
721.745	-7.23
721.771	-6.23
721.797	-2.23
721.823	5.77
721.849	9.77
721.875	16.77
721.901	3.77
721.927	5.77
721.953	8.77
721.979	18.77
722.005	18.77
722.031	3.77
722.057	2.77
722.083	-0.23
722.109	3.77
722.135	12.77
722.161	22.77
722.187	4.77
722.214	-10.23
722.24	-4.23
722.266	-11.23
722.292	10.77
722.318	15.77
722.344	-1.23
722.37	5.77
722.396	5.77
722.422	-1.23
722.448	-5.23
722.474	-0.23
722.5	-3.23
722.526	11.77
722.552	-10.23
722.578	-3.23
722.603	10.77
722.629	7.77
722.655	5.77
722.681	7.77
722.707	-6.23
722.733	-4.23
722.759	11.77
722.785	-7.23
722.811	-0.23
722.837	-9.23
722.863	5.77
722.889	5.77
722.915	-3.23
722.941	0.77
722.967	12.77
722.993	4.77
723.019	4.77
723.045	19.77
723.071	8.77
723.097	-2.23
723.122	11.77
723.148	6.77
723.174	-14.23
723.2	13.77
723.226	-0.23
723.252	-0.23
723.278	0.77
723.304	-3.23
723.33	-1.23
723.356	-16.23
723.381	-7.23
723.407	-19.23
723.433	-0.23
723.459	4.77
723.485	9.77
723.511	7.77
723.537	16.77
723.563	4.77
723.588	0.77
723.614	0.77
723.64	0.77
723.666	-3.23
723.692	1.77
723.718	3.77
723.744	12.77
723.769	-1.23
723.795	2.77
723.821	20.77
723.847	7.77
723.873	-5.23
723.899	12.77
723.924	4.77
723.95	3.77
723.976	-13.23
724.002	-3.23
724.028	13.77
724.053	-7.23
724.079	-3.23
724.105	-10.23
724.131	1.77
724.157	-9.23
724.182	19.77
724.208	7.77
724.234	-9.23
724.26	-8.23
724.286	11.77
724.311	-2.23
724.337	-13.23
724.363	-18.23
724.389	-8.23
724.415	-0.23
724.44	21.77
724.466	-0.23
724.492	-2.23
724.518	3.77
724.543	0.77
724.569	10.77
724.595	10.77
724.621	1.77
724.646	-1.23
724.672	-2.23
724.698	-3.23
724.723	-10.23
724.749	0.77
724.775	19.77
724.801	-5.23
724.826	-7.23
724.852	-1.23
724.878	-6.23
724.904	-11.23
724.929	1.77
724.955	-8.23
724.981	-6.23
725.006	-0.23
725.032	-0.23
725.058	6.77
725.083	-3.23
725.109	-6.23
725.135	-7.23
725.161	6.77
725.186	3.77
725.212	3.77
725.238	7.77
725.263	-3.23
725.289	-11.23
725.315	-10.23
725.34	4.77
725.366	7.77
725.392	3.77
725.417	0.77
725.443	9.77
725.468	15.77
725.494	9.77
725.52	28.77
725.545	4.77
725.571	-12.23
725.597	6.77
725.622	-2.23
725.648	4.77
725.674	12.77
725.699	-0.23
725.725	7.77
725.75	6.77
725.776	1.77
725.802	-9.23
725.827	4.77
725.853	-3.23
725.878	6.77
725.904	-0.23
725.93	-4.23
725.955	-10.23
725.981	-1.23
726.006	-6.23
726.032	18.77
726.057	4.77
726.083	-16.23
726.109	9.77
726.134	-6.23
726.16	3.77
726.185	-7.23
726.211	-4.23
726.236	8.77
726.262	3.77
726.288	8.77
726.313	19.77
726.339	4.77
726.364	7.77
726.39	11.77
726.415	-11.23
726.441	-6.23
726.466	5.77
726.492	3.77
726.517	14.77
726.543	2.77
726.568	-15.23
726.594	-2.23
726.619	7.77
726.645	6.77
726.67	-0.23
726.696	20.77
726.721	-5.23
726.747	-4.23
726.772	-4.23
726.798	-2.23
726.823	7.77
726.849	-3.23
726.874	7.77
726.9	16.77
726.925	4.77
726.951	4.77
726.976	23.77
727.002	2.77
727.027	-2.23
727.053	-3.23
727.078	4.77
727.104	-4.23
727.129	-11.23
727.155	-5.23
727.18	6.77
727.205	12.77
727.231	-9.23
727.256	1.77
727.282	7.77
727.307	6.77
727.333	2.77
727.358	-4.23
727.383	-12.23
727.409	-3.23
727.434	3.77
727.46	14.77
727.485	-0.23
727.511	11.77
727.536	-10.23
727.561	-11.23
727.587	-5.23
727.612	-9.23
727.637	6.77
727.663	-13.23
727.688	4.77
727.714	-3.23
727.739	-13.23
727.764	-20.23
727.79	4.77
727.815	11.77
727.841	9.77
727.866	-3.23
727.891	-8.23
727.917	-10.23
727.942	-10.23
727.967	-8.23
727.993	-14.23
728.018	-11.23
728.043	5.77
728.069	9.77
728.094	5.77
728.119	4.77
728.145	4.77
728.17	-2.23
728.195	-3.23
728.221	5.77
728.246	-0.23
728.271	-11.23
728.297	-14.23
728.322	-1.23
728.347	-2.23
728.373	-0.23
728.398	-4.23
728.423	-5.23
728.448	8.77
728.474	10.77
728.499	24.77
728.524	-19.23
728.55	0.77
728.575	2.77
728.6	-10.23
728.625	-8.23
728.651	-7.23
728.676	-4.23
728.701	-3.23
728.727	3.77
728.752	-12.23
728.777	8.77
728.802	1.77
728.828	-5.23
728.853	-6.23
728.878	-8.23
728.903	-1.23
728.929	-16.23
728.954	-11.23
728.979	7.77
729.004	0.77
729.03	-5.23
729.055	6.77
729.08	-12.23
729.105	-11.23
729.13	17.77
729.156	4.77
729.181	-2.23
729.206	-12.23
729.231	-7.23
729.256	9.77
729.282	7.77
729.307	-10.23
729.332	-5.23
729.357	-7.23
729.382	5.77
729.408	-3.23
729.433	0.77
729.458	14.77
729.483	15.77
729.508	0.77
729.533	12.77
729.559	9.77
729.584	-4.23
729.609	5.77
729.634	7.77
729.659	-4.23
729.684	-16.23
729.71	9.77
729.735	8.77
729.76	-8.23
729.785	-2.23
729.81	-7.23
729.835	5.77
729.86	-4.23
729.886	15.77
729.911	-10.23
729.936	-3.23
729.961	3.77
729.986	-3.23
730.011	5.77
730.036	-4.23
730.061	3.77
730.086	-3.23
730.112	-0.23
730.137	16.77
730.162	-8.23
730.187	-14.23
730.212	-3.23
730.237	-4.23
730.262	-16.23
730.287	-0.23
730.312	2.77
730.337	-4.23
730.362	12.77
730.387	0.77
730.413	-6.23
730.438	-6.23
730.463	0.77
730.488	3.77
730.513	-11.23
730.538	-4.23
730.563	14.77
730.588	11.77
730.613	14.77
730.638	-3.23
730.663	-11.23
730.688	25.77
730.713	12.77
730.738	5.77
730.763	0.77
730.788	-19.23
730.813	5.77
730.838	10.77
730.863	-4.23
730.888	0.77
730.913	3.77
730.938	-18.23
730.963	-7.23
730.988	-9.23
731.013	19.77
731.038	-16.23
731.063	-2.23
731.088	13.77
731.113	-3.23
731.138	-9.23
731.163	-4.23
731.188	-16.23
731.213	-7.23
731.238	-0.23
731.263	3.77
731.288	-0.23
731.313	6.77
731.338	0.77
731.363	14.77
731.388	13.77
731.413	5.77
731.438	18.77
731.463	3.77
731.487	9.77
731.512	-0.23
731.537	-22.23
731.562	-16.23
731.587	8.77
731.612	-6.23
731.637	4.77
731.662	4.77
731.687	-6.23
731.712	1.77
731.737	5.77
731.762	3.77
731.786	5.77
731.811	20.77
731.836	7.77
731.861	10.77
731.886	1.77
731.911	14.77
731.936	18.77
731.961	-11.23
731.986	2.77
732.01	-0.23
732.035	-3.23
732.06	12.77
732.085	-1.23
732.11	3.77
732.135	-8.23
732.16	8.77
732.184	13.77
732.209	2.77
732.234	8.77
732.259	-0.23
732.284	19.77
732.309	-7.23
732.334	-2.23
732.358	-22.23
732.383	-11.23
732.408	-20.23
732.433	-3.23
732.458	-3.23
732.482	5.77
732.507	-2.23
732.532	18.77
732.557	1.77
732.582	4.77
732.607	-2.23
732.631	-7.23
732.656	3.77
732.681	10.77
732.706	3.77
732.73	5.77
732.755	-1.23
732.78	-3.23
732.805	-5.23
732.83	4.77
732.854	17.77
732.879	21.77
732.904	-3.23
732.929	-0.23
732.953	1.77
732.978	3.77
733.003	5.77
733.028	4.77
733.052	12.77
733.077	1.77
733.102	11.77
733.127	-0.23
733.151	2.77
733.176	5.77
733.201	2.77
733.226	-6.23
733.25	-3.23
733.275	-5.23
733.3	8.77
733.324	39.77
733.349	7.77
733.374	15.77
733.399	-8.23
733.423	8.77
733.448	-5.23
733.473	1.77
733.497	4.77
733.522	-16.23
733.547	3.77
733.571	16.77
733.596	-1.23
733.621	6.77
733.646	3.77
733.67	8.77
733.695	-5.23
733.72	10.77
733.744	8.77
733.769	11.77
733.794	6.77
733.818	-13.23
733.843	-1.23
733.867	-9.23
733.892	-4.23
733.917	-7.23
733.941	5.77
733.966	-6.23
733.991	-4.23
734.015	9.77
734.04	3.77
734.065	1.77
734.089	17.77
734.114	11.77
734.138	-1.23
734.163	-2.23
734.188	3.77
734.212	-1.23
734.237	0.77
734.261	-5.23
734.286	-8.23
734.311	-11.23
734.335	10.77
734.36	4.77
734.384	-5.23
734.409	-18.23
734.434	-11.23
734.458	-13.23
734.483	6.77
734.507	-3.23
734.532	7.77
734.556	-6.23
734.581	-3.23
734.606	0.77
734.63	-19.23
734.655	-5.23
734.679	3.77
734.704	-6.23
734.728	-5.23
734.753	-0.23
734.777	-7.23
734.802	-6.23
734.826	12.77
734.851	7.77
734.876	14.77
734.9	0.77
734.925	17.77
734.949	7.77
734.974	8.77
734.998	17.77
735.023	-5.23
735.047	-6.23
735.072	10.77
735.096	0.77
735.121	0.77
735.145	-2.23
735.17	11.77
735.194	3.77
735.219	7.77
735.243	7.77
735.268	-2.23
735.292	-4.23
735.317	-5.23
735.341	0.77
735.365	-6.23
735.39	22.77
735.414	0.77
735.439	-2.23
735.463	-0.23
735.488	5.77
735.512	-6.23
735.537	-5.23
735.561	-4.23
735.586	-7.23
735.61	9.77
735.634	-1.23
735.659	7.77
735.683	18.77
735.708	-8.23
735.732	-14.23
735.757	-7.23
735.781	-1.23
735.805	14.77
735.83	-12.23
735.854	-19.23
735.879	-15.23
735.903	9.77
735.927	-0.23
735.952	18.77
735.976	7.77
736.001	5.77
736.025	-3.23
736.049	2.77
736.074	-4.23
736.098	-5.23
736.123	-1.23
736.147	7.77
736.171	3.77
736.196	-12.23
736.22	-1.23
736.244	9.77
736.269	-6.23
736.293	-15.23
736.317	-7.23
736.342	10.77
736.366	12.77
736.39	28.77
736.415	-4.23
736.439	-5.23
736.463	5.77
736.488	8.77
736.512	11.77
736.536	-2.23
736.561	17.77
736.585	-6.23
736.609	3.77
736.634	-14.23
736.658	-20.23
736.682	-14.23
736.707	-19.23
736.731	-11.23
736.755	8.77
736.78	7.77
736.804	7.77
736.828	11.77
736.852	-2.23
736.877	-5.23
736.901	-5.23
736.925	-0.23
736.949	1.77
736.974	0.77
736.998	-10.23
737.022	14.77
737.047	2.77
737.071	-3.23
737.095	17.77
737.119	13.77
737.144	-0.23
737.168	4.77
737.192	-12.23
737.216	13.77
737.241	9.77
737.265	17.77
737.289	-2.23
737.313	1.77
737.337	9.77
737.362	4.77
737.386	-3.23
737.41	-2.23
737.434	3.77
737.459	11.77
737.483	22.77
737.507	4.77
737.531	11.77
737.555	12.77
737.58	8.77
737.604	2.77
737.628	-9.23
737.652	3.77
737.676	12.77
737.701	10.77
737.725	0.77
737.749	13.77
737.773	-0.23
737.797	-5.23
737.821	1.77
737.846	6.77
737.87	26.77
737.894	0.77
737.918	0.77
737.942	10.77
737.966	17.77
737.99	13.77
738.015	10.77
738.039	17.77
738.063	-5.23
738.087	1.77
738.111	10.77
738.135	19.77
738.159	1.77
738.184	5.77
738.208	9.77
738.232	-7.23
738.256	0.77
738.28	9.77
738.304	7.77
738.328	-0.23
738.352	-0.23
738.376	-7.23
738.4	4.77
738.425	2.77
738.449	-9.23
738.473	5.77
738.497	2.77
738.521	-6.23
738.545	0.77
738.569	15.77
738.593	10.77
738.617	15.77
738.641	6.77
738.665	2.77
738.689	-0.23
738.713	-8.23
738.737	10.77
738.762	-3.23
738.786	4.77
738.81	-10.23
738.834	5.77
738.858	4.77
738.882	-4.23
738.906	-0.23
738.93	12.77
738.954	-6.23
738.978	16.77
739.002	-9.23
739.026	3.77
739.05	-5.23
739.074	-7.23
739.098	38.77
739.122	11.77
739.146	5.77
739.17	14.77
739.194	25.77
739.218	7.77
739.242	1.77
739.266	-11.23
739.29	5.77
739.314	13.77
739.338	-3.23
739.362	-5.23
739.386	15.77
739.41	-13.23
739.434	-15.23
739.458	20.77
739.482	9.77
739.506	-2.23
739.53	-3.23
739.554	14.77
739.577	-8.23
739.601	3.77
739.625	-3.23
739.649	1.77
739.673	-2.23
739.697	8.77
739.721	2.77
739.745	17.77
739.769	5.77
739.793	10.77
739.817	23.77
739.841	-7.23
739.865	-8.23
739.889	0.77
739.912	12.77
739.936	-10.23
739.96	2.77
739.984	19.77
740.008	9.77
740.032	-8.23
740.056	-6.23
740.08	6.77
740.104	-5.23
740.127	10.77
740.151	10.77
740.175	17.77
740.199	10.77
740.223	37.77
740.247	-2.23
740.271	-1.23
740.295	-4.23
740.318	-8.23
740.342	-4.23
740.366	1.77
740.39	20.77
740.414	-2.23
740.438	-10.23
740.461	5.77
740.485	4.77
740.509	-10.23
740.533	5.77
740.557	-14.23
740.581	-3.23
740.604	-12.23
740.628	7.77
740.652	4.77
740.676	-3.23
740.7	7.77
740.723	-15.23
740.747	-16.23
740.771	-0.23
740.795	3.77
740.819	11.77
740.842	10.77
740.866	13.77
740.89	0.77
740.914	1.77
740.938	-11.23
740.961	5.77
740.985	5.77
741.009	-0.23
741.033	5.77
741.056	3.77
741.08	-1.23
741.104	-0.23
741.128	0.77
741.151	17.77
741.175	9.77
741.199	11.77
741.223	10.77
741.246	4.77
741.27	-0.23
741.294	-2.23
741.318	-0.23
741.341	-4.23
741.365	17.77
741.389	18.77
741.413	14.77
741.436	18.77
741.46	17.77
741.484	18.77
741.507	1.77
741.531	17.77
741.555	6.77
741.579	8.77
741.602	3.77
741.626	5.77
741.65	11.77
741.673	9.77
741.697	15.77
741.721	-10.23
741.744	-5.23
741.768	-6.23
741.792	6.77
741.815	-2.23
741.839	21.77
741.863	24.77
741.886	23.77
741.91	9.77
741.934	4.77
741.957	-4.23
741.981	14.77
742.005	13.77
742.028	-2.23
742.052	-4.23
742.075	6.77
742.099	7.77
742.123	-3.23
742.146	6.77
742.17	12.77
742.194	-4.23
742.217	-8.23
742.241	10.77
742.264	29.77
742.288	15.77
742.312	9.77
742.335	-10.23
742.359	13.77
742.382	13.77
742.406	1.77
742.43	-5.23
742.453	10.77
742.477	-7.23
742.5	14.77
742.524	-4.23
742.548	8.77
742.571	3.77
742.595	-9.23
742.618	-5.23
742.642	-3.23
742.665	7.77
742.689	0.77
742.712	-13.23
742.736	-8.23
742.76	-2.23
742.783	8.77
742.807	3.77
742.83	6.77
742.854	-8.23
742.877	-6.23
742.901	9.77
742.924	-1.23
742.948	5.77
742.971	4.77
742.995	-4.23
743.018	-13.23
743.042	2.77
743.065	-6.23
743.089	-15.23
743.112	2.77
743.136	-3.23
743.159	-5.23
743.183	13.77
743.206	-7.23
743.23	3.77
743.253	1.77
743.277	14.77
743.3	4.77
743.324	0.77
743.347	-3.23
743.371	22.77
743.394	4.77
743.418	21.77
743.441	4.77
743.465	11.77
743.488	14.77
743.512	0.77
743.535	5.77
743.558	-6.23
743.582	-7.23
743.605	-10.23
743.629	-2.23
743.652	4.77
743.676	7.77
743.699	4.77
743.723	3.77
743.746	2.77
743.769	-3.23
743.793	0.77
743.816	7.77
743.84	9.77
743.863	1.77
743.886	8.77
743.91	11.77
743.933	9.77
743.957	5.77
743.98	-10.23
744.003	7.77
744.027	5.77
744.05	-0.23
744.074	-4.23
744.097	-19.23
744.12	8.77
744.144	-8.23
744.167	13.77
744.19	1.77
744.214	-15.23
744.237	-0.23
744.26	8.77
744.284	4.77
744.307	-9.23
744.331	5.77
744.354	-4.23
744.377	-7.23
744.401	-5.23
744.424	-7.23
744.447	-11.23
744.471	-10.23
