Data from HighRes_H2_15_09_11_07_2024_HR4C61891__161__15-11-12-501.txt Node

Date: Thu Nov 07 15:11:12 EST 2024
User: crc00042
Spectrometer: HR4C6189
Trigger mode: 4
Integration Time (sec): 1.000000E-1
Scans to average: 1
Electric dark correction enabled: true
Nonlinearity correction enabled: false
Boxcar width: 0
XAxis mode: Wavelengths
Number of Pixels in Spectrum: 3648
>>>>>Begin Spectral Data<<<<<
639.567	-24.85
639.602	-24.85
639.636	-24.85
639.67	-54.85
639.704	-12.85
639.738	4.15
639.773	6.15
639.807	-21.85
639.841	-2.85
639.875	19.15
639.909	3.15
639.943	-3.85
639.978	14.15
640.012	-0.85
640.046	-4.85
640.08	-2.85
640.114	-0.85
640.148	-8.85
640.182	-23.85
640.217	-10.85
640.251	12.15
640.285	-5.85
640.319	-19.85
640.353	5.15
640.387	16.15
640.421	-8.85
640.455	-13.85
640.49	-4.85
640.524	-8.85
640.558	0.15
640.592	6.15
640.626	-12.85
640.66	10.15
640.694	-5.85
640.728	14.15
640.762	7.15
640.796	15.15
640.83	7.15
640.865	-9.85
640.899	13.15
640.933	11.15
640.967	-8.85
641.001	4.15
641.035	12.15
641.069	-7.85
641.103	-19.85
641.137	-5.85
641.171	-11.85
641.205	4.15
641.239	2.15
641.273	8.15
641.307	22.15
641.341	-13.85
641.375	-5.85
641.409	-4.85
641.443	-13.85
641.477	1.15
641.511	17.15
641.545	8.15
641.579	-10.85
641.614	-4.85
641.648	-3.85
641.682	-9.85
641.716	13.15
641.75	25.15
641.784	-6.85
641.818	-2.85
641.852	-0.85
641.886	-3.85
641.919	22.15
641.953	7.15
641.987	-4.85
642.021	-2.85
642.055	7.15
642.089	-0.85
642.123	-13.85
642.157	1.15
642.191	-15.85
642.225	5.15
642.259	-21.85
642.293	10.15
642.327	0.15
642.361	-3.85
642.395	-4.85
642.429	8.15
642.463	9.15
642.497	15.15
642.531	0.15
642.565	-0.85
642.599	-4.85
642.633	-14.85
642.666	7.15
642.7	19.15
642.734	12.15
642.768	-12.85
642.802	1.15
642.836	7.15
642.87	0.15
642.904	1.15
642.938	12.15
642.972	1.15
643.005	2.15
643.039	7.15
643.073	3.15
643.107	1.15
643.141	-7.85
643.175	0.15
643.209	-1.85
643.243	10.15
643.276	1.15
643.31	-5.85
643.344	4.15
643.378	-5.85
643.412	5.15
643.446	-3.85
643.48	-21.85
643.513	5.15
643.547	-5.85
643.581	2.15
643.615	7.15
643.649	-9.85
643.683	4.15
643.716	12.15
643.75	18.15
643.784	-8.85
643.818	7.15
643.852	6.15
643.886	5.15
643.919	-0.85
643.953	6.15
643.987	7.15
644.021	5.15
644.055	-1.85
644.088	3.15
644.122	-11.85
644.156	-25.85
644.19	1.15
644.224	-16.85
644.257	9.15
644.291	11.15
644.325	6.15
644.359	-2.85
644.392	13.15
644.426	5.15
644.46	17.15
644.494	15.15
644.527	5.15
644.561	12.15
644.595	-0.85
644.629	-6.85
644.662	6.15
644.696	-2.85
644.73	-8.85
644.764	5.15
644.797	4.15
644.831	-10.85
644.865	3.15
644.899	-4.85
644.932	16.15
644.966	7.15
645	3.15
645.033	-1.85
645.067	-0.85
645.101	-6.85
645.135	1.15
645.168	8.15
645.202	-21.85
645.236	5.15
645.269	21.15
645.303	8.15
645.337	-14.85
645.37	-12.85
645.404	12.15
645.438	-8.85
645.471	-3.85
645.505	-0.85
645.539	3.15
645.572	-6.85
645.606	-1.85
645.64	13.15
645.673	-2.85
645.707	11.15
645.741	7.15
645.774	-16.85
645.808	-2.85
645.842	3.15
645.875	6.15
645.909	1.15
645.943	-9.85
645.976	4.15
646.01	-0.85
646.043	13.15
646.077	1.15
646.111	11.15
646.144	5.15
646.178	13.15
646.212	-13.85
646.245	9.15
646.279	2.15
646.312	0.15
646.346	19.15
646.38	13.15
646.413	6.15
646.447	6.15
646.48	-2.85
646.514	10.15
646.547	9.15
646.581	-3.85
646.615	1.15
646.648	-10.85
646.682	-12.85
646.715	-9.85
646.749	3.15
646.782	1.15
646.816	2.15
646.85	9.15
646.883	-0.85
646.917	6.15
646.95	-7.85
646.984	12.15
647.017	-11.85
647.051	13.15
647.084	25.15
647.118	6.15
647.151	3.15
647.185	6.15
647.218	-15.85
647.252	-2.85
647.285	-10.85
647.319	-8.85
647.353	9.15
647.386	21.15
647.42	-12.85
647.453	21.15
647.487	0.15
647.52	16.15
647.553	10.15
647.587	-6.85
647.62	3.15
647.654	1.15
647.687	5.15
647.721	2.15
647.754	2.15
647.788	-0.85
647.821	-7.85
647.855	-7.85
647.888	8.15
647.922	12.15
647.955	4.15
647.989	7.15
648.022	-0.85
648.055	19.15
648.089	4.15
648.122	25.15
648.156	0.15
648.189	14.15
648.223	30.15
648.256	13.15
648.29	8.15
648.323	-3.85
648.356	13.15
648.39	10.15
648.423	10.15
648.457	19.15
648.49	-3.85
648.523	28.15
648.557	-0.85
648.59	-5.85
648.624	8.15
648.657	-2.85
648.69	22.15
648.724	17.15
648.757	32.15
648.791	27.15
648.824	13.15
648.857	12.15
648.891	4.15
648.924	1.15
648.957	29.15
648.991	-7.85
649.024	25.15
649.057	-4.85
649.091	-6.85
649.124	16.15
649.158	3.15
649.191	10.15
649.224	-8.85
649.258	1.15
649.291	9.15
649.324	8.15
649.358	-5.85
649.391	11.15
649.424	1.15
649.458	-6.85
649.491	-5.85
649.524	-12.85
649.557	-7.85
649.591	-4.85
649.624	24.15
649.657	-11.85
649.691	3.15
649.724	-7.85
649.757	5.15
649.791	-0.85
649.824	26.15
649.857	27.15
649.89	3.15
649.924	1.15
649.957	-3.85
649.99	-8.85
650.023	-4.85
650.057	0.15
650.09	8.15
650.123	0.15
650.157	5.15
650.19	10.15
650.223	-3.85
650.256	-4.85
650.29	0.15
650.323	16.15
650.356	-2.85
650.389	-3.85
650.423	4.15
650.456	18.15
650.489	20.15
650.522	3.15
650.555	19.15
650.589	7.15
650.622	12.15
650.655	22.15
650.688	-0.85
650.721	-10.85
650.755	0.15
650.788	11.15
650.821	0.15
650.854	2.15
650.887	11.15
650.921	-2.85
650.954	-8.85
650.987	-4.85
651.02	2.15
651.053	-14.85
651.087	-17.85
651.12	18.15
651.153	19.15
651.186	3.15
651.219	-27.85
651.252	7.15
651.286	0.15
651.319	-10.85
651.352	1.15
651.385	5.15
651.418	8.15
651.451	4.15
651.484	16.15
651.518	-16.85
651.551	14.15
651.584	-9.85
651.617	17.15
651.65	3.15
651.683	7.15
651.716	-0.85
651.749	4.15
651.783	18.15
651.816	-6.85
651.849	6.15
651.882	8.15
651.915	-5.85
651.948	5.15
651.981	-1.85
652.014	-9.85
652.047	-6.85
652.08	-2.85
652.114	14.15
652.147	-5.85
652.18	8.15
652.213	25.15
652.246	-2.85
652.279	-1.85
652.312	17.15
652.345	-3.85
652.378	-4.85
652.411	17.15
652.444	-0.85
652.477	-2.85
652.51	-5.85
652.543	-22.85
652.576	16.15
652.609	4.15
652.642	3.15
652.675	6.15
652.709	-6.85
652.742	16.15
652.775	12.15
652.808	22.15
652.841	1.15
652.874	7.15
652.907	-1.85
652.94	8.15
652.973	0.15
653.006	-3.85
653.039	3.15
653.072	0.15
653.105	1.15
653.138	-10.85
653.171	-10.85
653.204	-8.85
653.237	-1.85
653.27	3.15
653.303	3.15
653.336	11.15
653.368	13.15
653.401	-0.85
653.434	-24.85
653.467	4.15
653.5	-3.85
653.533	-11.85
653.566	3.15
653.599	-1.85
653.632	0.15
653.665	4.15
653.698	-1.85
653.731	-14.85
653.764	-3.85
653.797	-0.85
653.83	20.15
653.863	-16.85
653.896	-14.85
653.929	-13.85
653.961	-11.85
653.994	-10.85
654.027	-14.85
654.06	10.15
654.093	9.15
654.126	6.15
654.159	-2.85
654.192	1.15
654.225	9.15
654.258	18.15
654.29	2.15
654.323	4.15
654.356	3.15
654.389	-0.85
654.422	1.15
654.455	-4.85
654.488	5.15
654.521	-16.85
654.553	-3.85
654.586	0.15
654.619	0.15
654.652	8.15
654.685	11.15
654.718	15.15
654.751	-6.85
654.783	3.15
654.816	22.15
654.849	5.15
654.882	0.15
654.915	3.15
654.948	7.15
654.98	5.15
655.013	-11.85
655.046	1.15
655.079	-2.85
655.112	4.15
655.144	-4.85
655.177	2.15
655.21	18.15
655.243	29.15
655.276	8.15
655.308	-4.85
655.341	-10.85
655.374	7.15
655.407	0.15
655.44	-5.85
655.472	6.15
655.505	23.15
655.538	19.15
655.571	21.15
655.603	16.15
655.636	14.15
655.669	22.15
655.702	8.15
655.734	12.15
655.767	15.15
655.8	27.15
655.833	34.15
655.865	31.15
655.898	20.15
655.931	33.15
655.964	37.15
655.996	58.15
656.029	56.15
656.062	48.15
656.095	66.15
656.127	58.15
656.16	102.15
656.193	117.15
656.225	180.15
656.258	267.15
656.291	487.15
656.324	1135.15
656.356	3389.15
656.389	7633.15
656.422	6074.15
656.454	2085.15
656.487	697.15
656.52	260.15
656.552	124.15
656.585	96.15
656.618	82.15
656.65	48.15
656.683	19.15
656.716	5.15
656.748	8.15
656.781	10.15
656.814	5.15
656.846	9.15
656.879	-1.85
656.912	12.15
656.944	-17.85
656.977	5.15
657.01	-0.85
657.042	14.15
657.075	18.15
657.108	-2.85
657.14	7.15
657.173	8.15
657.205	16.15
657.238	11.15
657.271	0.15
657.303	-21.85
657.336	-8.85
657.369	-1.85
657.401	0.15
657.434	2.15
657.466	16.15
657.499	6.15
657.532	-0.85
657.564	5.15
657.597	4.15
657.629	-0.85
657.662	-7.85
657.694	17.15
657.727	-0.85
657.76	9.15
657.792	5.15
657.825	-6.85
657.857	0.15
657.89	-11.85
657.922	2.15
657.955	-3.85
657.987	-1.85
658.02	2.15
658.053	22.15
658.085	15.15
658.118	15.15
658.15	24.15
658.183	25.15
658.215	-4.85
658.248	-7.85
658.28	-5.85
658.313	7.15
658.345	14.15
658.378	11.15
658.41	2.15
658.443	-7.85
658.475	5.15
658.508	2.15
658.54	2.15
658.573	-4.85
658.605	-5.85
658.638	-20.85
658.67	-0.85
658.703	10.15
658.735	-15.85
658.768	-11.85
658.8	-7.85
658.833	24.15
658.865	4.15
658.898	7.15
658.93	10.15
658.963	5.15
658.995	-18.85
659.028	2.15
659.06	2.15
659.092	-11.85
659.125	6.15
659.157	5.15
659.19	8.15
659.222	-4.85
659.255	-10.85
659.287	1.15
659.32	0.15
659.352	6.15
659.384	-4.85
659.417	3.15
659.449	10.15
659.482	16.15
659.514	4.15
659.546	-3.85
659.579	-23.85
659.611	-2.85
659.644	7.15
659.676	1.15
659.708	-8.85
659.741	-9.85
659.773	10.15
659.806	0.15
659.838	17.15
659.87	0.15
659.903	-2.85
659.935	6.15
659.967	5.15
660	5.15
660.032	-18.85
660.065	9.15
660.097	2.15
660.129	-12.85
660.162	-22.85
660.194	6.15
660.226	-3.85
660.259	21.15
660.291	13.15
660.323	1.15
660.356	0.15
660.388	-2.85
660.42	-2.85
660.453	24.15
660.485	11.15
660.517	8.15
660.55	14.15
660.582	17.15
660.614	5.15
660.647	0.15
660.679	-11.85
660.711	15.15
660.743	-9.85
660.776	-4.85
660.808	-6.85
660.84	-17.85
660.873	6.15
660.905	-1.85
660.937	8.15
660.969	-3.85
661.002	2.15
661.034	14.15
661.066	-6.85
661.099	8.15
661.131	9.15
661.163	-0.85
661.195	-5.85
661.228	3.15
661.26	-5.85
661.292	-5.85
661.324	6.15
661.357	2.15
661.389	13.15
661.421	-0.85
661.453	3.15
661.485	-0.85
661.518	0.15
661.55	-7.85
661.582	-26.85
661.614	7.15
661.647	0.15
661.679	2.15
661.711	5.15
661.743	-11.85
661.775	-2.85
661.808	11.15
661.84	-15.85
661.872	9.15
661.904	-18.85
661.936	-9.85
661.969	-0.85
662.001	0.15
662.033	0.15
662.065	4.15
662.097	8.15
662.129	22.15
662.162	6.15
662.194	11.15
662.226	22.15
662.258	12.15
662.29	-4.85
662.322	-2.85
662.355	-20.85
662.387	8.15
662.419	14.15
662.451	10.15
662.483	-2.85
662.515	-5.85
662.547	-3.85
662.58	-23.85
662.612	-7.85
662.644	-21.85
662.676	5.15
662.708	12.15
662.74	-12.85
662.772	7.15
662.804	27.15
662.836	24.15
662.869	5.15
662.901	-2.85
662.933	8.15
662.965	0.15
662.997	5.15
663.029	9.15
663.061	2.15
663.093	8.15
663.125	10.15
663.157	6.15
663.189	-12.85
663.221	13.15
663.254	-11.85
663.286	17.15
663.318	3.15
663.35	-9.85
663.382	0.15
663.414	-4.85
663.446	4.15
663.478	-19.85
663.51	18.15
663.542	-2.85
663.574	0.15
663.606	-1.85
663.638	-16.85
663.67	4.15
663.702	6.15
663.734	0.15
663.766	4.15
663.798	-3.85
663.83	2.15
663.862	17.15
663.894	12.15
663.926	10.15
663.958	10.15
663.99	0.15
664.022	14.15
664.054	32.15
664.086	4.15
664.118	-19.85
664.15	-20.85
664.182	-0.85
664.214	6.15
664.246	13.15
664.278	9.15
664.31	8.15
664.342	6.15
664.374	-13.85
664.406	-7.85
664.438	2.15
664.47	14.15
664.502	6.15
664.534	1.15
664.566	-2.85
664.598	24.15
664.63	-6.85
664.662	-1.85
664.693	17.15
664.725	-1.85
664.757	-12.85
664.789	-8.85
664.821	16.15
664.853	11.15
664.885	3.15
664.917	-12.85
664.949	18.15
664.981	13.15
665.013	-4.85
665.045	-4.85
665.076	5.15
665.108	3.15
665.14	-4.85
665.172	9.15
665.204	7.15
665.236	-4.85
665.268	8.15
665.3	-2.85
665.331	5.15
665.363	10.15
665.395	-20.85
665.427	-6.85
665.459	3.15
665.491	0.15
665.523	10.15
665.555	-7.85
665.586	3.15
665.618	0.15
665.65	-10.85
665.682	12.15
665.714	16.15
665.746	-3.85
665.777	1.15
665.809	1.15
665.841	6.15
665.873	0.15
665.905	6.15
665.937	18.15
665.968	8.15
666	8.15
666.032	7.15
666.064	-4.85
666.096	-4.85
666.127	-2.85
666.159	6.15
666.191	9.15
666.223	19.15
666.255	4.15
666.286	8.15
666.318	9.15
666.35	19.15
666.382	5.15
666.413	-10.85
666.445	-8.85
666.477	-5.85
666.509	3.15
666.54	0.15
666.572	-4.85
666.604	-2.85
666.636	-16.85
666.667	15.15
666.699	16.15
666.731	4.15
666.763	-0.85
666.794	3.15
666.826	-4.85
666.858	-12.85
666.89	14.15
666.921	-7.85
666.953	11.15
666.985	18.15
667.017	11.15
667.048	3.15
667.08	-4.85
667.112	-5.85
667.143	-0.85
667.175	2.15
667.207	2.15
667.238	3.15
667.27	-11.85
667.302	-1.85
667.334	4.15
667.365	7.15
667.397	3.15
667.429	8.15
667.46	23.15
667.492	13.15
667.524	12.15
667.555	-9.85
667.587	3.15
667.619	-2.85
667.65	-7.85
667.682	7.15
667.714	1.15
667.745	7.15
667.777	1.15
667.808	-10.85
667.84	7.15
667.872	-10.85
667.903	14.15
667.935	13.15
667.967	8.15
667.998	-6.85
668.03	-9.85
668.061	8.15
668.093	11.15
668.125	15.15
668.156	-3.85
668.188	-22.85
668.22	-5.85
668.251	5.15
668.283	6.15
668.314	17.15
668.346	-6.85
668.377	6.15
668.409	-15.85
668.441	9.15
668.472	10.15
668.504	3.15
668.535	8.15
668.567	6.15
668.599	-8.85
668.63	-3.85
668.662	-11.85
668.693	32.15
668.725	6.15
668.756	11.15
668.788	-2.85
668.819	7.15
668.851	5.15
668.882	-6.85
668.914	-3.85
668.946	0.15
668.977	-0.85
669.009	15.15
669.04	-8.85
669.072	1.15
669.103	9.15
669.135	9.15
669.166	-7.85
669.198	2.15
669.229	15.15
669.261	6.15
669.292	-3.85
669.324	7.15
669.355	2.15
669.387	-10.85
669.418	8.15
669.45	-2.85
669.481	-4.85
669.513	4.15
669.544	12.15
669.576	5.15
669.607	20.15
669.639	7.15
669.67	-19.85
669.701	-0.85
669.733	-2.85
669.764	2.15
669.796	0.15
669.827	-4.85
669.859	-11.85
669.89	10.15
669.922	17.15
669.953	3.15
669.985	1.15
670.016	4.15
670.047	4.15
670.079	5.15
670.11	9.15
670.142	-12.85
670.173	-21.85
670.204	-1.85
670.236	7.15
670.267	9.15
670.299	10.15
670.33	-6.85
670.362	5.15
670.393	-15.85
670.424	-10.85
670.456	-26.85
670.487	-8.85
670.518	-2.85
670.55	-10.85
670.581	6.15
670.613	8.15
670.644	-2.85
670.675	-0.85
670.707	-13.85
670.738	-0.85
670.769	3.15
670.801	-1.85
670.832	2.15
670.864	-9.85
670.895	5.15
670.926	3.15
670.958	0.15
670.989	-3.85
671.02	-8.85
671.052	3.15
671.083	1.15
671.114	1.15
671.146	9.15
671.177	5.15
671.208	-0.85
671.24	8.15
671.271	-3.85
671.302	2.15
671.333	1.15
671.365	-15.85
671.396	-8.85
671.427	-6.85
671.459	4.15
671.49	10.15
671.521	10.15
671.553	-1.85
671.584	-6.85
671.615	-6.85
671.646	23.15
671.678	7.15
671.709	-7.85
671.74	-4.85
671.771	-11.85
671.803	-3.85
671.834	-3.85
671.865	-7.85
671.896	20.15
671.928	0.15
671.959	-8.85
671.99	-3.85
672.021	7.15
672.053	-3.85
672.084	10.15
672.115	-5.85
672.146	-7.85
672.178	-6.85
672.209	-5.85
672.24	-4.85
672.271	20.15
672.303	16.15
672.334	-2.85
672.365	-4.85
672.396	14.15
672.427	6.15
672.459	8.15
672.49	18.15
672.521	13.15
672.552	8.15
672.583	14.15
672.615	3.15
672.646	10.15
672.677	4.15
672.708	0.15
672.739	7.15
672.77	8.15
672.802	4.15
672.833	-3.85
672.864	6.15
672.895	-6.85
672.926	-11.85
672.957	-4.85
672.989	-11.85
673.02	5.15
673.051	8.15
673.082	18.15
673.113	14.15
673.144	9.15
673.175	-3.85
673.206	-22.85
673.238	-1.85
673.269	16.15
673.3	-7.85
673.331	16.15
673.362	1.15
673.393	3.15
673.424	2.15
673.455	5.15
673.487	21.15
673.518	18.15
673.549	-8.85
673.58	-6.85
673.611	-4.85
673.642	-13.85
673.673	-11.85
673.704	1.15
673.735	-8.85
673.766	0.15
673.797	-11.85
673.828	5.15
673.86	-8.85
673.891	-11.85
673.922	-10.85
673.953	-6.85
673.984	-5.85
674.015	-0.85
674.046	-6.85
674.077	2.15
674.108	2.15
674.139	3.15
674.17	-0.85
674.201	-7.85
674.232	-5.85
674.263	-4.85
674.294	6.15
674.325	-15.85
674.356	9.15
674.387	25.15
674.418	-1.85
674.449	-22.85
674.48	-8.85
674.511	-3.85
674.542	6.15
674.573	-12.85
674.604	20.15
674.635	-2.85
674.666	11.15
674.697	2.15
674.728	-5.85
674.759	-0.85
674.79	-15.85
674.821	-12.85
674.852	-6.85
674.883	-7.85
674.914	-9.85
674.945	6.15
674.976	18.15
675.007	-10.85
675.038	-7.85
675.069	-30.85
675.1	-4.85
675.131	3.15
675.162	-11.85
675.193	-11.85
675.224	-7.85
675.254	5.15
675.285	4.15
675.316	17.15
675.347	5.15
675.378	3.15
675.409	-15.85
675.44	-12.85
675.471	-11.85
675.502	4.15
675.533	0.15
675.564	-0.85
675.595	-12.85
675.625	12.15
675.656	5.15
675.687	-2.85
675.718	-24.85
675.749	2.15
675.78	0.15
675.811	8.15
675.842	8.15
675.873	-3.85
675.903	3.15
675.934	-7.85
675.965	-5.85
675.996	-0.85
676.027	4.15
676.058	-2.85
676.089	-9.85
676.119	0.15
676.15	-6.85
676.181	9.15
676.212	12.15
676.243	8.15
676.274	9.15
676.304	20.15
676.335	-7.85
676.366	-9.85
676.397	-12.85
676.428	-3.85
676.459	2.15
676.489	12.15
676.52	8.15
676.551	8.15
676.582	-13.85
676.613	1.15
676.643	-2.85
676.674	22.15
676.705	7.15
676.736	1.15
676.767	6.15
676.797	5.15
676.828	-5.85
676.859	1.15
676.89	-16.85
676.92	2.15
676.951	2.15
676.982	-8.85
677.013	3.15
677.044	-1.85
677.074	-6.85
677.105	-19.85
677.136	7.15
677.167	6.15
677.197	28.15
677.228	5.15
677.259	9.15
677.289	6.15
677.32	-13.85
677.351	-12.85
677.382	-11.85
677.412	-2.85
677.443	8.15
677.474	0.15
677.505	-6.85
677.535	1.15
677.566	-7.85
677.597	-0.85
677.627	-12.85
677.658	-2.85
677.689	-13.85
677.72	4.15
677.75	-7.85
677.781	0.15
677.812	-11.85
677.842	15.15
677.873	12.15
677.904	1.15
677.934	4.15
677.965	-5.85
677.996	-6.85
678.026	14.15
678.057	2.15
678.088	-12.85
678.118	-13.85
678.149	-18.85
678.18	-9.85
678.21	14.15
678.241	5.15
678.272	12.15
678.302	5.15
678.333	6.15
678.363	16.15
678.394	10.15
678.425	7.15
678.455	-1.85
678.486	7.15
678.517	-6.85
678.547	-0.85
678.578	1.15
678.608	-23.85
678.639	8.15
678.67	9.15
678.7	0.15
678.731	6.15
678.761	-10.85
678.792	1.15
678.823	1.15
678.853	-6.85
678.884	-10.85
678.914	-0.85
678.945	-7.85
678.975	5.15
679.006	-1.85
679.037	8.15
679.067	13.15
679.098	10.15
679.128	-12.85
679.159	-5.85
679.189	5.15
679.22	-17.85
679.25	0.15
679.281	1.15
679.312	1.15
679.342	10.15
679.373	10.15
679.403	7.15
679.434	7.15
679.464	3.15
679.495	13.15
679.525	9.15
679.556	-21.85
679.586	2.15
679.617	4.15
679.647	4.15
679.678	6.15
679.708	2.15
679.739	-8.85
679.769	-8.85
679.8	3.15
679.83	0.15
679.861	10.15
679.891	-8.85
679.922	-26.85
679.952	-10.85
679.983	-9.85
680.013	-3.85
680.044	-11.85
680.074	3.15
680.105	4.15
680.135	-7.85
680.165	10.15
680.196	19.15
680.226	3.15
680.257	12.15
680.287	1.15
680.318	-13.85
680.348	-16.85
680.379	-1.85
680.409	-20.85
680.439	-5.85
680.47	-7.85
680.5	0.15
680.531	4.15
680.561	-2.85
680.592	4.15
680.622	13.15
680.652	8.15
680.683	14.15
680.713	11.15
680.744	-3.85
680.774	2.15
680.804	0.15
680.835	-6.85
680.865	0.15
680.896	31.15
680.926	15.15
680.956	6.15
680.987	-6.85
681.017	-10.85
681.047	10.15
681.078	0.15
681.108	12.15
681.139	14.15
681.169	10.15
681.199	-11.85
681.23	1.15
681.26	-0.85
681.29	-4.85
681.321	-15.85
681.351	-2.85
681.381	-8.85
681.412	1.15
681.442	-2.85
681.472	3.15
681.503	6.15
681.533	8.15
681.563	2.15
681.594	4.15
681.624	9.15
681.654	-7.85
681.685	10.15
681.715	10.15
681.745	12.15
681.775	-9.85
681.806	-7.85
681.836	-2.85
681.866	-9.85
681.897	2.15
681.927	5.15
681.957	-8.85
681.987	5.15
682.018	-4.85
682.048	3.15
682.078	10.15
682.109	6.15
682.139	12.15
682.169	2.15
682.199	16.15
682.23	-0.85
682.26	12.15
682.29	1.15
682.32	-8.85
682.351	6.15
682.381	-5.85
682.411	-12.85
682.441	-17.85
682.472	-8.85
682.502	-0.85
682.532	4.15
682.562	-3.85
682.592	12.15
682.623	0.15
682.653	-4.85
682.683	-6.85
682.713	-1.85
682.743	-5.85
682.774	4.15
682.804	4.15
682.834	2.15
682.864	-6.85
682.894	-9.85
682.925	0.15
682.955	-5.85
682.985	-5.85
683.015	-10.85
683.045	2.15
683.076	-8.85
683.106	-11.85
683.136	0.15
683.166	-9.85
683.196	1.15
683.226	-2.85
683.257	-11.85
683.287	2.15
683.317	-4.85
683.347	-12.85
683.377	-19.85
683.407	10.15
683.437	4.15
683.468	17.15
683.498	-6.85
683.528	-6.85
683.558	-13.85
683.588	2.15
683.618	5.15
683.648	0.15
683.678	9.15
683.708	9.15
683.739	-1.85
683.769	0.15
683.799	3.15
683.829	11.15
683.859	6.15
683.889	14.15
683.919	4.15
683.949	12.15
683.979	-2.85
684.009	6.15
684.039	0.15
684.07	1.15
684.1	5.15
684.13	11.15
684.16	-0.85
684.19	0.15
684.22	3.15
684.25	-6.85
684.28	1.15
684.31	7.15
684.34	7.15
684.37	-7.85
684.4	-5.85
684.43	-4.85
684.46	11.15
684.49	-2.85
684.52	6.15
684.55	3.15
684.58	7.15
684.61	1.15
684.64	-3.85
684.67	0.15
684.7	-5.85
684.73	-4.85
684.76	-13.85
684.79	16.15
684.82	-1.85
684.85	3.15
684.88	1.15
684.91	15.15
684.94	3.15
684.97	-5.85
685	-11.85
685.03	-16.85
685.06	-2.85
685.09	3.15
685.12	12.15
685.15	-10.85
685.18	9.15
685.21	14.15
685.24	23.15
685.27	13.15
685.3	-4.85
685.33	5.15
685.36	2.15
685.39	7.15
685.42	-6.85
685.45	-0.85
685.48	8.15
685.51	-12.85
685.54	-3.85
685.569	8.15
685.599	3.15
685.629	-3.85
685.659	-0.85
685.689	-4.85
685.719	9.15
685.749	-2.85
685.779	12.15
685.809	5.15
685.839	-0.85
685.869	14.15
685.898	-0.85
685.928	4.15
685.958	-6.85
685.988	21.15
686.018	-3.85
686.048	9.15
686.078	-0.85
686.108	18.15
686.137	8.15
686.167	18.15
686.197	1.15
686.227	-0.85
686.257	31.15
686.287	29.15
686.317	-2.85
686.346	8.15
686.376	-7.85
686.406	9.15
686.436	8.15
686.466	4.15
686.496	16.15
686.525	13.15
686.555	6.15
686.585	10.15
686.615	47.15
686.645	16.15
686.675	10.15
686.704	12.15
686.734	7.15
686.764	0.15
686.794	-2.85
686.824	-16.85
686.853	7.15
686.883	13.15
686.913	22.15
686.943	4.15
686.973	-10.85
687.002	7.15
687.032	0.15
687.062	-0.85
687.092	4.15
687.121	-0.85
687.151	4.15
687.181	3.15
687.211	16.15
687.24	3.15
687.27	1.15
687.3	11.15
687.33	9.15
687.359	-19.85
687.389	0.15
687.419	-3.85
687.449	4.15
687.478	16.15
687.508	8.15
687.538	17.15
687.568	16.15
687.597	3.15
687.627	5.15
687.657	2.15
687.686	4.15
687.716	21.15
687.746	5.15
687.776	-3.85
687.805	6.15
687.835	-4.85
687.865	9.15
687.894	8.15
687.924	1.15
687.954	1.15
687.983	-10.85
688.013	4.15
688.043	5.15
688.072	-0.85
688.102	15.15
688.132	8.15
688.161	7.15
688.191	5.15
688.221	11.15
688.25	-8.85
688.28	4.15
688.31	0.15
688.339	-5.85
688.369	-14.85
688.399	1.15
688.428	-20.85
688.458	-1.85
688.488	0.15
688.517	10.15
688.547	10.15
688.576	45.15
688.606	20.15
688.636	2.15
688.665	8.15
688.695	4.15
688.725	13.15
688.754	5.15
688.784	4.15
688.813	19.15
688.843	1.15
688.873	-8.85
688.902	-1.85
688.932	-5.85
688.961	-3.85
688.991	26.15
689.02	24.15
689.05	-5.85
689.08	23.15
689.109	18.15
689.139	-2.85
689.168	-22.85
689.198	-3.85
689.227	-7.85
689.257	0.15
689.287	16.15
689.316	2.15
689.346	-22.85
689.375	1.15
689.405	7.15
689.434	1.15
689.464	10.15
689.493	-13.85
689.523	-9.85
689.552	-4.85
689.582	-13.85
689.611	0.15
689.641	11.15
689.67	-1.85
689.7	9.15
689.73	9.15
689.759	1.15
689.789	25.15
689.818	7.15
689.848	2.15
689.877	14.15
689.906	2.15
689.936	-4.85
689.965	5.15
689.995	9.15
690.024	-2.85
690.054	0.15
690.083	7.15
690.113	4.15
690.142	-6.85
690.172	-0.85
690.201	0.15
690.231	4.15
690.26	10.15
690.29	-3.85
690.319	3.15
690.348	-7.85
690.378	-3.85
690.407	10.15
690.437	-1.85
690.466	4.15
690.496	2.15
690.525	13.15
690.555	1.15
690.584	13.15
690.613	-4.85
690.643	8.15
690.672	17.15
690.702	7.15
690.731	9.15
690.76	2.15
690.79	1.15
690.819	8.15
690.849	7.15
690.878	20.15
690.907	-8.85
690.937	-0.85
690.966	21.15
690.996	12.15
691.025	0.15
691.054	14.15
691.084	17.15
691.113	-4.85
691.142	0.15
691.172	3.15
691.201	8.15
691.23	4.15
691.26	14.15
691.289	6.15
691.319	4.15
691.348	17.15
691.377	21.15
691.407	7.15
691.436	-5.85
691.465	12.15
691.495	-6.85
691.524	-13.85
691.553	-13.85
691.583	-5.85
691.612	14.15
691.641	-3.85
691.67	-4.85
691.7	1.15
691.729	-4.85
691.758	16.15
691.788	-0.85
691.817	10.15
691.846	1.15
691.876	7.15
691.905	1.15
691.934	-1.85
691.963	-9.85
691.993	-13.85
692.022	-1.85
692.051	-1.85
692.081	14.15
692.11	31.15
692.139	2.15
692.168	0.15
692.198	17.15
692.227	15.15
692.256	10.15
692.285	4.15
692.315	2.15
692.344	2.15
692.373	5.15
692.402	1.15
692.432	9.15
692.461	-5.85
692.49	-3.85
692.519	9.15
692.548	16.15
692.578	-7.85
692.607	-4.85
692.636	2.15
692.665	16.15
692.694	5.15
692.724	1.15
692.753	12.15
692.782	14.15
692.811	6.15
692.84	-8.85
692.87	0.15
692.899	4.15
692.928	9.15
692.957	8.15
692.986	26.15
693.016	6.15
693.045	-1.85
693.074	-1.85
693.103	4.15
693.132	6.15
693.161	7.15
693.191	5.15
693.22	0.15
693.249	-4.85
693.278	-10.85
693.307	24.15
693.336	-5.85
693.365	-9.85
693.395	-5.85
693.424	6.15
693.453	10.15
693.482	12.15
693.511	13.15
693.54	16.15
693.569	23.15
693.598	-8.85
693.628	5.15
693.657	15.15
693.686	20.15
693.715	10.15
693.744	8.15
693.773	19.15
693.802	12.15
693.831	-6.85
693.86	15.15
693.889	-7.85
693.919	9.15
693.948	9.15
693.977	9.15
694.006	1.15
694.035	-2.85
694.064	5.15
694.093	3.15
694.122	3.15
694.151	-6.85
694.18	10.15
694.209	17.15
694.238	-8.85
694.267	12.15
694.296	13.15
694.325	0.15
694.354	-3.85
694.383	6.15
694.412	1.15
694.441	12.15
694.471	4.15
694.5	-12.85
694.529	-3.85
694.558	18.15
694.587	15.15
694.616	-22.85
694.645	-10.85
694.674	14.15
694.703	12.15
694.732	-2.85
694.761	3.15
694.79	10.15
694.819	-2.85
694.848	12.15
694.877	22.15
694.906	9.15
694.935	-1.85
694.963	2.15
694.992	-2.85
695.021	3.15
695.05	12.15
695.079	15.15
695.108	6.15
695.137	9.15
695.166	2.15
695.195	-2.85
695.224	0.15
695.253	5.15
695.282	5.15
695.311	-3.85
695.34	9.15
695.369	5.15
695.398	-0.85
695.427	10.15
695.456	8.15
695.485	13.15
695.513	16.15
695.542	1.15
695.571	8.15
695.6	23.15
695.629	12.15
695.658	21.15
695.687	3.15
695.716	3.15
695.745	23.15
695.774	-13.85
695.802	-12.85
695.831	6.15
695.86	5.15
695.889	16.15
695.918	14.15
695.947	13.15
695.976	17.15
696.005	2.15
696.033	13.15
696.062	3.15
696.091	-2.85
696.12	-0.85
696.149	28.15
696.178	7.15
696.207	1.15
696.235	-14.85
696.264	1.15
696.293	-8.85
696.322	2.15
696.351	20.15
696.38	0.15
696.408	19.15
696.437	-3.85
696.466	4.15
696.495	26.15
696.524	4.15
696.553	3.15
696.581	14.15
696.61	-10.85
696.639	-14.85
696.668	-1.85
696.697	11.15
696.725	4.15
696.754	0.15
696.783	-8.85
696.812	-7.85
696.84	21.15
696.869	8.15
696.898	9.15
696.927	7.15
696.956	10.15
696.984	2.15
697.013	-3.85
697.042	9.15
697.071	14.15
697.099	27.15
697.128	12.15
697.157	0.15
697.186	-9.85
697.214	0.15
697.243	-4.85
697.272	-2.85
697.301	0.15
697.329	0.15
697.358	7.15
697.387	11.15
697.415	17.15
697.444	0.15
697.473	-0.85
697.502	-12.85
697.53	9.15
697.559	-14.85
697.588	-5.85
697.616	0.15
697.645	-6.85
697.674	0.15
697.703	8.15
697.731	19.15
697.76	7.15
697.789	7.15
697.817	9.15
697.846	20.15
697.875	-4.85
697.903	10.15
697.932	4.15
697.961	6.15
697.989	7.15
698.018	8.15
698.047	1.15
698.075	13.15
698.104	-3.85
698.133	-9.85
698.161	-16.85
698.19	8.15
698.218	10.15
698.247	7.15
698.276	8.15
698.304	1.15
698.333	-1.85
698.362	0.15
698.39	-1.85
698.419	-0.85
698.447	2.15
698.476	1.15
698.505	12.15
698.533	1.15
698.562	4.15
698.591	-3.85
698.619	-2.85
698.648	12.15
698.676	18.15
698.705	0.15
698.733	0.15
698.762	10.15
698.791	18.15
698.819	0.15
698.848	11.15
698.876	7.15
698.905	11.15
698.933	13.15
698.962	-8.85
698.991	-7.85
699.019	-0.85
699.048	7.15
699.076	19.15
699.105	-7.85
699.133	8.15
699.162	0.15
699.19	24.15
699.219	10.15
699.248	10.15
699.276	2.15
699.305	8.15
699.333	2.15
699.362	-7.85
699.39	8.15
699.419	-10.85
699.447	0.15
699.476	10.15
699.504	-3.85
699.533	-6.85
699.561	-15.85
699.59	10.15
699.618	1.15
699.647	5.15
699.675	2.15
699.704	4.15
699.732	0.15
699.761	19.15
699.789	-3.85
699.818	12.15
699.846	-3.85
699.874	-5.85
699.903	1.15
699.931	4.15
699.96	1.15
699.988	0.15
700.017	-8.85
700.045	1.15
700.074	-2.85
700.102	6.15
700.13	-7.85
700.159	9.15
700.187	6.15
700.216	6.15
700.244	-6.85
700.273	10.15
700.301	4.15
700.329	14.15
700.358	21.15
700.386	17.15
700.415	-10.85
700.443	-0.85
700.472	-4.85
700.5	-6.85
700.528	-4.85
700.557	9.15
700.585	-4.85
700.614	-6.85
700.642	16.15
700.67	0.15
700.699	4.15
700.727	8.15
700.755	1.15
700.784	4.15
700.812	8.15
700.841	2.15
700.869	-2.85
700.897	-13.85
700.926	-0.85
700.954	-5.85
700.982	2.15
701.011	-0.85
701.039	0.15
701.067	5.15
701.096	18.15
701.124	-12.85
701.152	-5.85
701.181	-4.85
701.209	3.15
701.237	-4.85
701.266	2.15
701.294	-3.85
701.322	-10.85
701.351	4.15
701.379	7.15
701.407	-11.85
701.435	-1.85
701.464	15.15
701.492	21.15
701.52	-12.85
701.549	0.15
701.577	-14.85
701.605	-4.85
701.634	-7.85
701.662	-15.85
701.69	-4.85
701.718	-8.85
701.747	3.15
701.775	4.15
701.803	-8.85
701.831	11.15
701.86	10.15
701.888	6.15
701.916	-2.85
701.944	16.15
701.973	3.15
702.001	-21.85
702.029	-12.85
702.057	9.15
702.086	-4.85
702.114	5.15
702.142	-3.85
702.17	-11.85
702.199	13.15
702.227	-1.85
702.255	-4.85
702.283	-6.85
702.311	4.15
702.34	-11.85
702.368	-13.85
702.396	-0.85
702.424	0.15
702.452	12.15
702.481	-1.85
702.509	-15.85
702.537	8.15
702.565	7.15
702.593	-21.85
702.621	-1.85
702.65	0.15
702.678	8.15
702.706	7.15
702.734	-3.85
702.762	22.15
702.79	-2.85
702.819	2.15
702.847	19.15
702.875	24.15
702.903	-2.85
702.931	0.15
702.959	-2.85
702.988	5.15
703.016	-6.85
703.044	9.15
703.072	-3.85
703.1	1.15
703.128	-4.85
703.156	-0.85
703.184	7.15
703.212	21.15
703.241	0.15
703.269	6.15
703.297	0.15
703.325	1.15
703.353	-22.85
703.381	-8.85
703.409	2.15
703.437	-3.85
703.465	4.15
703.493	-12.85
703.522	1.15
703.55	10.15
703.578	19.15
703.606	-4.85
703.634	-8.85
703.662	-12.85
703.69	9.15
703.718	9.15
703.746	8.15
703.774	0.15
703.802	9.15
703.83	-0.85
703.858	4.15
703.886	-0.85
703.914	-10.85
703.942	-4.85
703.97	-4.85
703.998	-14.85
704.027	13.15
704.055	0.15
704.083	-4.85
704.111	-1.85
704.139	9.15
704.167	-13.85
704.195	1.15
704.223	8.15
704.251	-15.85
704.279	2.15
704.307	-7.85
704.335	-0.85
704.363	-9.85
704.391	-2.85
704.419	-0.85
704.447	-2.85
704.475	16.15
704.503	-4.85
704.531	12.15
704.558	13.15
704.586	10.15
704.614	8.15
704.642	-1.85
704.67	-13.85
704.698	-3.85
704.726	5.15
704.754	11.15
704.782	0.15
704.81	-3.85
704.838	7.15
704.866	-12.85
704.894	-5.85
704.922	-5.85
704.95	13.15
704.978	15.15
705.006	1.15
705.034	26.15
705.061	-6.85
705.089	2.15
705.117	-8.85
705.145	-15.85
705.173	-3.85
705.201	4.15
705.229	4.15
705.257	5.15
705.285	20.15
705.313	-7.85
705.34	-9.85
705.368	1.15
705.396	-6.85
705.424	4.15
705.452	-3.85
705.48	0.15
705.508	-5.85
705.536	-6.85
705.563	-15.85
705.591	3.15
705.619	-5.85
705.647	-19.85
705.675	14.15
705.703	7.15
705.731	3.15
705.758	8.15
705.786	12.15
705.814	17.15
705.842	12.15
705.87	24.15
705.898	14.15
705.925	-6.85
705.953	4.15
705.981	-11.85
706.009	4.15
706.037	13.15
706.065	0.15
706.092	-14.85
706.12	0.15
706.148	-23.85
706.176	4.15
706.204	2.15
706.231	2.15
706.259	0.15
706.287	-3.85
706.315	0.15
706.342	2.15
706.37	5.15
706.398	-8.85
706.426	-7.85
706.454	-6.85
706.481	10.15
706.509	-8.85
706.537	1.15
706.565	-10.85
706.592	10.15
706.62	0.15
706.648	1.15
706.676	0.15
706.703	18.15
706.731	-7.85
706.759	-2.85
706.787	8.15
706.814	2.15
706.842	-0.85
706.87	-2.85
706.897	-6.85
706.925	-11.85
706.953	11.15
706.981	17.15
707.008	10.15
707.036	6.15
707.064	-6.85
707.091	-3.85
707.119	4.15
707.147	1.15
707.174	5.15
707.202	11.15
707.23	-8.85
707.258	7.15
707.285	-0.85
707.313	4.15
707.341	-13.85
707.368	-5.85
707.396	-4.85
707.424	13.15
707.451	10.15
707.479	4.15
707.507	-6.85
707.534	-7.85
707.562	3.15
707.59	-5.85
707.617	-14.85
707.645	-10.85
707.672	10.15
707.7	-3.85
707.728	-3.85
707.755	-0.85
707.783	-0.85
707.811	-1.85
707.838	-10.85
707.866	5.15
707.893	0.15
707.921	14.15
707.949	-4.85
707.976	-18.85
708.004	9.15
708.031	-13.85
708.059	-11.85
708.087	-3.85
708.114	0.15
708.142	-7.85
708.169	4.15
708.197	-18.85
708.225	-3.85
708.252	-14.85
708.28	12.15
708.307	0.15
708.335	-1.85
708.362	-4.85
708.39	-14.85
708.418	-7.85
708.445	-7.85
708.473	-3.85
708.5	-4.85
708.528	4.15
708.555	-7.85
708.583	0.15
708.61	-21.85
708.638	-6.85
708.665	-0.85
708.693	-7.85
708.72	-5.85
708.748	-15.85
708.776	-3.85
708.803	14.15
708.831	27.15
708.858	0.15
708.886	-8.85
708.913	-6.85
708.941	-2.85
708.968	3.15
708.996	-0.85
709.023	33.15
709.051	-14.85
709.078	-13.85
709.105	5.15
709.133	8.15
709.16	5.15
709.188	24.15
709.215	18.15
709.243	15.15
709.27	-0.85
709.298	-12.85
709.325	-2.85
709.353	-9.85
709.38	-6.85
709.408	8.15
709.435	1.15
709.462	0.15
709.49	-6.85
709.517	-10.85
709.545	-2.85
709.572	5.15
709.6	1.15
709.627	12.15
709.655	1.15
709.682	-9.85
709.709	-5.85
709.737	5.15
709.764	0.15
709.792	-1.85
709.819	-10.85
709.846	-13.85
709.874	-4.85
709.901	8.15
709.929	11.15
709.956	7.15
709.983	-8.85
710.011	-4.85
710.038	-11.85
710.066	23.15
710.093	15.15
710.12	-1.85
710.148	9.15
710.175	-19.85
710.202	-16.85
710.23	0.15
710.257	4.15
710.284	14.15
710.312	8.15
710.339	12.15
710.366	2.15
710.394	-6.85
710.421	2.15
710.448	5.15
710.476	-7.85
710.503	-13.85
710.53	8.15
710.558	25.15
710.585	8.15
710.612	-12.85
710.64	-0.85
710.667	3.15
710.694	-12.85
710.722	-4.85
710.749	1.15
710.776	14.15
710.804	7.15
710.831	8.15
710.858	-10.85
710.885	-6.85
710.913	3.15
710.94	19.15
710.967	-1.85
710.995	-7.85
711.022	-0.85
711.049	-5.85
711.076	-12.85
711.104	-9.85
711.131	-3.85
711.158	8.15
711.185	5.15
711.213	-14.85
711.24	-5.85
711.267	6.15
711.294	-16.85
711.322	9.15
711.349	-7.85
711.376	-4.85
711.403	7.15
711.431	2.15
711.458	-0.85
711.485	-10.85
711.512	-3.85
711.54	-7.85
711.567	2.15
711.594	-0.85
711.621	-5.85
711.648	-3.85
711.676	2.15
711.703	-8.85
711.73	-8.85
711.757	10.15
711.784	-2.85
711.812	1.15
711.839	4.15
711.866	12.15
711.893	-3.85
711.92	-3.85
711.947	-0.85
711.975	12.15
712.002	-12.85
712.029	-1.85
712.056	-2.85
712.083	7.15
712.11	-16.85
712.138	4.15
712.165	11.15
712.192	1.15
712.219	-4.85
712.246	1.15
712.273	0.15
712.3	-2.85
712.328	3.15
712.355	0.15
712.382	-4.85
712.409	4.15
712.436	-9.85
712.463	3.15
712.49	-0.85
712.517	5.15
712.544	0.15
712.572	-7.85
712.599	-10.85
712.626	13.15
712.653	-5.85
712.68	-30.85
712.707	-3.85
712.734	4.15
712.761	11.15
712.788	7.15
712.815	9.15
712.842	26.15
712.87	-13.85
712.897	-19.85
712.924	2.15
712.951	8.15
712.978	15.15
713.005	25.15
713.032	8.15
713.059	10.15
713.086	5.15
713.113	-4.85
713.14	-18.85
713.167	3.15
713.194	12.15
713.221	5.15
713.248	8.15
713.275	-11.85
713.302	-11.85
713.329	1.15
713.356	3.15
713.383	19.15
713.41	10.15
713.437	-20.85
713.464	-7.85
713.491	13.15
713.518	1.15
713.545	-0.85
713.572	1.15
713.599	1.15
713.626	-5.85
713.653	1.15
713.68	7.15
713.707	2.15
713.734	17.15
713.761	-4.85
713.788	6.15
713.815	14.15
713.842	-11.85
713.869	-6.85
713.896	-8.85
713.923	-2.85
713.95	-9.85
713.977	-4.85
714.004	-4.85
714.031	-10.85
714.058	-16.85
714.085	8.15
714.112	15.15
714.139	4.15
714.165	3.15
714.192	-3.85
714.219	5.15
714.246	3.15
714.273	-10.85
714.3	8.15
714.327	0.15
714.354	5.15
714.381	-7.85
714.408	2.15
714.435	7.15
714.461	-8.85
714.488	1.15
714.515	-8.85
714.542	-2.85
714.569	-1.85
714.596	-12.85
714.623	6.15
714.65	-0.85
714.677	-0.85
714.703	-4.85
714.73	-2.85
714.757	3.15
714.784	9.15
714.811	-14.85
714.838	-8.85
714.865	-9.85
714.891	8.15
714.918	-8.85
714.945	-2.85
714.972	-0.85
714.999	11.15
715.026	-12.85
715.052	4.15
715.079	-3.85
715.106	0.15
715.133	5.15
715.16	3.15
715.187	-0.85
715.213	-3.85
715.24	-10.85
715.267	10.15
715.294	9.15
715.321	-12.85
715.347	-2.85
715.374	-14.85
715.401	3.15
715.428	0.15
715.455	10.15
715.481	-10.85
715.508	9.15
715.535	0.15
715.562	25.15
715.588	1.15
715.615	5.15
715.642	3.15
715.669	7.15
715.695	-12.85
715.722	-10.85
715.749	1.15
715.776	0.15
715.802	-6.85
715.829	4.15
715.856	-7.85
715.883	5.15
715.909	1.15
715.936	1.15
715.963	-2.85
715.99	-10.85
716.016	18.15
716.043	-3.85
716.07	-11.85
716.096	-8.85
716.123	-15.85
716.15	9.15
716.177	-5.85
716.203	20.15
716.23	18.15
716.257	3.15
716.283	8.15
716.31	17.15
716.337	5.15
716.363	-2.85
716.39	-4.85
716.417	8.15
716.443	-2.85
716.47	-0.85
716.497	-1.85
716.523	19.15
716.55	-1.85
716.577	12.15
716.603	5.15
716.63	3.15
716.657	19.15
716.683	-6.85
716.71	2.15
716.737	-3.85
716.763	13.15
716.79	21.15
716.817	21.15
716.843	-2.85
716.87	-0.85
716.897	8.15
716.923	10.15
716.95	0.15
716.976	-13.85
717.003	-7.85
717.03	7.15
717.056	-4.85
717.083	-1.85
717.109	3.15
717.136	12.15
717.163	-10.85
717.189	16.15
717.216	-13.85
717.242	7.15
717.269	3.15
717.296	20.15
717.322	8.15
717.349	17.15
717.375	9.15
717.402	6.15
717.428	8.15
717.455	14.15
717.481	-5.85
717.508	-2.85
717.535	17.15
717.561	3.15
717.588	-0.85
717.614	1.15
717.641	-5.85
717.667	4.15
717.694	4.15
717.72	-4.85
717.747	-5.85
717.773	-11.85
717.8	-0.85
717.826	4.15
717.853	3.15
717.88	15.15
717.906	17.15
717.933	11.15
717.959	3.15
717.986	13.15
718.012	1.15
718.039	13.15
718.065	14.15
718.092	13.15
718.118	-2.85
718.144	4.15
718.171	21.15
718.197	10.15
718.224	-7.85
718.25	4.15
718.277	8.15
718.303	-6.85
718.33	-16.85
718.356	-6.85
718.383	-14.85
718.409	-3.85
718.436	-8.85
718.462	-23.85
718.489	4.15
718.515	12.15
718.541	16.15
718.568	14.15
718.594	-5.85
718.621	-4.85
718.647	-10.85
718.674	4.15
718.7	7.15
718.726	6.15
718.753	11.15
718.779	16.15
718.806	9.15
718.832	10.15
718.858	-8.85
718.885	-16.85
718.911	-11.85
718.938	12.15
718.964	4.15
718.99	1.15
719.017	14.15
719.043	17.15
719.07	11.15
719.096	-15.85
719.122	0.15
719.149	-2.85
719.175	3.15
719.201	3.15
719.228	1.15
719.254	-13.85
719.281	-16.85
719.307	-4.85
719.333	-12.85
719.36	17.15
719.386	5.15
719.412	10.15
719.439	-0.85
719.465	0.15
719.491	2.15
719.518	1.15
719.544	9.15
719.57	8.15
719.597	4.15
719.623	-4.85
719.649	1.15
719.675	-3.85
719.702	3.15
719.728	1.15
719.754	-4.85
719.781	-5.85
719.807	-5.85
719.833	-9.85
719.86	-7.85
719.886	4.15
719.912	4.15
719.938	4.15
719.965	-5.85
719.991	7.15
720.017	4.15
720.044	-10.85
720.07	1.15
720.096	9.15
720.122	4.15
720.149	-1.85
720.175	10.15
720.201	-6.85
720.227	-8.85
720.254	4.15
720.28	1.15
720.306	-1.85
720.332	-4.85
720.359	0.15
720.385	13.15
720.411	0.15
720.437	-0.85
720.463	-2.85
720.49	-1.85
720.516	-5.85
720.542	-7.85
720.568	-14.85
720.595	3.15
720.621	-0.85
720.647	2.15
720.673	4.15
720.699	-0.85
720.725	4.15
720.752	2.15
720.778	7.15
720.804	6.15
720.83	16.15
720.856	-3.85
720.883	-5.85
720.909	2.15
720.935	17.15
720.961	11.15
720.987	10.15
721.013	7.15
721.04	5.15
721.066	-7.85
721.092	-0.85
721.118	16.15
721.144	1.15
721.17	3.15
721.196	9.15
721.223	-2.85
721.249	9.15
721.275	8.15
721.301	0.15
721.327	9.15
721.353	5.15
721.379	5.15
721.405	-1.85
721.432	2.15
721.458	3.15
721.484	8.15
721.51	-7.85
721.536	6.15
721.562	-0.85
721.588	-4.85
721.614	7.15
721.64	1.15
721.666	8.15
721.693	1.15
721.719	-6.85
721.745	-7.85
721.771	-0.85
721.797	-6.85
721.823	-0.85
721.849	16.15
721.875	8.15
721.901	0.15
721.927	9.15
721.953	0.15
721.979	15.15
722.005	5.15
722.031	0.15
722.057	5.15
722.083	4.15
722.109	19.15
722.135	14.15
722.161	7.15
722.187	-2.85
722.214	-2.85
722.24	3.15
722.266	0.15
722.292	12.15
722.318	-0.85
722.344	-4.85
722.37	0.15
722.396	6.15
722.422	-9.85
722.448	-3.85
722.474	-0.85
722.5	15.15
722.526	16.15
722.552	30.15
722.578	11.15
722.603	10.15
722.629	-0.85
722.655	-4.85
722.681	-10.85
722.707	3.15
722.733	-7.85
722.759	6.15
722.785	4.15
722.811	21.15
722.837	9.15
722.863	17.15
722.889	8.15
722.915	-13.85
722.941	-4.85
722.967	-3.85
722.993	4.15
723.019	4.15
723.045	6.15
723.071	1.15
723.097	3.15
723.122	1.15
723.148	-12.85
723.174	-8.85
723.2	0.15
723.226	7.15
723.252	-2.85
723.278	-5.85
723.304	-8.85
723.33	-4.85
723.356	-7.85
723.381	-4.85
723.407	-3.85
723.433	3.15
723.459	-1.85
723.485	5.15
723.511	19.15
723.537	1.15
723.563	6.15
723.588	3.15
723.614	-5.85
723.64	-4.85
723.666	-6.85
723.692	-3.85
723.718	7.15
723.744	3.15
723.769	2.15
723.795	-3.85
723.821	-2.85
723.847	-16.85
723.873	-6.85
723.899	-0.85
723.924	-8.85
723.95	-2.85
723.976	-12.85
724.002	-4.85
724.028	9.15
724.053	-0.85
724.079	5.15
724.105	-4.85
724.131	4.15
724.157	-3.85
724.182	12.15
724.208	3.15
724.234	9.15
724.26	12.15
724.286	-1.85
724.311	8.15
724.337	-2.85
724.363	-1.85
724.389	2.15
724.415	-1.85
724.44	16.15
724.466	4.15
724.492	-0.85
724.518	4.15
724.543	-0.85
724.569	8.15
724.595	11.15
724.621	-7.85
724.646	-6.85
724.672	-7.85
724.698	-8.85
724.723	-7.85
724.749	-8.85
724.775	1.15
724.801	7.15
724.826	-3.85
724.852	3.15
724.878	-8.85
724.904	-29.85
724.929	6.15
724.955	-13.85
724.981	9.15
725.006	5.15
725.032	-4.85
725.058	-0.85
725.083	-16.85
725.109	-3.85
725.135	10.15
725.161	7.15
725.186	3.15
725.212	-0.85
725.238	18.15
725.263	-3.85
725.289	-4.85
725.315	-2.85
725.34	2.15
725.366	1.15
725.392	-9.85
725.417	-0.85
725.443	12.15
725.468	11.15
725.494	13.15
725.52	18.15
725.545	0.15
725.571	-12.85
725.597	7.15
725.622	21.15
725.648	1.15
725.674	8.15
725.699	0.15
725.725	-2.85
725.75	29.15
725.776	2.15
725.802	4.15
725.827	-0.85
725.853	0.15
725.878	-15.85
725.904	-9.85
725.93	-0.85
725.955	0.15
725.981	-3.85
726.006	1.15
726.032	19.15
726.057	0.15
726.083	-5.85
726.109	6.15
726.134	12.15
726.16	0.15
726.185	-11.85
726.211	-3.85
726.236	-0.85
726.262	11.15
726.288	-4.85
726.313	11.15
726.339	7.15
726.364	1.15
726.39	6.15
726.415	7.15
726.441	-1.85
726.466	-6.85
726.492	13.15
726.517	2.15
726.543	7.15
726.568	-11.85
726.594	-4.85
726.619	-4.85
726.645	12.15
726.67	-0.85
726.696	7.15
726.721	9.15
726.747	-4.85
726.772	3.15
726.798	1.15
726.823	9.15
726.849	18.15
726.874	1.15
726.9	34.15
726.925	4.15
726.951	-13.85
726.976	13.15
727.002	5.15
727.027	1.15
727.053	12.15
727.078	8.15
727.104	4.15
727.129	-20.85
727.155	-4.85
727.18	-5.85
727.205	-13.85
727.231	-2.85
727.256	4.15
727.282	-0.85
727.307	7.15
727.333	-3.85
727.358	-18.85
727.383	-7.85
727.409	-20.85
727.434	13.15
727.46	4.15
727.485	-6.85
727.511	4.15
727.536	-10.85
727.561	-3.85
727.587	-9.85
727.612	2.15
727.637	-7.85
727.663	-6.85
727.688	22.15
727.714	-7.85
727.739	-5.85
727.764	-14.85
727.79	1.15
727.815	1.15
727.841	2.15
727.866	4.15
727.891	13.15
727.917	-13.85
727.942	0.15
727.967	-2.85
727.993	-15.85
728.018	16.15
728.043	11.15
728.069	25.15
728.094	20.15
728.119	17.15
728.145	30.15
728.17	7.15
728.195	-5.85
728.221	22.15
728.246	-11.85
728.271	-18.85
728.297	8.15
728.322	7.15
728.347	-4.85
728.373	1.15
728.398	7.15
728.423	5.15
728.448	6.15
728.474	0.15
728.499	5.15
728.524	-6.85
728.55	-6.85
728.575	3.15
728.6	-5.85
728.625	-8.85
728.651	4.15
728.676	-2.85
728.701	-6.85
728.727	-7.85
728.752	-11.85
728.777	-10.85
728.802	0.15
728.828	-3.85
728.853	-20.85
728.878	-6.85
728.903	0.15
728.929	4.15
728.954	-4.85
728.979	3.15
729.004	-3.85
729.03	-13.85
729.055	6.15
729.08	-11.85
729.105	-2.85
729.13	19.15
729.156	5.15
729.181	8.15
729.206	-8.85
729.231	-1.85
729.256	9.15
729.282	-3.85
729.307	-8.85
729.332	-6.85
729.357	-0.85
729.382	-1.85
729.408	1.15
729.433	1.15
729.458	1.15
729.483	6.15
729.508	12.15
729.533	2.15
729.559	0.15
729.584	-15.85
729.609	-5.85
729.634	12.15
729.659	-6.85
729.684	-18.85
729.71	19.15
729.735	11.15
729.76	4.15
729.785	-2.85
729.81	12.15
729.835	11.15
729.86	-5.85
729.886	12.15
729.911	-2.85
729.936	-0.85
729.961	-3.85
729.986	-14.85
730.011	20.15
730.036	4.15
730.061	9.15
730.086	5.15
730.112	7.15
730.137	8.15
730.162	9.15
730.187	12.15
730.212	-1.85
730.237	0.15
730.262	-5.85
730.287	-6.85
730.312	21.15
730.337	-7.85
730.362	14.15
730.387	-5.85
730.413	0.15
730.438	-6.85
730.463	7.15
730.488	-0.85
730.513	-0.85
730.538	-6.85
730.563	-0.85
730.588	-0.85
730.613	12.15
730.638	10.15
730.663	5.15
730.688	16.15
730.713	6.15
730.738	-2.85
730.763	17.15
730.788	1.15
730.813	21.15
730.838	-5.85
730.863	-5.85
730.888	5.15
730.913	-23.85
730.938	-7.85
730.963	-11.85
730.988	5.15
731.013	28.15
731.038	-2.85
731.063	1.15
731.088	-11.85
731.113	-0.85
731.138	0.15
731.163	-5.85
731.188	1.15
731.213	-11.85
731.238	11.15
731.263	-8.85
731.288	-8.85
731.313	-3.85
731.338	-5.85
731.363	-10.85
731.388	0.15
731.413	2.15
731.438	7.15
731.463	-2.85
731.487	11.15
731.512	-7.85
731.537	-3.85
731.562	1.15
731.587	-7.85
731.612	-3.85
731.637	-6.85
731.662	-8.85
731.687	-18.85
731.712	-15.85
731.737	3.15
731.762	5.15
731.786	14.15
731.811	10.15
731.836	-0.85
731.861	-5.85
731.886	-9.85
731.911	8.15
731.936	7.15
731.961	-0.85
731.986	1.15
732.01	1.15
732.035	-1.85
732.06	-16.85
732.085	-5.85
732.11	5.15
732.135	-6.85
732.16	-5.85
732.184	-6.85
732.209	-2.85
732.234	15.15
732.259	10.15
732.284	13.15
732.309	-0.85
732.334	-5.85
732.358	-12.85
732.383	-7.85
732.408	7.15
732.433	-5.85
732.458	-0.85
732.482	12.15
732.507	5.15
732.532	12.15
732.557	4.15
732.582	2.15
732.607	0.15
732.631	-9.85
732.656	0.15
732.681	3.15
732.706	-3.85
732.73	4.15
732.755	-20.85
732.78	-4.85
732.805	-0.85
732.83	16.15
732.854	4.15
732.879	17.15
732.904	-2.85
732.929	-6.85
732.953	4.15
732.978	9.15
733.003	-4.85
733.028	-3.85
733.052	5.15
733.077	-8.85
733.102	7.15
733.127	-9.85
733.151	0.15
733.176	5.15
733.201	6.15
733.226	0.15
733.25	-0.85
733.275	4.15
733.3	0.15
733.324	-3.85
733.349	0.15
733.374	-3.85
733.399	-3.85
733.423	-3.85
733.448	11.15
733.473	9.15
733.497	-6.85
733.522	-8.85
733.547	7.15
733.571	12.15
733.596	-4.85
733.621	2.15
733.646	-1.85
733.67	-0.85
733.695	0.15
733.72	17.15
733.744	8.15
733.769	-7.85
733.794	27.15
733.818	7.15
733.843	-6.85
733.867	20.15
733.892	-5.85
733.917	-3.85
733.941	-0.85
733.966	-24.85
733.991	-4.85
734.015	6.15
734.04	7.15
734.065	15.15
734.089	-2.85
734.114	-0.85
734.138	8.15
734.163	1.15
734.188	-0.85
734.212	16.15
734.237	18.15
734.261	0.15
734.286	-1.85
734.311	-3.85
734.335	2.15
734.36	-0.85
734.384	13.15
734.409	-2.85
734.434	0.15
734.458	14.15
734.483	-5.85
734.507	-15.85
734.532	-1.85
734.556	18.15
734.581	7.15
734.606	3.15
734.63	0.15
734.655	3.15
734.679	6.15
734.704	8.15
734.728	-3.85
734.753	-9.85
734.777	19.15
734.802	-0.85
734.826	-4.85
734.851	8.15
734.876	8.15
734.9	-0.85
734.925	7.15
734.949	21.15
734.974	10.15
734.998	16.15
735.023	-6.85
735.047	-11.85
735.072	9.15
735.096	-2.85
735.121	11.15
735.145	-5.85
735.17	-2.85
735.194	9.15
735.219	-2.85
735.243	17.15
735.268	17.15
735.292	9.15
735.317	3.15
735.341	12.15
735.365	-3.85
735.39	9.15
735.414	16.15
735.439	19.15
735.463	14.15
735.488	6.15
735.512	-6.85
735.537	4.15
735.561	-10.85
735.586	4.15
735.61	13.15
735.634	-7.85
735.659	-3.85
735.683	8.15
735.708	12.15
735.732	-4.85
735.757	-18.85
735.781	2.15
735.805	-1.85
735.83	-25.85
735.854	-8.85
735.879	4.15
735.903	12.15
735.927	-0.85
735.952	-5.85
735.976	-7.85
736.001	-0.85
736.025	0.15
736.049	4.15
736.074	1.15
736.098	20.15
736.123	17.15
736.147	6.15
736.171	7.15
736.196	7.15
736.22	-6.85
736.244	14.15
736.269	2.15
736.293	-0.85
736.317	-6.85
736.342	0.15
736.366	8.15
736.39	9.15
736.415	-0.85
736.439	1.15
736.463	15.15
736.488	8.15
736.512	-6.85
736.536	-0.85
736.561	18.15
736.585	6.15
736.609	19.15
736.634	-5.85
736.658	1.15
736.682	-11.85
736.707	-4.85
736.731	-14.85
736.755	-5.85
736.78	7.15
736.804	5.15
736.828	-4.85
736.852	0.15
736.877	-4.85
736.901	7.15
736.925	9.15
736.949	3.15
736.974	-14.85
736.998	1.15
737.022	0.15
737.047	0.15
737.071	-0.85
737.095	29.15
737.119	26.15
737.144	13.15
737.168	-7.85
737.192	1.15
737.216	3.15
737.241	2.15
737.265	15.15
737.289	1.15
737.313	-10.85
737.337	13.15
737.362	13.15
737.386	2.15
737.41	-7.85
737.434	0.15
737.459	11.15
737.483	12.15
737.507	24.15
737.531	12.15
737.555	-11.85
737.58	7.15
737.604	-3.85
737.628	-3.85
737.652	-7.85
737.676	-2.85
737.701	1.15
737.725	-4.85
737.749	9.15
737.773	9.15
737.797	1.15
737.821	-1.85
737.846	0.15
737.87	21.15
737.894	1.15
737.918	5.15
737.942	5.15
737.966	13.15
737.99	6.15
738.015	4.15
738.039	5.15
738.063	-8.85
738.087	-3.85
738.111	0.15
738.135	14.15
738.159	-5.85
738.184	-4.85
738.208	8.15
738.232	-4.85
738.256	12.15
738.28	2.15
738.304	11.15
738.328	-3.85
738.352	23.15
738.376	4.15
738.4	10.15
738.425	4.15
738.449	-13.85
738.473	9.15
738.497	5.15
738.521	1.15
738.545	15.15
738.569	-0.85
738.593	13.15
738.617	4.15
738.641	-6.85
738.665	-0.85
738.689	3.15
738.713	-14.85
738.737	3.15
738.762	11.15
738.786	1.15
738.81	-6.85
738.834	12.15
738.858	-0.85
738.882	6.15
738.906	0.15
738.93	4.15
738.954	1.15
738.978	13.15
739.002	-2.85
739.026	11.15
739.05	12.15
739.074	-12.85
739.098	23.15
739.122	16.15
739.146	2.15
739.17	0.15
739.194	-3.85
739.218	-4.85
739.242	4.15
739.266	3.15
739.29	7.15
739.314	1.15
739.338	0.15
739.362	-4.85
739.386	9.15
739.41	-8.85
739.434	6.15
739.458	10.15
739.482	-4.85
739.506	14.15
739.53	7.15
739.554	5.15
739.577	5.15
739.601	7.15
739.625	-13.85
739.649	-3.85
739.673	-15.85
739.697	13.15
739.721	5.15
739.745	2.15
739.769	6.15
739.793	11.15
739.817	-9.85
739.841	-13.85
739.865	-4.85
739.889	-16.85
739.912	-2.85
739.936	-12.85
739.96	-15.85
739.984	3.15
740.008	6.15
740.032	-15.85
740.056	17.15
740.08	0.15
740.104	-8.85
740.127	-9.85
740.151	6.15
740.175	15.15
740.199	2.15
740.223	42.15
740.247	-0.85
740.271	-2.85
740.295	-9.85
740.318	-13.85
740.342	8.15
740.366	15.15
740.39	-0.85
740.414	6.15
740.438	0.15
740.461	1.15
740.485	7.15
740.509	1.15
740.533	-7.85
740.557	-16.85
740.581	-10.85
740.604	-2.85
740.628	-0.85
740.652	-4.85
740.676	-12.85
740.7	14.15
740.723	2.15
740.747	-10.85
740.771	-8.85
740.795	-4.85
740.819	9.15
740.842	-18.85
740.866	21.15
740.89	17.15
740.914	-11.85
740.938	-2.85
740.961	23.15
740.985	15.15
741.009	-3.85
741.033	12.15
741.056	1.15
741.08	-5.85
741.104	-12.85
741.128	5.15
741.151	4.15
741.175	5.15
741.199	-2.85
741.223	14.15
741.246	-10.85
741.27	0.15
741.294	12.15
741.318	2.15
741.341	-11.85
741.365	-1.85
741.389	-0.85
741.413	2.15
741.436	14.15
741.46	3.15
741.484	16.15
741.507	11.15
741.531	32.15
741.555	17.15
741.579	-0.85
741.602	11.15
741.626	11.15
741.65	4.15
741.673	9.15
741.697	9.15
741.721	9.15
741.744	-12.85
741.768	-6.85
741.792	0.15
741.815	7.15
741.839	11.15
741.863	20.15
741.886	7.15
741.91	4.15
741.934	0.15
741.957	-11.85
741.981	19.15
742.005	1.15
742.028	-7.85
742.052	-0.85
742.075	15.15
742.099	27.15
742.123	6.15
742.146	-7.85
742.17	-4.85
742.194	-17.85
742.217	-10.85
742.241	-14.85
742.264	-0.85
742.288	12.15
742.312	7.15
742.335	-3.85
742.359	-4.85
742.382	-3.85
742.406	2.15
742.43	-6.85
742.453	7.15
742.477	-15.85
742.5	9.15
742.524	-6.85
742.548	-14.85
742.571	7.15
742.595	0.15
742.618	1.15
742.642	-10.85
742.665	18.15
742.689	9.15
742.712	9.15
742.736	3.15
742.76	-7.85
742.783	-10.85
742.807	2.15
742.83	8.15
742.854	-9.85
742.877	-6.85
742.901	16.15
742.924	-3.85
742.948	3.15
742.971	12.15
742.995	-1.85
743.018	-11.85
743.042	-6.85
743.065	-12.85
743.089	2.15
743.112	1.15
743.136	-5.85
743.159	-3.85
743.183	2.15
743.206	-3.85
743.23	-14.85
743.253	3.15
743.277	1.15
743.3	-4.85
743.324	-7.85
743.347	-11.85
743.371	14.15
743.394	16.15
743.418	19.15
743.441	19.15
743.465	13.15
743.488	11.15
743.512	-1.85
743.535	12.15
743.558	4.15
743.582	10.15
743.605	-0.85
743.629	1.15
743.652	0.15
743.676	-6.85
743.699	12.15
743.723	15.15
743.746	20.15
743.769	-2.85
743.793	-0.85
743.816	-3.85
743.84	25.15
743.863	4.15
743.886	-7.85
743.91	15.15
743.933	10.15
743.957	10.15
743.98	-0.85
744.003	1.15
744.027	3.15
744.05	4.15
744.074	-3.85
744.097	-16.85
744.12	-6.85
744.144	-9.85
744.167	17.15
744.19	2.15
744.214	-7.85
744.237	-16.85
744.26	21.15
744.284	-6.85
744.307	-8.85
744.331	-2.85
744.354	-11.85
744.377	-0.85
744.401	-12.85
744.424	-16.85
744.447	-4.85
744.471	-18.85
