Data from HighRes_H2_15_09_11_07_2024_HR4C61891__77__15-11-04-102.txt Node

Date: Thu Nov 07 15:11:04 EST 2024
User: crc00042
Spectrometer: HR4C6189
Trigger mode: 4
Integration Time (sec): 1.000000E-1
Scans to average: 1
Electric dark correction enabled: true
Nonlinearity correction enabled: false
Boxcar width: 0
XAxis mode: Wavelengths
Number of Pixels in Spectrum: 3648
>>>>>Begin Spectral Data<<<<<
639.567	-43.85
639.602	-43.85
639.636	-43.85
639.67	-37.85
639.704	-10.85
639.738	1.15
639.773	3.15
639.807	-10.85
639.841	-11.85
639.875	8.15
639.909	-1.85
639.943	7.15
639.978	2.15
640.012	-11.85
640.046	11.15
640.08	15.15
640.114	7.15
640.148	-18.85
640.182	-11.85
640.217	2.15
640.251	22.15
640.285	15.15
640.319	-6.85
640.353	-5.85
640.387	-7.85
640.421	-11.85
640.455	-8.85
640.49	-8.85
640.524	-11.85
640.558	8.15
640.592	-5.85
640.626	-3.85
640.66	-1.85
640.694	-14.85
640.728	4.15
640.762	7.15
640.796	15.15
640.83	9.15
640.865	-17.85
640.899	-0.85
640.933	0.15
640.967	-4.85
641.001	-2.85
641.035	4.15
641.069	-30.85
641.103	-17.85
641.137	-4.85
641.171	0.15
641.205	8.15
641.239	-11.85
641.273	5.15
641.307	3.15
641.341	-1.85
641.375	-0.85
641.409	-10.85
641.443	-14.85
641.477	-1.85
641.511	5.15
641.545	-2.85
641.579	-0.85
641.614	11.15
641.648	-2.85
641.682	-5.85
641.716	5.15
641.75	17.15
641.784	13.15
641.818	-6.85
641.852	4.15
641.886	-8.85
641.919	1.15
641.953	-0.85
641.987	-12.85
642.021	7.15
642.055	3.15
642.089	5.15
642.123	-2.85
642.157	3.15
642.191	-3.85
642.225	11.15
642.259	-3.85
642.293	19.15
642.327	-3.85
642.361	-6.85
642.395	28.15
642.429	10.15
642.463	0.15
642.497	-9.85
642.531	-7.85
642.565	-11.85
642.599	3.15
642.633	-7.85
642.666	4.15
642.7	15.15
642.734	7.15
642.768	10.15
642.802	-3.85
642.836	13.15
642.87	11.15
642.904	3.15
642.938	14.15
642.972	4.15
643.005	-4.85
643.039	21.15
643.073	7.15
643.107	5.15
643.141	5.15
643.175	10.15
643.209	-5.85
643.243	2.15
643.276	4.15
643.31	-6.85
643.344	0.15
643.378	5.15
643.412	14.15
643.446	-5.85
643.48	-16.85
643.513	13.15
643.547	-3.85
643.581	-3.85
643.615	-2.85
643.649	1.15
643.683	-8.85
643.716	-6.85
643.75	-14.85
643.784	-3.85
643.818	13.15
643.852	-1.85
643.886	-7.85
643.919	16.15
643.953	-6.85
643.987	1.15
644.021	14.15
644.055	9.15
644.088	-0.85
644.122	-6.85
644.156	-4.85
644.19	6.15
644.224	10.15
644.257	6.15
644.291	6.15
644.325	1.15
644.359	20.15
644.392	30.15
644.426	7.15
644.46	-5.85
644.494	15.15
644.527	-11.85
644.561	-4.85
644.595	-4.85
644.629	-4.85
644.662	-6.85
644.696	5.15
644.73	-0.85
644.764	-9.85
644.797	-17.85
644.831	7.15
644.865	5.15
644.899	-19.85
644.932	11.15
644.966	5.15
645	1.15
645.033	8.15
645.067	-13.85
645.101	2.15
645.135	-3.85
645.168	4.15
645.202	-8.85
645.236	-6.85
645.269	1.15
645.303	-5.85
645.337	-9.85
645.37	-13.85
645.404	-0.85
645.438	6.15
645.471	-8.85
645.505	9.15
645.539	-6.85
645.572	-14.85
645.606	-5.85
645.64	12.15
645.673	-1.85
645.707	22.15
645.741	1.15
645.774	-4.85
645.808	3.15
645.842	-14.85
645.875	9.15
645.909	-3.85
645.943	-8.85
645.976	12.15
646.01	13.15
646.043	5.15
646.077	16.15
646.111	-6.85
646.144	6.15
646.178	10.15
646.212	-16.85
646.245	1.15
646.279	0.15
646.312	2.15
646.346	17.15
646.38	-15.85
646.413	-4.85
646.447	5.15
646.48	-2.85
646.514	21.15
646.547	-0.85
646.581	-6.85
646.615	-5.85
646.648	-6.85
646.682	-6.85
646.715	-1.85
646.749	3.15
646.782	-7.85
646.816	0.15
646.85	-0.85
646.883	-0.85
646.917	3.15
646.95	8.15
646.984	2.15
647.017	-12.85
647.051	3.15
647.084	8.15
647.118	-1.85
647.151	-6.85
647.185	2.15
647.218	-22.85
647.252	-8.85
647.285	-4.85
647.319	-0.85
647.353	0.15
647.386	14.15
647.42	1.15
647.453	11.15
647.487	-3.85
647.52	-14.85
647.553	-9.85
647.587	-3.85
647.62	-2.85
647.654	6.15
647.687	5.15
647.721	0.15
647.754	-6.85
647.788	-2.85
647.821	-12.85
647.855	13.15
647.888	10.15
647.922	14.15
647.955	4.15
647.989	-5.85
648.022	-5.85
648.055	8.15
648.089	-12.85
648.122	23.15
648.156	-2.85
648.189	-3.85
648.223	-6.85
648.256	25.15
648.29	6.15
648.323	-2.85
648.356	13.15
648.39	-4.85
648.423	3.15
648.457	-6.85
648.49	18.15
648.523	25.15
648.557	5.15
648.59	-5.85
648.624	8.15
648.657	-1.85
648.69	3.15
648.724	4.15
648.757	13.15
648.791	5.15
648.824	1.15
648.857	15.15
648.891	-6.85
648.924	0.15
648.957	-4.85
648.991	13.15
649.024	-6.85
649.057	-1.85
649.091	8.15
649.124	9.15
649.158	-4.85
649.191	26.15
649.224	12.15
649.258	1.15
649.291	11.15
649.324	-1.85
649.358	-10.85
649.391	-8.85
649.424	4.15
649.458	-10.85
649.491	-5.85
649.524	-26.85
649.557	-14.85
649.591	-13.85
649.624	13.15
649.657	-8.85
649.691	9.15
649.724	0.15
649.757	9.15
649.791	-11.85
649.824	13.15
649.857	-5.85
649.89	-9.85
649.924	-2.85
649.957	-6.85
649.99	-17.85
650.023	6.15
650.057	-0.85
650.09	-11.85
650.123	-0.85
650.157	14.15
650.19	25.15
650.223	-2.85
650.256	-11.85
650.29	-5.85
650.323	7.15
650.356	-0.85
650.389	-1.85
650.423	-5.85
650.456	0.15
650.489	-4.85
650.522	1.15
650.555	8.15
650.589	1.15
650.622	-6.85
650.655	6.15
650.688	7.15
650.721	-13.85
650.755	11.15
650.788	-2.85
650.821	-10.85
650.854	2.15
650.887	5.15
650.921	2.15
650.954	-10.85
650.987	-7.85
651.02	-15.85
651.053	-3.85
651.087	-6.85
651.12	9.15
651.153	-1.85
651.186	-14.85
651.219	-9.85
651.252	15.15
651.286	10.15
651.319	-3.85
651.352	-0.85
651.385	-7.85
651.418	2.15
651.451	30.15
651.484	5.15
651.518	-11.85
651.551	18.15
651.584	-1.85
651.617	9.15
651.65	3.15
651.683	-4.85
651.716	2.15
651.749	0.15
651.783	3.15
651.816	6.15
651.849	-0.85
651.882	-6.85
651.915	1.15
651.948	-1.85
651.981	-4.85
652.014	-10.85
652.047	-9.85
652.08	-16.85
652.114	-6.85
652.147	-3.85
652.18	6.15
652.213	8.15
652.246	-3.85
652.279	-8.85
652.312	1.15
652.345	-1.85
652.378	-5.85
652.411	17.15
652.444	-0.85
652.477	-3.85
652.51	0.15
652.543	0.15
652.576	3.15
652.609	-4.85
652.642	-8.85
652.675	-5.85
652.709	0.15
652.742	-10.85
652.775	-3.85
652.808	-5.85
652.841	-14.85
652.874	7.15
652.907	-13.85
652.94	-5.85
652.973	-0.85
653.006	-7.85
653.039	-3.85
653.072	-2.85
653.105	-5.85
653.138	-15.85
653.171	-12.85
653.204	-0.85
653.237	25.15
653.27	-10.85
653.303	6.15
653.336	19.15
653.368	-2.85
653.401	1.15
653.434	-0.85
653.467	-21.85
653.5	-16.85
653.533	-10.85
653.566	-11.85
653.599	-6.85
653.632	10.15
653.665	7.15
653.698	-8.85
653.731	-24.85
653.764	-10.85
653.797	3.15
653.83	4.15
653.863	-18.85
653.896	6.15
653.929	-6.85
653.961	13.15
653.994	1.15
654.027	-6.85
654.06	-0.85
654.093	2.15
654.126	-8.85
654.159	-30.85
654.192	-11.85
654.225	0.15
654.258	-8.85
654.29	-2.85
654.323	-3.85
654.356	9.15
654.389	5.15
654.422	-16.85
654.455	-5.85
654.488	-5.85
654.521	-14.85
654.553	-20.85
654.586	9.15
654.619	14.15
654.652	-10.85
654.685	-4.85
654.718	9.15
654.751	-6.85
654.783	-0.85
654.816	7.15
654.849	-0.85
654.882	-4.85
654.915	-9.85
654.948	9.15
654.98	-4.85
655.013	-0.85
655.046	-5.85
655.079	-17.85
655.112	0.15
655.144	-18.85
655.177	3.15
655.21	1.15
655.243	17.15
655.276	7.15
655.308	-6.85
655.341	8.15
655.374	9.15
655.407	-4.85
655.44	-0.85
655.472	11.15
655.505	10.15
655.538	0.15
655.571	28.15
655.603	9.15
655.636	14.15
655.669	12.15
655.702	16.15
655.734	-5.85
655.767	20.15
655.8	25.15
655.833	35.15
655.865	13.15
655.898	25.15
655.931	47.15
655.964	35.15
655.996	51.15
656.029	65.15
656.062	49.15
656.095	79.15
656.127	63.15
656.16	115.15
656.193	134.15
656.225	180.15
656.258	288.15
656.291	529.15
656.324	1162.15
656.356	3490.15
656.389	7831.15
656.422	6248.15
656.454	2146.15
656.487	696.15
656.52	261.15
656.552	131.15
656.585	91.15
656.618	72.15
656.65	46.15
656.683	20.15
656.716	20.15
656.748	8.15
656.781	12.15
656.814	-9.85
656.846	9.15
656.879	-0.85
656.912	4.15
656.944	-15.85
656.977	-0.85
657.01	-7.85
657.042	-9.85
657.075	7.15
657.108	-3.85
657.14	3.15
657.173	21.15
657.205	9.15
657.238	-0.85
657.271	4.15
657.303	-3.85
657.336	2.15
657.369	-7.85
657.401	8.15
657.434	1.15
657.466	1.15
657.499	24.15
657.532	9.15
657.564	2.15
657.597	11.15
657.629	15.15
657.662	-9.85
657.694	-4.85
657.727	-22.85
657.76	2.15
657.792	4.15
657.825	-11.85
657.857	-23.85
657.89	-5.85
657.922	3.15
657.955	-11.85
657.987	0.15
658.02	8.15
658.053	10.15
658.085	3.15
658.118	-4.85
658.15	5.15
658.183	10.15
658.215	-7.85
658.248	-12.85
658.28	-18.85
658.313	20.15
658.345	8.15
658.378	9.15
658.41	-5.85
658.443	11.15
658.475	-2.85
658.508	-6.85
658.54	9.15
658.573	2.15
658.605	2.15
658.638	-5.85
658.67	-13.85
658.703	-3.85
658.735	-21.85
658.768	13.15
658.8	7.15
658.833	9.15
658.865	-0.85
658.898	1.15
658.93	-12.85
658.963	-2.85
658.995	-11.85
659.028	9.15
659.06	6.15
659.092	-1.85
659.125	-4.85
659.157	-2.85
659.19	-9.85
659.222	-10.85
659.255	-16.85
659.287	-5.85
659.32	-10.85
659.352	5.15
659.384	5.15
659.417	-6.85
659.449	-9.85
659.482	9.15
659.514	-9.85
659.546	11.15
659.579	-8.85
659.611	6.15
659.644	0.15
659.676	-6.85
659.708	-2.85
659.741	-11.85
659.773	24.15
659.806	10.15
659.838	-0.85
659.87	-12.85
659.903	-0.85
659.935	-1.85
659.967	1.15
660	8.15
660.032	-26.85
660.065	3.15
660.097	-8.85
660.129	0.15
660.162	-13.85
660.194	9.15
660.226	-1.85
660.259	2.15
660.291	-2.85
660.323	-18.85
660.356	-1.85
660.388	-17.85
660.42	-14.85
660.453	12.15
660.485	-4.85
660.517	3.15
660.55	7.15
660.582	7.15
660.614	10.15
660.647	-2.85
660.679	-10.85
660.711	11.15
660.743	-12.85
660.776	-3.85
660.808	-2.85
660.84	-11.85
660.873	6.15
660.905	6.15
660.937	20.15
660.969	8.15
661.002	2.15
661.034	20.15
661.066	9.15
661.099	3.15
661.131	3.15
661.163	-5.85
661.195	-0.85
661.228	-3.85
661.26	-5.85
661.292	-12.85
661.324	3.15
661.357	6.15
661.389	-4.85
661.421	-2.85
661.453	-9.85
661.485	19.15
661.518	-0.85
661.55	-21.85
661.582	-23.85
661.614	-15.85
661.647	1.15
661.679	-4.85
661.711	1.15
661.743	-5.85
661.775	1.15
661.808	11.15
661.84	-5.85
661.872	-4.85
661.904	-12.85
661.936	-5.85
661.969	-6.85
662.001	-5.85
662.033	3.15
662.065	-8.85
662.097	3.15
662.129	3.15
662.162	-13.85
662.194	10.15
662.226	10.15
662.258	6.15
662.29	-1.85
662.322	-9.85
662.355	-16.85
662.387	14.15
662.419	6.15
662.451	9.15
662.483	7.15
662.515	1.15
662.547	-4.85
662.58	-12.85
662.612	2.15
662.644	-13.85
662.676	8.15
662.708	-6.85
662.74	-0.85
662.772	9.15
662.804	11.15
662.836	-3.85
662.869	-14.85
662.901	17.15
662.933	6.15
662.965	-5.85
662.997	-6.85
663.029	-15.85
663.061	-3.85
663.093	6.15
663.125	9.15
663.157	2.15
663.189	0.15
663.221	3.15
663.254	1.15
663.286	1.15
663.318	12.15
663.35	4.15
663.382	8.15
663.414	-9.85
663.446	0.15
663.478	-6.85
663.51	21.15
663.542	-9.85
663.574	-1.85
663.606	-2.85
663.638	-18.85
663.67	-9.85
663.702	-6.85
663.734	-3.85
663.766	14.15
663.798	-6.85
663.83	0.15
663.862	3.15
663.894	-1.85
663.926	-8.85
663.958	11.15
663.99	7.15
664.022	-11.85
664.054	7.15
664.086	-11.85
664.118	-11.85
664.15	-6.85
664.182	-11.85
664.214	-10.85
664.246	6.15
664.278	16.15
664.31	13.15
664.342	13.15
664.374	-5.85
664.406	-10.85
664.438	-5.85
664.47	12.15
664.502	-7.85
664.534	-7.85
664.566	0.15
664.598	7.15
664.63	-19.85
664.662	-2.85
664.693	-4.85
664.725	4.15
664.757	6.15
664.789	-15.85
664.821	9.15
664.853	10.15
664.885	8.15
664.917	-6.85
664.949	3.15
664.981	12.15
665.013	-0.85
665.045	-4.85
665.076	-19.85
665.108	-1.85
665.14	-11.85
665.172	7.15
665.204	-2.85
665.236	-0.85
665.268	29.15
665.3	-3.85
665.331	-9.85
665.363	2.15
665.395	-8.85
665.427	2.15
665.459	7.15
665.491	-11.85
665.523	-1.85
665.555	-2.85
665.586	-10.85
665.618	0.15
665.65	-21.85
665.682	5.15
665.714	-1.85
665.746	-3.85
665.777	-1.85
665.809	-10.85
665.841	-5.85
665.873	-14.85
665.905	-1.85
665.937	5.15
665.968	3.15
666	-0.85
666.032	1.15
666.064	-0.85
666.096	3.15
666.127	2.15
666.159	13.15
666.191	17.15
666.223	3.15
666.255	17.15
666.286	-5.85
666.318	-19.85
666.35	17.15
666.382	-0.85
666.413	-9.85
666.445	-31.85
666.477	-9.85
666.509	-5.85
666.54	6.15
666.572	3.15
666.604	-6.85
666.636	-1.85
666.667	10.15
666.699	-15.85
666.731	1.15
666.763	-16.85
666.794	-7.85
666.826	2.15
666.858	-20.85
666.89	7.15
666.921	5.15
666.953	3.15
666.985	5.15
667.017	12.15
667.048	-15.85
667.08	0.15
667.112	1.15
667.143	-18.85
667.175	-3.85
667.207	-10.85
667.238	2.15
667.27	5.15
667.302	-5.85
667.334	5.15
667.365	17.15
667.397	-1.85
667.429	-5.85
667.46	14.15
667.492	8.15
667.524	-1.85
667.555	-10.85
667.587	-10.85
667.619	-24.85
667.65	-25.85
667.682	-20.85
667.714	-3.85
667.745	-16.85
667.777	-1.85
667.808	9.15
667.84	8.15
667.872	2.15
667.903	0.15
667.935	-7.85
667.967	-6.85
667.998	-0.85
668.03	-6.85
668.061	6.15
668.093	6.15
668.125	2.15
668.156	9.15
668.188	4.15
668.22	-10.85
668.251	0.15
668.283	-1.85
668.314	8.15
668.346	-1.85
668.377	1.15
668.409	-12.85
668.441	6.15
668.472	0.15
668.504	14.15
668.535	16.15
668.567	11.15
668.599	-9.85
668.63	-12.85
668.662	-1.85
668.693	18.15
668.725	-2.85
668.756	2.15
668.788	-5.85
668.819	-5.85
668.851	2.15
668.882	-0.85
668.914	-0.85
668.946	-15.85
668.977	-14.85
669.009	9.15
669.04	-0.85
669.072	-1.85
669.103	-14.85
669.135	-1.85
669.166	1.15
669.198	10.15
669.229	-14.85
669.261	-5.85
669.292	-10.85
669.324	-9.85
669.355	2.15
669.387	-13.85
669.418	-6.85
669.45	-15.85
669.481	-11.85
669.513	0.15
669.544	-7.85
669.576	2.15
669.607	13.15
669.639	21.15
669.67	2.15
669.701	8.15
669.733	-15.85
669.764	-12.85
669.796	-11.85
669.827	-11.85
669.859	-2.85
669.89	3.15
669.922	6.15
669.953	6.15
669.985	-0.85
670.016	3.15
670.047	-14.85
670.079	-2.85
670.11	11.15
670.142	-17.85
670.173	-7.85
670.204	-18.85
670.236	2.15
670.267	-12.85
670.299	-0.85
670.33	6.15
670.362	5.15
670.393	-1.85
670.424	-8.85
670.456	-3.85
670.487	-16.85
670.518	-7.85
670.55	3.15
670.581	-5.85
670.613	7.15
670.644	-3.85
670.675	2.15
670.707	-5.85
670.738	-7.85
670.769	-8.85
670.801	-5.85
670.832	8.15
670.864	-7.85
670.895	-14.85
670.926	-3.85
670.958	-11.85
670.989	3.15
671.02	-4.85
671.052	-12.85
671.083	-1.85
671.114	-10.85
671.146	3.15
671.177	-10.85
671.208	-5.85
671.24	-1.85
671.271	-4.85
671.302	-2.85
671.333	-15.85
671.365	-13.85
671.396	-0.85
671.427	-8.85
671.459	-9.85
671.49	11.15
671.521	1.15
671.553	-1.85
671.584	5.15
671.615	-23.85
671.646	10.15
671.678	3.15
671.709	-17.85
671.74	-19.85
671.771	1.15
671.803	-1.85
671.834	0.15
671.865	-3.85
671.896	-7.85
671.928	-5.85
671.959	-32.85
671.99	-18.85
672.021	-1.85
672.053	-13.85
672.084	0.15
672.115	-0.85
672.146	-15.85
672.178	-16.85
672.209	-16.85
672.24	-10.85
672.271	33.15
672.303	8.15
672.334	-3.85
672.365	-4.85
672.396	15.15
672.427	1.15
672.459	7.15
672.49	15.15
672.521	6.15
672.552	5.15
672.583	6.15
672.615	1.15
672.646	0.15
672.677	-3.85
672.708	-10.85
672.739	-14.85
672.77	-4.85
672.802	14.15
672.833	-7.85
672.864	-9.85
672.895	-15.85
672.926	-6.85
672.957	-4.85
672.989	-8.85
673.02	-8.85
673.051	-7.85
673.082	5.15
673.113	-18.85
673.144	1.15
673.175	-1.85
673.206	-17.85
673.238	-13.85
673.269	1.15
673.3	-10.85
673.331	2.15
673.362	0.15
673.393	-6.85
673.424	14.15
673.455	16.15
673.487	-5.85
673.518	2.15
673.549	-10.85
673.58	5.15
673.611	0.15
673.642	-14.85
673.673	-10.85
673.704	9.15
673.735	-4.85
673.766	-3.85
673.797	-8.85
673.828	3.15
673.86	-10.85
673.891	-0.85
673.922	-5.85
673.953	-3.85
673.984	-0.85
674.015	0.15
674.046	1.15
674.077	4.15
674.108	-5.85
674.139	-17.85
674.17	0.15
674.201	8.15
674.232	0.15
674.263	0.15
674.294	1.15
674.325	-6.85
674.356	11.15
674.387	18.15
674.418	9.15
674.449	3.15
674.48	-17.85
674.511	5.15
674.542	7.15
674.573	-10.85
674.604	5.15
674.635	8.15
674.666	1.15
674.697	-9.85
674.728	-18.85
674.759	-5.85
674.79	-29.85
674.821	-14.85
674.852	3.15
674.883	-17.85
674.914	-5.85
674.945	-10.85
674.976	8.15
675.007	2.15
675.038	-0.85
675.069	-5.85
675.1	-13.85
675.131	-2.85
675.162	-10.85
675.193	-0.85
675.224	-2.85
675.254	7.15
675.285	6.15
675.316	5.15
675.347	-14.85
675.378	-16.85
675.409	0.15
675.44	6.15
675.471	13.15
675.502	-5.85
675.533	-14.85
675.564	4.15
675.595	2.15
675.625	31.15
675.656	1.15
675.687	-4.85
675.718	-15.85
675.749	3.15
675.78	8.15
675.811	-6.85
675.842	-5.85
675.873	-10.85
675.903	-15.85
675.934	-4.85
675.965	-5.85
675.996	-11.85
676.027	5.15
676.058	0.15
676.089	-22.85
676.119	-6.85
676.15	-17.85
676.181	-7.85
676.212	-6.85
676.243	16.15
676.274	1.15
676.304	-3.85
676.335	-16.85
676.366	9.15
676.397	1.15
676.428	7.15
676.459	1.15
676.489	4.15
676.52	-6.85
676.551	6.15
676.582	-4.85
676.613	-2.85
676.643	5.15
676.674	9.15
676.705	1.15
676.736	3.15
676.767	4.15
676.797	-10.85
676.828	5.15
676.859	0.15
676.89	-5.85
676.92	7.15
676.951	2.15
676.982	9.15
677.013	0.15
677.044	-1.85
677.074	2.15
677.105	-14.85
677.136	4.15
677.167	0.15
677.197	6.15
677.228	6.15
677.259	-18.85
677.289	-2.85
677.32	-7.85
677.351	-2.85
677.382	-6.85
677.412	-7.85
677.443	11.15
677.474	17.15
677.505	-18.85
677.535	-5.85
677.566	-6.85
677.597	-15.85
677.627	-7.85
677.658	4.15
677.689	4.15
677.72	-2.85
677.75	-4.85
677.781	-17.85
677.812	-3.85
677.842	1.15
677.873	3.15
677.904	8.15
677.934	2.15
677.965	2.15
677.996	-3.85
678.026	5.15
678.057	14.15
678.088	-13.85
678.118	-7.85
678.149	-26.85
678.18	4.15
678.21	-2.85
678.241	-1.85
678.272	-6.85
678.302	-7.85
678.333	5.15
678.363	0.15
678.394	-4.85
678.425	-5.85
678.455	-4.85
678.486	3.15
678.517	-8.85
678.547	6.15
678.578	-5.85
678.608	-9.85
678.639	2.15
678.67	-17.85
678.7	-6.85
678.731	-13.85
678.761	11.15
678.792	9.15
678.823	-0.85
678.853	-6.85
678.884	-12.85
678.914	-1.85
678.945	1.15
678.975	2.15
679.006	8.15
679.037	-0.85
679.067	23.15
679.098	-9.85
679.128	-12.85
679.159	-6.85
679.189	14.15
679.22	-14.85
679.25	1.15
679.281	-3.85
679.312	-3.85
679.342	4.15
679.373	25.15
679.403	5.15
679.434	-17.85
679.464	-12.85
679.495	0.15
679.525	-1.85
679.556	7.15
679.586	8.15
679.617	17.15
679.647	8.15
679.678	-7.85
679.708	-7.85
679.739	10.15
679.769	0.15
679.8	6.15
679.83	2.15
679.861	-4.85
679.891	-1.85
679.922	-15.85
679.952	-12.85
679.983	6.15
680.013	2.15
680.044	2.15
680.074	5.15
680.105	12.15
680.135	5.15
680.165	10.15
680.196	6.15
680.226	-7.85
680.257	4.15
680.287	2.15
680.318	0.15
680.348	-10.85
680.379	-6.85
680.409	8.15
680.439	16.15
680.47	2.15
680.5	-10.85
680.531	-0.85
680.561	13.15
680.592	-6.85
680.622	9.15
680.652	-5.85
680.683	22.15
680.713	-10.85
680.744	-21.85
680.774	-16.85
680.804	13.15
680.835	-11.85
680.865	-27.85
680.896	5.15
680.926	5.15
680.956	1.15
680.987	2.15
681.017	-7.85
681.047	8.15
681.078	-19.85
681.108	-6.85
681.139	-2.85
681.169	-9.85
681.199	-15.85
681.23	5.15
681.26	-0.85
681.29	9.15
681.321	-9.85
681.351	-7.85
681.381	-3.85
681.412	-1.85
681.442	-8.85
681.472	12.15
681.503	9.15
681.533	-2.85
681.563	-3.85
681.594	-13.85
681.624	10.15
681.654	-4.85
681.685	4.15
681.715	7.15
681.745	15.15
681.775	5.15
681.806	2.15
681.836	-14.85
681.866	-11.85
681.897	-8.85
681.927	-8.85
681.957	-9.85
681.987	0.15
682.018	-5.85
682.048	-6.85
682.078	0.15
682.109	24.15
682.139	10.15
682.169	0.15
682.199	-9.85
682.23	-12.85
682.26	-5.85
682.29	-6.85
682.32	-11.85
682.351	-2.85
682.381	-9.85
682.411	9.15
682.441	-7.85
682.472	-5.85
682.502	1.15
682.532	-1.85
682.562	10.15
682.592	2.15
682.623	1.15
682.653	0.15
682.683	-16.85
682.713	-3.85
682.743	-12.85
682.774	-15.85
682.804	-2.85
682.834	21.15
682.864	-9.85
682.894	-13.85
682.925	-2.85
682.955	8.15
682.985	-1.85
683.015	15.15
683.045	13.15
683.076	-15.85
683.106	-2.85
683.136	-8.85
683.166	-3.85
683.196	-2.85
683.226	-6.85
683.257	-9.85
683.287	-14.85
683.317	-24.85
683.347	-11.85
683.377	0.15
683.407	9.15
683.437	15.15
683.468	28.15
683.498	-5.85
683.528	2.15
683.558	2.15
683.588	-13.85
683.618	-2.85
683.648	-3.85
683.678	-1.85
683.708	21.15
683.739	-7.85
683.769	-4.85
683.799	-3.85
683.829	-0.85
683.859	8.15
683.889	6.15
683.919	-2.85
683.949	5.15
683.979	-2.85
684.009	-10.85
684.039	-2.85
684.07	-11.85
684.1	3.15
684.13	-0.85
684.16	2.15
684.19	-8.85
684.22	1.15
684.25	2.15
684.28	-16.85
684.31	6.15
684.34	7.15
684.37	10.15
684.4	-18.85
684.43	0.15
684.46	-7.85
684.49	20.15
684.52	3.15
684.55	7.15
684.58	5.15
684.61	0.15
684.64	-5.85
684.67	9.15
684.7	2.15
684.73	9.15
684.76	3.15
684.79	31.15
684.82	2.15
684.85	-25.85
684.88	-9.85
684.91	11.15
684.94	2.15
684.97	-32.85
685	-16.85
685.03	-18.85
685.06	-26.85
685.09	9.15
685.12	14.15
685.15	-11.85
685.18	-1.85
685.21	-9.85
685.24	3.15
685.27	7.15
685.3	-16.85
685.33	-2.85
685.36	-9.85
685.39	-2.85
685.42	1.15
685.45	2.15
685.48	-3.85
685.51	-15.85
685.54	4.15
685.569	7.15
685.599	-2.85
685.629	3.15
685.659	-4.85
685.689	5.15
685.719	-8.85
685.749	-22.85
685.779	-4.85
685.809	-5.85
685.839	1.15
685.869	9.15
685.898	5.15
685.928	-5.85
685.958	3.15
685.988	8.15
686.018	11.15
686.048	4.15
686.078	11.15
686.108	16.15
686.137	-1.85
686.167	5.15
686.197	-21.85
686.227	-3.85
686.257	17.15
686.287	8.15
686.317	-5.85
686.346	-16.85
686.376	-11.85
686.406	0.15
686.436	18.15
686.466	-8.85
686.496	9.15
686.525	-9.85
686.555	-16.85
686.585	12.15
686.615	15.15
686.645	13.15
686.675	-5.85
686.704	8.15
686.734	-8.85
686.764	-11.85
686.794	-8.85
686.824	0.15
686.853	5.15
686.883	3.15
686.913	11.15
686.943	-0.85
686.973	0.15
687.002	18.15
687.032	4.15
687.062	1.15
687.092	4.15
687.121	-6.85
687.151	6.15
687.181	0.15
687.211	-1.85
687.24	8.15
687.27	-12.85
687.3	-5.85
687.33	-0.85
687.359	-5.85
687.389	-8.85
687.419	-0.85
687.449	0.15
687.478	14.15
687.508	1.15
687.538	13.15
687.568	13.15
687.597	-3.85
687.627	7.15
687.657	-2.85
687.686	-3.85
687.716	18.15
687.746	-17.85
687.776	-9.85
687.805	6.15
687.835	2.15
687.865	18.15
687.894	18.15
687.924	0.15
687.954	-11.85
687.983	-0.85
688.013	2.15
688.043	23.15
688.072	4.15
688.102	10.15
688.132	11.15
688.161	-3.85
688.191	3.15
688.221	16.15
688.25	-3.85
688.28	-6.85
688.31	-8.85
688.339	4.15
688.369	4.15
688.399	-0.85
688.428	-5.85
688.458	-3.85
688.488	-16.85
688.517	7.15
688.547	1.15
688.576	25.15
688.606	9.15
688.636	-19.85
688.665	-2.85
688.695	1.15
688.725	12.15
688.754	-2.85
688.784	-0.85
688.813	14.15
688.843	-8.85
688.873	-20.85
688.902	-6.85
688.932	-1.85
688.961	3.15
688.991	0.15
689.02	13.15
689.05	-4.85
689.08	0.15
689.109	9.15
689.139	-8.85
689.168	5.15
689.198	-2.85
689.227	-2.85
689.257	-5.85
689.287	-0.85
689.316	-9.85
689.346	-3.85
689.375	-14.85
689.405	2.15
689.434	4.15
689.464	2.15
689.493	-1.85
689.523	-3.85
689.552	0.15
689.582	-10.85
689.611	-2.85
689.641	16.15
689.67	-5.85
689.7	10.15
689.73	11.15
689.759	-1.85
689.789	8.15
689.818	-3.85
689.848	0.15
689.877	16.15
689.906	6.15
689.936	-4.85
689.965	-1.85
689.995	26.15
690.024	5.15
690.054	-1.85
690.083	-3.85
690.113	-3.85
690.142	-5.85
690.172	11.15
690.201	1.15
690.231	-11.85
690.26	1.15
690.29	0.15
690.319	20.15
690.348	-7.85
690.378	-12.85
690.407	-4.85
690.437	0.15
690.466	-1.85
690.496	-10.85
690.525	11.15
690.555	3.15
690.584	-3.85
690.613	13.15
690.643	1.15
690.672	2.15
690.702	2.15
690.731	0.15
690.76	-0.85
690.79	-16.85
690.819	-10.85
690.849	-10.85
690.878	-0.85
690.907	7.15
690.937	-2.85
690.966	2.15
690.996	4.15
691.025	-11.85
691.054	-0.85
691.084	2.15
691.113	-25.85
691.142	0.15
691.172	17.15
691.201	17.15
691.23	1.15
691.26	3.15
691.289	15.15
691.319	-1.85
691.348	1.15
691.377	27.15
691.407	9.15
691.436	20.15
691.465	2.15
691.495	5.15
691.524	3.15
691.553	-1.85
691.583	-2.85
691.612	1.15
691.641	-1.85
691.67	-10.85
691.7	6.15
691.729	-13.85
691.758	-12.85
691.788	-10.85
691.817	-13.85
691.846	-10.85
691.876	-8.85
691.905	-0.85
691.934	-1.85
691.963	5.15
691.993	1.15
692.022	-8.85
692.051	-19.85
692.081	12.15
692.11	8.15
692.139	15.15
692.168	21.15
692.198	26.15
692.227	6.15
692.256	1.15
692.285	-2.85
692.315	-5.85
692.344	1.15
692.373	-0.85
692.402	-15.85
692.432	-14.85
692.461	1.15
692.49	-8.85
692.519	-10.85
692.548	12.15
692.578	8.15
692.607	0.15
692.636	-18.85
692.665	5.15
692.694	0.15
692.724	-2.85
692.753	-5.85
692.782	-0.85
692.811	1.15
692.84	0.15
692.87	-0.85
692.899	-1.85
692.928	-9.85
692.957	-3.85
692.986	-2.85
693.016	-4.85
693.045	4.15
693.074	-11.85
693.103	-4.85
693.132	-7.85
693.161	19.15
693.191	11.15
693.22	-11.85
693.249	0.15
693.278	-9.85
693.307	2.15
693.336	-21.85
693.365	-12.85
693.395	-3.85
693.424	10.15
693.453	1.15
693.482	-14.85
693.511	1.15
693.54	6.15
693.569	-3.85
693.598	-22.85
693.628	13.15
693.657	8.15
693.686	22.15
693.715	20.15
693.744	18.15
693.773	7.15
693.802	2.15
693.831	-1.85
693.86	15.15
693.889	-0.85
693.919	-3.85
693.948	-7.85
693.977	6.15
694.006	-9.85
694.035	-2.85
694.064	-2.85
694.093	16.15
694.122	16.15
694.151	-2.85
694.18	0.15
694.209	24.15
694.238	0.15
694.267	4.15
694.296	-6.85
694.325	-5.85
694.354	-3.85
694.383	9.15
694.412	-18.85
694.441	-1.85
694.471	-5.85
694.5	-12.85
694.529	7.15
694.558	23.15
694.587	20.15
694.616	0.15
694.645	-10.85
694.674	6.15
694.703	-5.85
694.732	3.15
694.761	1.15
694.79	15.15
694.819	-1.85
694.848	5.15
694.877	6.15
694.906	24.15
694.935	6.15
694.963	10.15
694.992	-5.85
695.021	-4.85
695.05	-4.85
695.079	4.15
695.108	11.15
695.137	21.15
695.166	19.15
695.195	-14.85
695.224	-5.85
695.253	-2.85
695.282	5.15
695.311	14.15
695.34	-2.85
695.369	4.15
695.398	7.15
695.427	1.15
695.456	-11.85
695.485	-3.85
695.513	-7.85
695.542	-5.85
695.571	9.15
695.6	35.15
695.629	-2.85
695.658	5.15
695.687	-7.85
695.716	-5.85
695.745	15.15
695.774	-0.85
695.802	-10.85
695.831	7.15
695.86	12.15
695.889	4.15
695.918	3.15
695.947	-7.85
695.976	-2.85
696.005	-8.85
696.033	-4.85
696.062	7.15
696.091	5.15
696.12	2.15
696.149	17.15
696.178	-6.85
696.207	12.15
696.235	5.15
696.264	16.15
696.293	-8.85
696.322	-8.85
696.351	21.15
696.38	-6.85
696.408	-7.85
696.437	-9.85
696.466	21.15
696.495	11.15
696.524	4.15
696.553	-1.85
696.581	24.15
696.61	7.15
696.639	1.15
696.668	-0.85
696.697	-6.85
696.725	19.15
696.754	13.15
696.783	-6.85
696.812	-25.85
696.84	-5.85
696.869	6.15
696.898	-0.85
696.927	-0.85
696.956	14.15
696.984	-9.85
697.013	5.15
697.042	-15.85
697.071	-2.85
697.099	17.15
697.128	6.15
697.157	-9.85
697.186	1.15
697.214	-0.85
697.243	1.15
697.272	-4.85
697.301	8.15
697.329	-7.85
697.358	-9.85
697.387	19.15
697.415	0.15
697.444	-0.85
697.473	2.15
697.502	-13.85
697.53	-6.85
697.559	-7.85
697.588	-6.85
697.616	3.15
697.645	8.15
697.674	9.15
697.703	-7.85
697.731	5.15
697.76	-5.85
697.789	-7.85
697.817	-1.85
697.846	28.15
697.875	0.15
697.903	0.15
697.932	7.15
697.961	8.15
697.989	16.15
698.018	-10.85
698.047	-2.85
698.075	20.15
698.104	-1.85
698.133	1.15
698.161	-11.85
698.19	-19.85
698.218	-12.85
698.247	2.15
698.276	-14.85
698.304	5.15
698.333	1.15
698.362	-7.85
698.39	6.15
698.419	0.15
698.447	4.15
698.476	8.15
698.505	17.15
698.533	10.15
698.562	3.15
698.591	3.15
698.619	-1.85
698.648	17.15
698.676	9.15
698.705	4.15
698.733	-0.85
698.762	5.15
698.791	-17.85
698.819	0.15
698.848	1.15
698.876	14.15
698.905	-4.85
698.933	4.15
698.962	-4.85
698.991	-3.85
699.019	5.15
699.048	3.15
699.076	-6.85
699.105	-11.85
699.133	-8.85
699.162	-4.85
699.19	11.15
699.219	0.15
699.248	2.15
699.276	2.15
699.305	-2.85
699.333	-1.85
699.362	-1.85
699.39	-1.85
699.419	-18.85
699.447	-6.85
699.476	5.15
699.504	-3.85
699.533	-2.85
699.561	-14.85
699.59	6.15
699.618	-9.85
699.647	-5.85
699.675	4.15
699.704	24.15
699.732	10.15
699.761	-3.85
699.789	-8.85
699.818	4.15
699.846	-6.85
699.874	-11.85
699.903	-6.85
699.931	-0.85
699.96	0.15
699.988	-14.85
700.017	-5.85
700.045	-5.85
700.074	-1.85
700.102	-11.85
700.13	-4.85
700.159	2.15
700.187	-9.85
700.216	-1.85
700.244	-3.85
700.273	7.15
700.301	7.15
700.329	8.15
700.358	3.15
700.386	-2.85
700.415	5.15
700.443	-1.85
700.472	-11.85
700.5	-7.85
700.528	9.15
700.557	-0.85
700.585	-9.85
700.614	1.15
700.642	24.15
700.67	23.15
700.699	16.15
700.727	18.15
700.755	-1.85
700.784	-3.85
700.812	1.15
700.841	8.15
700.869	3.15
700.897	-12.85
700.926	1.15
700.954	-7.85
700.982	4.15
701.011	-6.85
701.039	-0.85
701.067	-12.85
701.096	15.15
701.124	-13.85
701.152	8.15
701.181	7.15
701.209	-26.85
701.237	7.15
701.266	-7.85
701.294	-2.85
701.322	13.15
701.351	4.15
701.379	3.15
701.407	0.15
701.435	2.15
701.464	9.15
701.492	15.15
701.52	-1.85
701.549	7.15
701.577	-4.85
701.605	0.15
701.634	14.15
701.662	21.15
701.69	-12.85
701.718	-14.85
701.747	4.15
701.775	-7.85
701.803	-17.85
701.831	6.15
701.86	1.15
701.888	-6.85
701.916	-5.85
701.944	9.15
701.973	-6.85
702.001	-15.85
702.029	-14.85
702.057	-8.85
702.086	-7.85
702.114	-21.85
702.142	6.15
702.17	-2.85
702.199	-21.85
702.227	-27.85
702.255	-12.85
702.283	-22.85
702.311	8.15
702.34	-24.85
702.368	-19.85
702.396	-10.85
702.424	-1.85
702.452	-7.85
702.481	-10.85
702.509	-19.85
702.537	-0.85
702.565	10.15
702.593	-7.85
702.621	-0.85
702.65	-2.85
702.678	13.15
702.706	7.15
702.734	-9.85
702.762	-5.85
702.79	-6.85
702.819	5.15
702.847	3.15
702.875	8.15
702.903	6.15
702.931	-13.85
702.959	-12.85
702.988	-8.85
703.016	-14.85
703.044	1.15
703.072	14.15
703.1	9.15
703.128	-2.85
703.156	9.15
703.184	-6.85
703.212	1.15
703.241	0.15
703.269	-6.85
703.297	-2.85
703.325	-1.85
703.353	2.15
703.381	-8.85
703.409	-8.85
703.437	-13.85
703.465	-2.85
703.493	-3.85
703.522	-8.85
703.55	8.15
703.578	10.15
703.606	-2.85
703.634	3.15
703.662	8.15
703.69	-2.85
703.718	1.15
703.746	13.15
703.774	-17.85
703.802	9.15
703.83	-18.85
703.858	-7.85
703.886	-10.85
703.914	-18.85
703.942	-7.85
703.97	-2.85
703.998	-2.85
704.027	25.15
704.055	3.15
704.083	-22.85
704.111	0.15
704.139	-13.85
704.167	-3.85
704.195	4.15
704.223	-16.85
704.251	-11.85
704.279	5.15
704.307	1.15
704.335	-6.85
704.363	2.15
704.391	-5.85
704.419	-2.85
704.447	-18.85
704.475	-25.85
704.503	-8.85
704.531	-3.85
704.558	-3.85
704.586	3.15
704.614	2.15
704.642	9.15
704.67	3.15
704.698	-2.85
704.726	10.15
704.754	-1.85
704.782	2.15
704.81	-15.85
704.838	14.15
704.866	5.15
704.894	-18.85
704.922	-17.85
704.95	-1.85
704.978	-2.85
705.006	-4.85
705.034	0.15
705.061	-8.85
705.089	-4.85
705.117	-14.85
705.145	-14.85
705.173	-7.85
705.201	-3.85
705.229	4.15
705.257	1.15
705.285	6.15
705.313	11.15
705.34	9.15
705.368	2.15
705.396	0.15
705.424	-7.85
705.452	-13.85
705.48	14.15
705.508	-4.85
705.536	4.15
705.563	-9.85
705.591	-7.85
705.619	-13.85
705.647	-13.85
705.675	6.15
705.703	-1.85
705.731	2.15
705.758	13.15
705.786	21.15
705.814	13.15
705.842	2.15
705.87	18.15
705.898	2.15
705.925	-5.85
705.953	3.15
705.981	7.15
706.009	6.15
706.037	18.15
706.065	1.15
706.092	-11.85
706.12	-5.85
706.148	-4.85
706.176	-9.85
706.204	3.15
706.231	-0.85
706.259	-15.85
706.287	-7.85
706.315	5.15
706.342	-8.85
706.37	-0.85
706.398	-2.85
706.426	3.15
706.454	6.15
706.481	3.15
706.509	-16.85
706.537	-5.85
706.565	-1.85
706.592	5.15
706.62	-3.85
706.648	-1.85
706.676	-5.85
706.703	-3.85
706.731	4.15
706.759	-19.85
706.787	-3.85
706.814	-10.85
706.842	-7.85
706.87	-4.85
706.897	-5.85
706.925	0.15
706.953	15.15
706.981	1.15
707.008	5.15
707.036	-3.85
707.064	4.15
707.091	0.15
707.119	3.15
707.147	-2.85
707.174	-5.85
707.202	6.15
707.23	-14.85
707.258	16.15
707.285	-12.85
707.313	-1.85
707.341	-2.85
707.368	-2.85
707.396	-2.85
707.424	10.15
707.451	3.15
707.479	3.15
707.507	11.15
707.534	-7.85
707.562	-21.85
707.59	-4.85
707.617	-16.85
707.645	-5.85
707.672	6.15
707.7	-4.85
707.728	-5.85
707.755	-7.85
707.783	-10.85
707.811	0.15
707.838	-5.85
707.866	-0.85
707.893	1.15
707.921	2.15
707.949	-15.85
707.976	-1.85
708.004	-6.85
708.031	0.15
708.059	-13.85
708.087	-7.85
708.114	1.15
708.142	1.15
708.169	9.15
708.197	-0.85
708.225	0.15
708.252	-0.85
708.28	10.15
708.307	-10.85
708.335	-5.85
708.362	-7.85
708.39	-8.85
708.418	-2.85
708.445	-3.85
708.473	-31.85
708.5	-7.85
708.528	-0.85
708.555	-3.85
708.583	-1.85
708.61	-3.85
708.638	9.15
708.665	-13.85
708.693	-1.85
708.72	-17.85
708.748	-9.85
708.776	-16.85
708.803	2.15
708.831	1.15
708.858	6.15
708.886	-1.85
708.913	1.15
708.941	-14.85
708.968	20.15
708.996	-1.85
709.023	24.15
709.051	3.15
709.078	-17.85
709.105	-3.85
709.133	2.15
709.16	-13.85
709.188	13.15
709.215	-1.85
709.243	-2.85
709.27	-9.85
709.298	-22.85
709.325	-5.85
709.353	-7.85
709.38	-5.85
709.408	-10.85
709.435	-3.85
709.462	-4.85
709.49	-9.85
709.517	-7.85
709.545	-9.85
709.572	0.15
709.6	3.15
709.627	6.15
709.655	-4.85
709.682	-0.85
709.709	-5.85
709.737	9.15
709.764	-13.85
709.792	6.15
709.819	10.15
709.846	6.15
709.874	5.15
709.901	16.15
709.929	5.15
709.956	2.15
709.983	-3.85
710.011	-8.85
710.038	1.15
710.066	13.15
710.093	10.15
710.12	-11.85
710.148	-11.85
710.175	-8.85
710.202	-7.85
710.23	2.15
710.257	-8.85
710.284	-5.85
710.312	-6.85
710.339	-9.85
710.366	-8.85
710.394	-14.85
710.421	4.15
710.448	-1.85
710.476	-1.85
710.503	15.15
710.53	7.15
710.558	16.15
710.585	8.15
710.612	-11.85
710.64	-11.85
710.667	-6.85
710.694	-6.85
710.722	-6.85
710.749	-5.85
710.776	4.15
710.804	16.15
710.831	0.15
710.858	-15.85
710.885	-0.85
710.913	-11.85
710.94	12.15
710.967	13.15
710.995	4.15
711.022	16.15
711.049	-9.85
711.076	-14.85
711.104	2.15
711.131	7.15
711.158	5.15
711.185	7.15
711.213	-10.85
711.24	6.15
711.267	-2.85
711.294	-12.85
711.322	7.15
711.349	-13.85
711.376	-4.85
711.403	0.15
711.431	-12.85
711.458	-3.85
711.485	-12.85
711.512	8.15
711.54	-1.85
711.567	-5.85
711.594	-10.85
711.621	0.15
711.648	2.15
711.676	-5.85
711.703	8.15
711.73	-10.85
711.757	11.15
711.784	3.15
711.812	2.15
711.839	-3.85
711.866	-9.85
711.893	-16.85
711.92	8.15
711.947	-9.85
711.975	3.15
712.002	-5.85
712.029	8.15
712.056	-1.85
712.083	-1.85
712.11	-11.85
712.138	3.15
712.165	8.15
712.192	1.15
712.219	3.15
712.246	-11.85
712.273	-12.85
712.3	-15.85
712.328	4.15
712.355	-14.85
712.382	-6.85
712.409	10.15
712.436	-12.85
712.463	7.15
712.49	9.15
712.517	15.15
712.544	-6.85
712.572	-6.85
712.599	-14.85
712.626	-5.85
712.653	-13.85
712.68	-29.85
712.707	-5.85
712.734	2.15
712.761	-10.85
712.788	-5.85
712.815	2.15
712.842	15.15
712.87	-1.85
712.897	-7.85
712.924	-14.85
712.951	-7.85
712.978	7.15
713.005	20.15
713.032	6.15
713.059	-11.85
713.086	-2.85
713.113	-19.85
713.14	-7.85
713.167	-2.85
713.194	2.15
713.221	-15.85
713.248	-4.85
713.275	-13.85
713.302	-23.85
713.329	-2.85
713.356	4.15
713.383	-5.85
713.41	4.15
713.437	-15.85
713.464	6.15
713.491	14.15
713.518	-0.85
713.545	-11.85
713.572	10.15
713.599	10.15
713.626	-5.85
713.653	7.15
713.68	-11.85
713.707	-5.85
713.734	0.15
713.761	-19.85
713.788	-10.85
713.815	-2.85
713.842	-18.85
713.869	-15.85
713.896	1.15
713.923	0.15
713.95	-3.85
713.977	10.15
714.004	-3.85
714.031	-32.85
714.058	-21.85
714.085	2.15
714.112	8.15
714.139	-5.85
714.165	-7.85
714.192	-6.85
714.219	7.15
714.246	-0.85
714.273	-11.85
714.3	2.15
714.327	6.15
714.354	6.15
714.381	-1.85
714.408	-7.85
714.435	-15.85
714.461	-3.85
714.488	11.15
714.515	-10.85
714.542	-10.85
714.569	-14.85
714.596	-6.85
714.623	-5.85
714.65	-7.85
714.677	-2.85
714.703	1.15
714.73	13.15
714.757	-13.85
714.784	-6.85
714.811	-9.85
714.838	8.15
714.865	-7.85
714.891	18.15
714.918	1.15
714.945	-5.85
714.972	-0.85
714.999	1.15
715.026	-25.85
715.052	-2.85
715.079	3.15
715.106	8.15
715.133	1.15
715.16	-2.85
715.187	8.15
715.213	-1.85
715.24	-17.85
715.267	-3.85
715.294	12.15
715.321	-0.85
715.347	-3.85
715.374	5.15
715.401	10.15
715.428	-7.85
715.455	1.15
715.481	-3.85
715.508	13.15
715.535	-4.85
715.562	23.15
715.588	10.15
715.615	-14.85
715.642	-8.85
715.669	-8.85
715.695	-13.85
715.722	-0.85
715.749	6.15
715.776	7.15
715.802	-5.85
715.829	5.15
715.856	-7.85
715.883	3.15
715.909	-2.85
715.936	6.15
715.963	3.15
715.99	-6.85
716.016	12.15
716.043	-1.85
716.07	-10.85
716.096	-3.85
716.123	7.15
716.15	10.15
716.177	8.15
716.203	-3.85
716.23	-4.85
716.257	-6.85
716.283	12.15
716.31	-12.85
716.337	7.15
716.363	-9.85
716.39	-1.85
716.417	15.15
716.443	-9.85
716.47	8.15
716.497	4.15
716.523	12.15
716.55	-3.85
716.577	8.15
716.603	-5.85
716.63	8.15
716.657	14.15
716.683	-15.85
716.71	-1.85
716.737	-3.85
716.763	-5.85
716.79	5.15
716.817	14.15
716.843	11.15
716.87	-8.85
716.897	-9.85
716.923	10.15
716.95	-6.85
716.976	-11.85
717.003	-14.85
717.03	-3.85
717.056	12.15
717.083	9.15
717.109	-7.85
717.136	8.15
717.163	-13.85
717.189	-15.85
717.216	-5.85
717.242	-6.85
717.269	-13.85
717.296	4.15
717.322	-3.85
717.349	12.15
717.375	12.15
717.402	-1.85
717.428	-2.85
717.455	2.15
717.481	-6.85
717.508	13.15
717.535	0.15
717.561	-7.85
717.588	-14.85
717.614	-9.85
717.641	6.15
717.667	0.15
717.694	19.15
717.72	-12.85
717.747	2.15
717.773	-3.85
717.8	-4.85
717.826	14.15
717.853	-2.85
717.88	16.15
717.906	-6.85
717.933	10.15
717.959	-6.85
717.986	-1.85
718.012	-9.85
718.039	-6.85
718.065	8.15
718.092	4.15
718.118	4.15
718.144	-3.85
718.171	25.15
718.197	21.15
718.224	9.15
718.25	5.15
718.277	4.15
718.303	2.15
718.33	0.15
718.356	2.15
718.383	-5.85
718.409	-2.85
718.436	-3.85
718.462	-2.85
718.489	-14.85
718.515	5.15
718.541	14.15
718.568	5.15
718.594	-0.85
718.621	-2.85
718.647	-10.85
718.674	11.15
718.7	1.15
718.726	-16.85
718.753	-0.85
718.779	-3.85
718.806	-4.85
718.832	-2.85
718.858	-6.85
718.885	-10.85
718.911	2.15
718.938	11.15
718.964	-13.85
718.99	-8.85
719.017	-3.85
719.043	-5.85
719.07	23.15
719.096	-9.85
719.122	3.15
719.149	-2.85
719.175	-11.85
719.201	-5.85
719.228	-9.85
719.254	1.15
719.281	-7.85
719.307	-1.85
719.333	-0.85
719.36	-4.85
719.386	-5.85
719.412	18.15
719.439	-11.85
719.465	-11.85
719.491	-7.85
719.518	6.15
719.544	13.15
719.57	-1.85
719.597	6.15
719.623	-2.85
719.649	-0.85
719.675	1.15
719.702	6.15
719.728	10.15
719.754	-4.85
719.781	0.15
719.807	-3.85
719.833	-6.85
719.86	-4.85
719.886	0.15
719.912	-6.85
719.938	-1.85
719.965	10.15
719.991	2.15
720.017	-5.85
720.044	2.15
720.07	6.15
720.096	14.15
720.122	-17.85
720.149	21.15
720.175	7.15
720.201	-4.85
720.227	-3.85
720.254	5.15
720.28	-3.85
720.306	4.15
720.332	2.15
720.359	-1.85
720.385	-13.85
720.411	-10.85
720.437	8.15
720.463	3.15
720.49	-2.85
720.516	-15.85
720.542	-8.85
720.568	2.15
720.595	0.15
720.621	-0.85
720.647	0.15
720.673	7.15
720.699	-13.85
720.725	-0.85
720.752	5.15
720.778	0.15
720.804	4.15
720.83	16.15
720.856	-9.85
720.883	-12.85
720.909	-9.85
720.935	-13.85
720.961	-1.85
720.987	-4.85
721.013	7.15
721.04	-3.85
721.066	-8.85
721.092	-2.85
721.118	9.15
721.144	5.15
721.17	-13.85
721.196	-8.85
721.223	-18.85
721.249	-9.85
721.275	2.15
721.301	1.15
721.327	5.15
721.353	-2.85
721.379	2.15
721.405	6.15
721.432	3.15
721.458	-6.85
721.484	-1.85
721.51	-19.85
721.536	4.15
721.562	2.15
721.588	13.15
721.614	-3.85
721.64	-22.85
721.666	-11.85
721.693	-9.85
721.719	-8.85
721.745	-14.85
721.771	-2.85
721.797	-3.85
721.823	11.15
721.849	21.15
721.875	-0.85
721.901	-5.85
721.927	-1.85
721.953	-0.85
721.979	8.15
722.005	6.15
722.031	-10.85
722.057	5.15
722.083	-4.85
722.109	11.15
722.135	1.15
722.161	6.15
722.187	-17.85
722.214	-10.85
722.24	-2.85
722.266	-12.85
722.292	9.15
722.318	1.15
722.344	-6.85
722.37	-8.85
722.396	-2.85
722.422	14.15
722.448	-4.85
722.474	-12.85
722.5	15.15
722.526	-8.85
722.552	-9.85
722.578	2.15
722.603	10.15
722.629	-19.85
722.655	5.15
722.681	-9.85
722.707	-2.85
722.733	-0.85
722.759	-3.85
722.785	-11.85
722.811	-0.85
722.837	2.15
722.863	8.15
722.889	25.15
722.915	6.15
722.941	-3.85
722.967	-0.85
722.993	4.15
723.019	-3.85
723.045	-7.85
723.071	1.15
723.097	3.15
723.122	10.15
723.148	2.15
723.174	-11.85
723.2	-3.85
723.226	-11.85
723.252	3.15
723.278	10.15
723.304	-6.85
723.33	1.15
723.356	-4.85
723.381	-13.85
723.407	1.15
723.433	10.15
723.459	-8.85
723.485	2.15
723.511	-3.85
723.537	-14.85
723.563	-7.85
723.588	-4.85
723.614	0.15
723.64	1.15
723.666	-5.85
723.692	-8.85
723.718	-14.85
723.744	5.15
723.769	4.15
723.795	-7.85
723.821	0.15
723.847	-12.85
723.873	-8.85
723.899	-15.85
723.924	-10.85
723.95	-3.85
723.976	-19.85
724.002	-1.85
724.028	-5.85
724.053	-9.85
724.079	-8.85
724.105	-9.85
724.131	-3.85
724.157	9.15
724.182	5.15
724.208	-12.85
724.234	-7.85
724.26	6.15
724.286	-7.85
724.311	-12.85
724.337	-6.85
724.363	-5.85
724.389	12.15
724.415	-3.85
724.44	10.15
724.466	1.15
724.492	-4.85
724.518	14.15
724.543	4.15
724.569	-10.85
724.595	-5.85
724.621	-13.85
724.646	-15.85
724.672	-9.85
724.698	2.15
724.723	-1.85
724.749	-3.85
724.775	-0.85
724.801	4.15
724.826	-8.85
724.852	-4.85
724.878	-12.85
724.904	-21.85
724.929	7.15
724.955	-2.85
724.981	-1.85
725.006	8.15
725.032	11.15
725.058	28.15
725.083	-13.85
725.109	-18.85
725.135	7.15
725.161	0.15
725.186	-6.85
725.212	-5.85
725.238	9.15
725.263	7.15
725.289	-6.85
725.315	-22.85
725.34	6.15
725.366	-9.85
725.392	1.15
725.417	-4.85
725.443	3.15
725.468	2.15
725.494	2.15
725.52	9.15
725.545	-7.85
725.571	-0.85
725.597	-0.85
725.622	1.15
725.648	-14.85
725.674	-2.85
725.699	9.15
725.725	-3.85
725.75	18.15
725.776	-5.85
725.802	1.15
725.827	-10.85
725.853	1.15
725.878	-2.85
725.904	-3.85
725.93	-0.85
725.955	-11.85
725.981	-14.85
726.006	3.15
726.032	15.15
726.057	-3.85
726.083	-0.85
726.109	1.15
726.134	-0.85
726.16	-3.85
726.185	-7.85
726.211	-8.85
726.236	13.15
726.262	0.15
726.288	-8.85
726.313	1.15
726.339	12.15
726.364	5.15
726.39	-7.85
726.415	-6.85
726.441	-4.85
726.466	-5.85
726.492	3.15
726.517	4.15
726.543	-5.85
726.568	-25.85
726.594	-3.85
726.619	15.15
726.645	0.15
726.67	0.15
726.696	6.15
726.721	-8.85
726.747	-13.85
726.772	0.15
726.798	-5.85
726.823	4.15
726.849	-15.85
726.874	-4.85
726.9	-1.85
726.925	1.15
726.951	-7.85
726.976	-13.85
727.002	-6.85
727.027	3.15
727.053	12.15
727.078	-6.85
727.104	2.15
727.129	-16.85
727.155	-3.85
727.18	4.15
727.205	2.15
727.231	-10.85
727.256	-14.85
727.282	10.15
727.307	5.15
727.333	-7.85
727.358	-19.85
727.383	-5.85
727.409	-11.85
727.434	-3.85
727.46	-2.85
727.485	11.15
727.511	3.15
727.536	-14.85
727.561	-9.85
727.587	-10.85
727.612	-6.85
727.637	-7.85
727.663	-9.85
727.688	16.15
727.714	-2.85
727.739	-7.85
727.764	-2.85
727.79	16.15
727.815	-6.85
727.841	0.15
727.866	5.15
727.891	6.15
727.917	-11.85
727.942	-7.85
727.967	4.15
727.993	-14.85
728.018	-19.85
728.043	-5.85
728.069	14.15
728.094	-8.85
728.119	-29.85
728.145	9.15
728.17	-1.85
728.195	2.15
728.221	6.15
728.246	-14.85
728.271	-7.85
728.297	2.15
728.322	1.15
728.347	1.15
728.373	2.15
728.398	15.15
728.423	-3.85
728.448	9.15
728.474	-12.85
728.499	7.15
728.524	-15.85
728.55	-6.85
728.575	-2.85
728.6	-0.85
728.625	-7.85
728.651	-8.85
728.676	-8.85
728.701	-0.85
728.727	3.15
728.752	-18.85
728.777	-19.85
728.802	-7.85
728.828	1.15
728.853	-25.85
728.878	0.15
728.903	-11.85
728.929	-5.85
728.954	-9.85
728.979	-2.85
729.004	4.15
729.03	2.15
729.055	0.15
729.08	-15.85
729.105	1.15
729.13	7.15
729.156	3.15
729.181	-0.85
729.206	-24.85
729.231	-3.85
729.256	3.15
729.282	3.15
729.307	-19.85
729.332	5.15
729.357	-3.85
729.382	-9.85
729.408	5.15
729.433	0.15
729.458	-10.85
729.483	-10.85
729.508	4.15
729.533	6.15
729.559	-5.85
729.584	-10.85
729.609	3.15
729.634	6.15
729.659	6.15
729.684	-4.85
729.71	-1.85
729.735	-2.85
729.76	-7.85
729.785	-12.85
729.81	-1.85
729.835	-5.85
729.86	1.15
729.886	13.15
729.911	10.15
729.936	-13.85
729.961	6.15
729.986	0.15
730.011	-8.85
730.036	-0.85
730.061	8.15
730.086	5.15
730.112	3.15
730.137	8.15
730.162	-8.85
730.187	-17.85
730.212	0.15
730.237	-10.85
730.262	-2.85
730.287	-4.85
730.312	4.15
730.337	-13.85
730.362	16.15
730.387	-5.85
730.413	-23.85
730.438	-8.85
730.463	-5.85
730.488	-5.85
730.513	2.15
730.538	3.15
730.563	12.15
730.588	4.15
730.613	11.15
730.638	-12.85
730.663	-9.85
730.688	12.15
730.713	8.15
730.738	2.15
730.763	-1.85
730.788	-13.85
730.813	2.15
730.838	10.15
730.863	13.15
730.888	1.15
730.913	-2.85
730.938	-12.85
730.963	-9.85
730.988	8.15
731.013	21.15
731.038	-9.85
731.063	-12.85
731.088	9.15
731.113	-4.85
731.138	-14.85
731.163	-5.85
731.188	-5.85
731.213	7.15
731.238	3.15
731.263	-2.85
731.288	-4.85
731.313	15.15
731.338	-2.85
731.363	8.15
731.388	-9.85
731.413	-3.85
731.438	2.15
731.463	11.15
731.487	9.15
731.512	-7.85
731.537	-9.85
731.562	-0.85
731.587	3.15
731.612	-14.85
731.637	-9.85
731.662	-0.85
731.687	-5.85
731.712	-26.85
731.737	8.15
731.762	-1.85
731.786	5.15
731.811	10.15
731.836	-3.85
731.861	-3.85
731.886	-13.85
731.911	-11.85
731.936	8.15
731.961	-13.85
731.986	-6.85
732.01	8.15
732.035	8.15
732.06	22.15
732.085	1.15
732.11	1.15
732.135	-17.85
732.16	-0.85
732.184	-12.85
732.209	1.15
732.234	19.15
732.259	-3.85
732.284	21.15
732.309	-4.85
732.334	5.15
732.358	-17.85
732.383	-7.85
732.408	-17.85
732.433	3.15
732.458	-7.85
732.482	10.15
732.507	9.15
732.532	-7.85
732.557	24.15
732.582	3.15
732.607	-7.85
732.631	-14.85
732.656	-1.85
732.681	2.15
732.706	13.15
732.73	-3.85
732.755	-6.85
732.78	9.15
732.805	-5.85
732.83	-2.85
732.854	3.15
732.879	21.15
732.904	-7.85
732.929	-2.85
732.953	1.15
732.978	-7.85
733.003	-5.85
733.028	0.15
733.052	4.15
733.077	1.15
733.102	10.15
733.127	-4.85
733.151	-15.85
733.176	2.15
733.201	-7.85
733.226	-8.85
733.25	7.15
733.275	-1.85
733.3	-6.85
733.324	4.15
733.349	10.15
733.374	9.15
733.399	-7.85
733.423	-22.85
733.448	-11.85
733.473	-4.85
733.497	5.15
733.522	-3.85
733.547	4.15
733.571	5.15
733.596	5.15
733.621	3.15
733.646	-4.85
733.67	0.15
733.695	5.15
733.72	-1.85
733.744	-3.85
733.769	4.15
733.794	-0.85
733.818	-8.85
733.843	-14.85
733.867	-17.85
733.892	-9.85
733.917	-11.85
733.941	-1.85
733.966	4.15
733.991	-1.85
734.015	10.15
734.04	-12.85
734.065	-3.85
734.089	12.15
734.114	4.15
734.138	17.15
734.163	2.15
734.188	-4.85
734.212	20.15
734.237	4.15
734.261	-2.85
734.286	-10.85
734.311	-3.85
734.335	-5.85
734.36	-0.85
734.384	8.15
734.409	5.15
734.434	-13.85
734.458	-6.85
734.483	-14.85
734.507	-13.85
734.532	-8.85
734.556	6.15
734.581	-19.85
734.606	-12.85
734.63	-15.85
734.655	9.15
734.679	-8.85
734.704	-0.85
734.728	4.15
734.753	-5.85
734.777	4.15
734.802	-1.85
734.826	-0.85
734.851	-2.85
734.876	4.15
734.9	3.15
734.925	11.15
734.949	-10.85
734.974	-6.85
734.998	-8.85
735.023	-19.85
735.047	-16.85
735.072	9.15
735.096	-18.85
735.121	1.15
735.145	-10.85
735.17	-4.85
735.194	2.15
735.219	-14.85
735.243	-16.85
735.268	-11.85
735.292	-2.85
735.317	-7.85
735.341	7.15
735.365	-2.85
735.39	14.15
735.414	-9.85
735.439	-1.85
735.463	-5.85
735.488	-3.85
735.512	-7.85
735.537	-7.85
735.561	-6.85
735.586	1.15
735.61	5.15
735.634	0.15
735.659	-6.85
735.683	19.15
735.708	-9.85
735.732	3.15
735.757	5.15
735.781	5.15
735.805	4.15
735.83	-11.85
735.854	-10.85
735.879	-3.85
735.903	2.15
735.927	4.15
735.952	-14.85
735.976	-15.85
736.001	0.15
736.025	-10.85
736.049	6.15
736.074	-2.85
736.098	-2.85
736.123	8.15
736.147	-9.85
736.171	-3.85
736.196	2.15
736.22	-4.85
736.244	-14.85
736.269	4.15
736.293	7.15
736.317	3.15
736.342	2.15
736.366	16.15
736.39	9.15
736.415	-5.85
736.439	15.15
736.463	12.15
736.488	7.15
736.512	5.15
736.536	9.15
736.561	19.15
736.585	-13.85
736.609	3.15
736.634	8.15
736.658	8.15
736.682	-23.85
736.707	-15.85
736.731	-7.85
736.755	-3.85
736.78	13.15
736.804	11.15
736.828	1.15
736.852	6.15
736.877	-11.85
736.901	12.15
736.925	14.15
736.949	-9.85
736.974	-7.85
736.998	-18.85
737.022	-8.85
737.047	-3.85
737.071	-1.85
737.095	4.15
737.119	2.15
737.144	-0.85
737.168	-8.85
737.192	1.15
737.216	-6.85
737.241	-7.85
737.265	-0.85
737.289	-7.85
737.313	-8.85
737.337	7.15
737.362	16.15
737.386	5.15
737.41	0.15
737.434	4.15
737.459	-6.85
737.483	16.15
737.507	10.15
737.531	-7.85
737.555	-10.85
737.58	-2.85
737.604	-11.85
737.628	-9.85
737.652	-0.85
737.676	2.15
737.701	18.15
737.725	-13.85
737.749	5.15
737.773	-2.85
737.797	-1.85
737.821	4.15
737.846	-10.85
737.87	20.15
737.894	-14.85
737.918	-9.85
737.942	-10.85
737.966	7.15
737.99	5.15
738.015	-7.85
738.039	5.15
738.063	-0.85
738.087	0.15
738.111	-14.85
738.135	2.15
738.159	-1.85
738.184	-3.85
738.208	-7.85
738.232	6.15
738.256	17.15
738.28	12.15
738.304	16.15
738.328	-3.85
738.352	13.15
738.376	-1.85
738.4	1.15
738.425	-0.85
738.449	4.15
738.473	9.15
738.497	5.15
738.521	1.15
738.545	-0.85
738.569	-2.85
738.593	16.15
738.617	0.15
738.641	-7.85
738.665	-4.85
738.689	-2.85
738.713	7.15
738.737	21.15
738.762	23.15
738.786	0.15
738.81	-19.85
738.834	14.15
738.858	-6.85
738.882	-14.85
738.906	-25.85
738.93	4.15
738.954	9.15
738.978	5.15
739.002	-0.85
739.026	4.15
739.05	-3.85
739.074	-2.85
739.098	14.15
739.122	9.15
739.146	13.15
739.17	12.15
739.194	1.15
739.218	-10.85
739.242	-6.85
739.266	-7.85
739.29	6.15
739.314	22.15
739.338	7.15
739.362	10.15
739.386	3.15
739.41	-10.85
739.434	-3.85
739.458	7.15
739.482	0.15
739.506	4.15
739.53	4.15
739.554	7.15
739.577	-2.85
739.601	2.15
739.625	-12.85
739.649	10.15
739.673	3.15
739.697	4.15
739.721	-2.85
739.745	6.15
739.769	9.15
739.793	-4.85
739.817	-9.85
739.841	-27.85
739.865	-6.85
739.889	-8.85
739.912	-1.85
739.936	-9.85
739.96	-6.85
739.984	5.15
740.008	-9.85
740.032	-15.85
740.056	-16.85
740.08	0.15
740.104	-9.85
740.127	12.15
740.151	9.15
740.175	9.15
740.199	0.15
740.223	55.15
740.247	8.15
740.271	6.15
740.295	-1.85
740.318	-17.85
740.342	-1.85
740.366	-6.85
740.39	4.15
740.414	4.15
740.438	6.15
740.461	21.15
740.485	3.15
740.509	-6.85
740.533	9.15
740.557	-1.85
740.581	2.15
740.604	-3.85
740.628	-14.85
740.652	2.15
740.676	-3.85
740.7	1.15
740.723	-2.85
740.747	-13.85
740.771	-4.85
740.795	-7.85
740.819	16.15
740.842	-8.85
740.866	7.15
740.89	-0.85
740.914	-7.85
740.938	-0.85
740.961	-2.85
740.985	-6.85
741.009	-5.85
741.033	9.15
741.056	7.15
741.08	10.15
741.104	-12.85
741.128	-1.85
741.151	10.15
741.175	0.15
741.199	-9.85
741.223	3.15
741.246	-0.85
741.27	4.15
741.294	-6.85
741.318	-7.85
741.341	-9.85
741.365	-0.85
741.389	-4.85
741.413	2.15
741.436	9.15
741.46	-0.85
741.484	5.15
741.507	10.15
741.531	18.15
741.555	15.15
741.579	0.15
741.602	1.15
741.626	12.15
741.65	-1.85
741.673	-3.85
741.697	-4.85
741.721	12.15
741.744	-22.85
741.768	-13.85
741.792	13.15
741.815	10.15
741.839	13.15
741.863	11.15
741.886	17.15
741.91	17.15
741.934	8.15
741.957	-24.85
741.981	21.15
742.005	17.15
742.028	-3.85
742.052	-0.85
742.075	12.15
742.099	21.15
742.123	-2.85
742.146	-7.85
742.17	5.15
742.194	-14.85
742.217	-10.85
742.241	-6.85
742.264	-4.85
742.288	26.15
742.312	4.15
742.335	3.15
742.359	-8.85
742.382	15.15
742.406	10.15
742.43	-3.85
742.453	-1.85
742.477	-15.85
742.5	2.15
742.524	7.15
742.548	9.15
742.571	-6.85
742.595	6.15
742.618	-3.85
742.642	-10.85
742.665	2.15
742.689	-13.85
742.712	1.15
742.736	-3.85
742.76	-6.85
742.783	1.15
742.807	19.15
742.83	21.15
742.854	-13.85
742.877	8.15
742.901	5.15
742.924	-0.85
742.948	5.15
742.971	-2.85
742.995	-1.85
743.018	-4.85
743.042	3.15
743.065	2.15
743.089	-3.85
743.112	11.15
743.136	2.15
743.159	-13.85
743.183	-8.85
743.206	17.15
743.23	11.15
743.253	4.15
743.277	5.15
743.3	1.15
743.324	10.15
743.347	-7.85
743.371	14.15
743.394	12.15
743.418	16.15
743.441	5.15
743.465	0.15
743.488	0.15
743.512	-17.85
743.535	-6.85
743.558	-9.85
743.582	-3.85
743.605	2.15
743.629	-3.85
743.652	1.15
743.676	8.15
743.699	30.15
743.723	4.15
743.746	11.15
743.769	8.15
743.793	7.15
743.816	-6.85
743.84	13.15
743.863	-0.85
743.886	9.15
743.91	3.15
743.933	-0.85
743.957	-10.85
743.98	-1.85
744.003	2.15
744.027	-1.85
744.05	-13.85
744.074	-0.85
744.097	-3.85
744.12	-7.85
744.144	-7.85
744.167	5.15
744.19	-0.85
744.214	-8.85
744.237	-6.85
744.26	11.15
744.284	-3.85
744.307	0.15
744.331	1.15
744.354	-1.85
744.377	-12.85
744.401	-12.85
744.424	-7.85
744.447	-9.85
744.471	1.15
