Data from HighRes_H2_15_09_11_07_2024_HR4C61891__153__15-11-11-701.txt Node

Date: Thu Nov 07 15:11:11 EST 2024
User: crc00042
Spectrometer: HR4C6189
Trigger mode: 4
Integration Time (sec): 1.000000E-1
Scans to average: 1
Electric dark correction enabled: true
Nonlinearity correction enabled: false
Boxcar width: 0
XAxis mode: Wavelengths
Number of Pixels in Spectrum: 3648
>>>>>Begin Spectral Data<<<<<
639.567	-46.23
639.602	-46.23
639.636	-46.23
639.67	-48.23
639.704	-16.23
639.738	2.77
639.773	9.77
639.807	-9.23
639.841	5.77
639.875	7.77
639.909	-13.23
639.943	-14.23
639.978	-16.23
640.012	9.77
640.046	10.77
640.08	14.77
640.114	2.77
640.148	-11.23
640.182	5.77
640.217	-12.23
640.251	3.77
640.285	14.77
640.319	10.77
640.353	-5.23
640.387	0.77
640.421	-3.23
640.455	-12.23
640.49	-6.23
640.524	-7.23
640.558	5.77
640.592	6.77
640.626	5.77
640.66	0.77
640.694	-5.23
640.728	17.77
640.762	21.77
640.796	4.77
640.83	4.77
640.865	5.77
640.899	13.77
640.933	2.77
640.967	-0.23
641.001	-4.23
641.035	-5.23
641.069	2.77
641.103	-12.23
641.137	-2.23
641.171	-26.23
641.205	-2.23
641.239	1.77
641.273	12.77
641.307	10.77
641.341	14.77
641.375	3.77
641.409	-25.23
641.443	-6.23
641.477	-3.23
641.511	3.77
641.545	4.77
641.579	-9.23
641.614	11.77
641.648	7.77
641.682	-9.23
641.716	3.77
641.75	3.77
641.784	5.77
641.818	-15.23
641.852	4.77
641.886	-4.23
641.919	5.77
641.953	-18.23
641.987	-27.23
642.021	4.77
642.055	4.77
642.089	10.77
642.123	-11.23
642.157	-7.23
642.191	-7.23
642.225	23.77
642.259	4.77
642.293	4.77
642.327	0.77
642.361	-6.23
642.395	-12.23
642.429	-4.23
642.463	14.77
642.497	18.77
642.531	10.77
642.565	-4.23
642.599	17.77
642.633	-18.23
642.666	2.77
642.7	15.77
642.734	11.77
642.768	-7.23
642.802	-3.23
642.836	13.77
642.87	11.77
642.904	6.77
642.938	8.77
642.972	-9.23
643.005	0.77
643.039	6.77
643.073	6.77
643.107	4.77
643.141	-10.23
643.175	2.77
643.209	1.77
643.243	7.77
643.276	11.77
643.31	-4.23
643.344	10.77
643.378	-7.23
643.412	16.77
643.446	-2.23
643.48	-9.23
643.513	24.77
643.547	13.77
643.581	-6.23
643.615	11.77
643.649	8.77
643.683	6.77
643.716	7.77
643.75	8.77
643.784	-13.23
643.818	-18.23
643.852	-3.23
643.886	-1.23
643.919	-2.23
643.953	-3.23
643.987	0.77
644.021	2.77
644.055	2.77
644.088	5.77
644.122	-5.23
644.156	-6.23
644.19	6.77
644.224	-3.23
644.257	10.77
644.291	2.77
644.325	5.77
644.359	-7.23
644.392	25.77
644.426	18.77
644.46	8.77
644.494	-6.23
644.527	-10.23
644.561	2.77
644.595	0.77
644.629	-6.23
644.662	-11.23
644.696	18.77
644.73	21.77
644.764	4.77
644.797	9.77
644.831	0.77
644.865	22.77
644.899	5.77
644.932	25.77
644.966	8.77
645	16.77
645.033	7.77
645.067	-1.23
645.101	8.77
645.135	13.77
645.168	-3.23
645.202	-9.23
645.236	-8.23
645.269	13.77
645.303	-1.23
645.337	-6.23
645.37	0.77
645.404	-1.23
645.438	0.77
645.471	-8.23
645.505	3.77
645.539	10.77
645.572	-3.23
645.606	2.77
645.64	28.77
645.673	8.77
645.707	19.77
645.741	0.77
645.774	-12.23
645.808	7.77
645.842	-2.23
645.875	3.77
645.909	-8.23
645.943	-11.23
645.976	1.77
646.01	-3.23
646.043	6.77
646.077	1.77
646.111	8.77
646.144	15.77
646.178	9.77
646.212	4.77
646.245	-7.23
646.279	0.77
646.312	-3.23
646.346	26.77
646.38	7.77
646.413	-6.23
646.447	-16.23
646.48	-6.23
646.514	20.77
646.547	-4.23
646.581	-9.23
646.615	17.77
646.648	-6.23
646.682	1.77
646.715	-0.23
646.749	0.77
646.782	-3.23
646.816	0.77
646.85	5.77
646.883	-10.23
646.917	-2.23
646.95	-3.23
646.984	-0.23
647.017	-3.23
647.051	3.77
647.084	1.77
647.118	9.77
647.151	10.77
647.185	20.77
647.218	-11.23
647.252	-8.23
647.285	-2.23
647.319	4.77
647.353	10.77
647.386	13.77
647.42	-19.23
647.453	9.77
647.487	-0.23
647.52	1.77
647.553	9.77
647.587	1.77
647.62	-4.23
647.654	7.77
647.687	1.77
647.721	2.77
647.754	11.77
647.788	0.77
647.821	-13.23
647.855	0.77
647.888	2.77
647.922	11.77
647.955	-4.23
647.989	8.77
648.022	5.77
648.055	5.77
648.089	-2.23
648.122	10.77
648.156	-6.23
648.189	4.77
648.223	9.77
648.256	6.77
648.29	16.77
648.323	13.77
648.356	10.77
648.39	23.77
648.423	11.77
648.457	-2.23
648.49	4.77
648.523	19.77
648.557	1.77
648.59	-0.23
648.624	-1.23
648.657	2.77
648.69	19.77
648.724	-9.23
648.757	11.77
648.791	5.77
648.824	5.77
648.857	10.77
648.891	3.77
648.924	2.77
648.957	24.77
648.991	3.77
649.024	9.77
649.057	2.77
649.091	-0.23
649.124	0.77
649.158	10.77
649.191	20.77
649.224	-0.23
649.258	10.77
649.291	17.77
649.324	8.77
649.358	4.77
649.391	2.77
649.424	1.77
649.458	-5.23
649.491	0.77
649.524	-6.23
649.557	-1.23
649.591	-9.23
649.624	10.77
649.657	-6.23
649.691	-10.23
649.724	-6.23
649.757	4.77
649.791	-6.23
649.824	9.77
649.857	8.77
649.89	4.77
649.924	-12.23
649.957	-13.23
649.99	-19.23
650.023	-0.23
650.057	-16.23
650.09	10.77
650.123	-5.23
650.157	11.77
650.19	9.77
650.223	-0.23
650.256	-14.23
650.29	8.77
650.323	11.77
650.356	4.77
650.389	-7.23
650.423	-5.23
650.456	7.77
650.489	4.77
650.522	3.77
650.555	13.77
650.589	6.77
650.622	8.77
650.655	9.77
650.688	6.77
650.721	-0.23
650.755	5.77
650.788	10.77
650.821	1.77
650.854	-2.23
650.887	9.77
650.921	-1.23
650.954	-18.23
650.987	-0.23
651.02	-2.23
651.053	-10.23
651.087	0.77
651.12	8.77
651.153	-4.23
651.186	-4.23
651.219	-10.23
651.252	10.77
651.286	7.77
651.319	-1.23
651.352	-14.23
651.385	1.77
651.418	-1.23
651.451	10.77
651.484	6.77
651.518	-4.23
651.551	7.77
651.584	-13.23
651.617	17.77
651.65	2.77
651.683	13.77
651.716	3.77
651.749	-18.23
651.783	-3.23
651.816	0.77
651.849	-4.23
651.882	-7.23
651.915	-13.23
651.948	-6.23
651.981	-14.23
652.014	-4.23
652.047	-17.23
652.08	-14.23
652.114	5.77
652.147	-20.23
652.18	-18.23
652.213	17.77
652.246	-10.23
652.279	2.77
652.312	6.77
652.345	-4.23
652.378	-1.23
652.411	24.77
652.444	4.77
652.477	-9.23
652.51	2.77
652.543	-9.23
652.576	13.77
652.609	-9.23
652.642	-0.23
652.675	6.77
652.709	-6.23
652.742	1.77
652.775	2.77
652.808	9.77
652.841	-7.23
652.874	-5.23
652.907	17.77
652.94	-18.23
652.973	-19.23
653.006	-6.23
653.039	-6.23
653.072	13.77
653.105	-0.23
653.138	-19.23
653.171	-20.23
653.204	-25.23
653.237	-4.23
653.27	-10.23
653.303	12.77
653.336	-5.23
653.368	6.77
653.401	6.77
653.434	-17.23
653.467	11.77
653.5	-21.23
653.533	-22.23
653.566	-16.23
653.599	9.77
653.632	18.77
653.665	-2.23
653.698	-12.23
653.731	3.77
653.764	2.77
653.797	-0.23
653.83	5.77
653.863	0.77
653.896	14.77
653.929	5.77
653.961	-26.23
653.994	-4.23
654.027	-14.23
654.06	1.77
654.093	-0.23
654.126	-5.23
654.159	-15.23
654.192	9.77
654.225	17.77
654.258	-17.23
654.29	-10.23
654.323	8.77
654.356	-12.23
654.389	-7.23
654.422	-12.23
654.455	-17.23
654.488	-0.23
654.521	-9.23
654.553	-1.23
654.586	21.77
654.619	5.77
654.652	4.77
654.685	4.77
654.718	4.77
654.751	4.77
654.783	11.77
654.816	15.77
654.849	8.77
654.882	-2.23
654.915	-8.23
654.948	-11.23
654.98	-7.23
655.013	-10.23
655.046	-14.23
655.079	7.77
655.112	13.77
655.144	-2.23
655.177	3.77
655.21	-1.23
655.243	17.77
655.276	-2.23
655.308	-5.23
655.341	-2.23
655.374	10.77
655.407	-11.23
655.44	-2.23
655.472	17.77
655.505	4.77
655.538	8.77
655.571	21.77
655.603	10.77
655.636	2.77
655.669	13.77
655.702	7.77
655.734	7.77
655.767	7.77
655.8	16.77
655.833	17.77
655.865	18.77
655.898	6.77
655.931	30.77
655.964	29.77
655.996	58.77
656.029	64.77
656.062	46.77
656.095	61.77
656.127	58.77
656.16	108.77
656.193	117.77
656.225	170.77
656.258	298.77
656.291	506.77
656.324	1124.77
656.356	3422.77
656.389	7601.77
656.422	6094.77
656.454	2109.77
656.487	682.77
656.52	252.77
656.552	116.77
656.585	73.77
656.618	63.77
656.65	44.77
656.683	17.77
656.716	7.77
656.748	15.77
656.781	3.77
656.814	-0.23
656.846	10.77
656.879	-5.23
656.912	4.77
656.944	-2.23
656.977	-23.23
657.01	-0.23
657.042	2.77
657.075	8.77
657.108	-23.23
657.14	-4.23
657.173	6.77
657.205	12.77
657.238	9.77
657.271	10.77
657.303	-13.23
657.336	8.77
657.369	-9.23
657.401	-6.23
657.434	2.77
657.466	7.77
657.499	1.77
657.532	-5.23
657.564	14.77
657.597	-3.23
657.629	7.77
657.662	-9.23
657.694	-7.23
657.727	-9.23
657.76	-0.23
657.792	-8.23
657.825	-16.23
657.857	5.77
657.89	1.77
657.922	10.77
657.955	-10.23
657.987	12.77
658.02	10.77
658.053	16.77
658.085	7.77
658.118	-2.23
658.15	1.77
658.183	16.77
658.215	-1.23
658.248	-9.23
658.28	-5.23
658.313	6.77
658.345	12.77
658.378	5.77
658.41	-1.23
658.443	9.77
658.475	2.77
658.508	10.77
658.54	2.77
658.573	-21.23
658.605	-23.23
658.638	-7.23
658.67	-3.23
658.703	3.77
658.735	5.77
658.768	-1.23
658.8	-7.23
658.833	13.77
658.865	-2.23
658.898	3.77
658.93	-15.23
658.963	-19.23
658.995	-21.23
659.028	5.77
659.06	1.77
659.092	-9.23
659.125	-5.23
659.157	5.77
659.19	-6.23
659.222	-8.23
659.255	13.77
659.287	1.77
659.32	-13.23
659.352	-8.23
659.384	-9.23
659.417	0.77
659.449	-5.23
659.482	-2.23
659.514	1.77
659.546	-3.23
659.579	-14.23
659.611	-4.23
659.644	-8.23
659.676	-6.23
659.708	-14.23
659.741	-8.23
659.773	16.77
659.806	-5.23
659.838	-8.23
659.87	-6.23
659.903	1.77
659.935	-6.23
659.967	21.77
660	25.77
660.032	-13.23
660.065	6.77
660.097	-12.23
660.129	3.77
660.162	-30.23
660.194	-9.23
660.226	9.77
660.259	-14.23
660.291	-4.23
660.323	2.77
660.356	-12.23
660.388	-3.23
660.42	-8.23
660.453	-7.23
660.485	6.77
660.517	6.77
660.55	17.77
660.582	-3.23
660.614	8.77
660.647	-1.23
660.679	-5.23
660.711	3.77
660.743	-1.23
660.776	-5.23
660.808	-0.23
660.84	-3.23
660.873	-0.23
660.905	4.77
660.937	-7.23
660.969	-12.23
661.002	0.77
661.034	14.77
661.066	-8.23
661.099	8.77
661.131	24.77
661.163	-3.23
661.195	0.77
661.228	1.77
661.26	-2.23
661.292	-10.23
661.324	10.77
661.357	15.77
661.389	5.77
661.421	11.77
661.453	1.77
661.485	6.77
661.518	-10.23
661.55	-11.23
661.582	-11.23
661.614	-0.23
661.647	-15.23
661.679	0.77
661.711	9.77
661.743	2.77
661.775	5.77
661.808	32.77
661.84	-4.23
661.872	-2.23
661.904	17.77
661.936	-7.23
661.969	-12.23
662.001	-9.23
662.033	-0.23
662.065	-15.23
662.097	2.77
662.129	2.77
662.162	-0.23
662.194	-9.23
662.226	-2.23
662.258	3.77
662.29	10.77
662.322	-7.23
662.355	-10.23
662.387	26.77
662.419	11.77
662.451	11.77
662.483	6.77
662.515	-4.23
662.547	-3.23
662.58	-12.23
662.612	-9.23
662.644	-11.23
662.676	1.77
662.708	15.77
662.74	-2.23
662.772	10.77
662.804	10.77
662.836	10.77
662.869	2.77
662.901	13.77
662.933	5.77
662.965	11.77
662.997	11.77
663.029	-8.23
663.061	2.77
663.093	-1.23
663.125	8.77
663.157	-0.23
663.189	5.77
663.221	15.77
663.254	-2.23
663.286	6.77
663.318	-10.23
663.35	-8.23
663.382	3.77
663.414	8.77
663.446	9.77
663.478	-5.23
663.51	19.77
663.542	-12.23
663.574	6.77
663.606	13.77
663.638	3.77
663.67	1.77
663.702	1.77
663.734	-15.23
663.766	-4.23
663.798	-0.23
663.83	-1.23
663.862	1.77
663.894	0.77
663.926	-8.23
663.958	-4.23
663.99	7.77
664.022	-11.23
664.054	1.77
664.086	-28.23
664.118	-11.23
664.15	-15.23
664.182	4.77
664.214	-9.23
664.246	6.77
664.278	10.77
664.31	7.77
664.342	-1.23
664.374	-2.23
664.406	4.77
664.438	-7.23
664.47	11.77
664.502	3.77
664.534	2.77
664.566	-9.23
664.598	10.77
664.63	-1.23
664.662	5.77
664.693	-0.23
664.725	-9.23
664.757	3.77
664.789	-4.23
664.821	4.77
664.853	-2.23
664.885	0.77
664.917	-7.23
664.949	18.77
664.981	1.77
665.013	7.77
665.045	-29.23
665.076	6.77
665.108	5.77
665.14	7.77
665.172	5.77
665.204	-1.23
665.236	-9.23
665.268	8.77
665.3	-20.23
665.331	-6.23
665.363	9.77
665.395	-6.23
665.427	-6.23
665.459	5.77
665.491	-9.23
665.523	1.77
665.555	3.77
665.586	10.77
665.618	7.77
665.65	-15.23
665.682	-4.23
665.714	-3.23
665.746	-17.23
665.777	5.77
665.809	-8.23
665.841	8.77
665.873	-13.23
665.905	6.77
665.937	23.77
665.968	1.77
666	-6.23
666.032	-1.23
666.064	6.77
666.096	-0.23
666.127	9.77
666.159	7.77
666.191	10.77
666.223	15.77
666.255	-2.23
666.286	-0.23
666.318	-6.23
666.35	15.77
666.382	8.77
666.413	0.77
666.445	-11.23
666.477	-7.23
666.509	-1.23
666.54	1.77
666.572	-0.23
666.604	-7.23
666.636	-17.23
666.667	17.77
666.699	30.77
666.731	8.77
666.763	-13.23
666.794	-5.23
666.826	-7.23
666.858	-11.23
666.89	16.77
666.921	8.77
666.953	-6.23
666.985	15.77
667.017	24.77
667.048	7.77
667.08	10.77
667.112	-0.23
667.143	-14.23
667.175	8.77
667.207	13.77
667.238	5.77
667.27	10.77
667.302	-2.23
667.334	-3.23
667.365	25.77
667.397	-0.23
667.429	-13.23
667.46	24.77
667.492	0.77
667.524	-0.23
667.555	-6.23
667.587	-1.23
667.619	-1.23
667.65	-2.23
667.682	-2.23
667.714	9.77
667.745	7.77
667.777	8.77
667.808	14.77
667.84	-3.23
667.872	0.77
667.903	11.77
667.935	-0.23
667.967	2.77
667.998	11.77
668.03	-8.23
668.061	1.77
668.093	2.77
668.125	-12.23
668.156	-0.23
668.188	6.77
668.22	-5.23
668.251	5.77
668.283	4.77
668.314	18.77
668.346	-8.23
668.377	-7.23
668.409	-16.23
668.441	5.77
668.472	2.77
668.504	14.77
668.535	13.77
668.567	5.77
668.599	11.77
668.63	-15.23
668.662	-14.23
668.693	16.77
668.725	12.77
668.756	3.77
668.788	-14.23
668.819	-5.23
668.851	-4.23
668.882	6.77
668.914	-3.23
668.946	-14.23
668.977	-15.23
669.009	-6.23
669.04	-8.23
669.072	14.77
669.103	-2.23
669.135	0.77
669.166	-0.23
669.198	10.77
669.229	-4.23
669.261	3.77
669.292	2.77
669.324	5.77
669.355	6.77
669.387	1.77
669.418	-1.23
669.45	-13.23
669.481	-2.23
669.513	9.77
669.544	2.77
669.576	1.77
669.607	2.77
669.639	-2.23
669.67	-2.23
669.701	8.77
669.733	-14.23
669.764	-2.23
669.796	-10.23
669.827	-17.23
669.859	-1.23
669.89	-5.23
669.922	15.77
669.953	9.77
669.985	1.77
670.016	7.77
670.047	10.77
670.079	2.77
670.11	-11.23
670.142	4.77
670.173	10.77
670.204	-4.23
670.236	-0.23
670.267	-0.23
670.299	-7.23
670.33	2.77
670.362	13.77
670.393	-12.23
670.424	-0.23
670.456	-14.23
670.487	2.77
670.518	-1.23
670.55	-3.23
670.581	-2.23
670.613	-3.23
670.644	-6.23
670.675	-12.23
670.707	-2.23
670.738	-11.23
670.769	-14.23
670.801	-17.23
670.832	17.77
670.864	-15.23
670.895	1.77
670.926	-12.23
670.958	-14.23
670.989	6.77
671.02	-0.23
671.052	-3.23
671.083	4.77
671.114	-1.23
671.146	0.77
671.177	10.77
671.208	-2.23
671.24	-22.23
671.271	-13.23
671.302	4.77
671.333	-1.23
671.365	4.77
671.396	-21.23
671.427	2.77
671.459	-2.23
671.49	4.77
671.521	3.77
671.553	-6.23
671.584	2.77
671.615	-12.23
671.646	11.77
671.678	0.77
671.709	1.77
671.74	-17.23
671.771	3.77
671.803	-16.23
671.834	-6.23
671.865	-5.23
671.896	-0.23
671.928	3.77
671.959	-11.23
671.99	-9.23
672.021	4.77
672.053	3.77
672.084	9.77
672.115	-0.23
672.146	3.77
672.178	-15.23
672.209	-6.23
672.24	0.77
672.271	19.77
672.303	6.77
672.334	-4.23
672.365	-18.23
672.396	-0.23
672.427	-5.23
672.459	10.77
672.49	12.77
672.521	-6.23
672.552	8.77
672.583	2.77
672.615	-8.23
672.646	9.77
672.677	2.77
672.708	-2.23
672.739	-16.23
672.77	-14.23
672.802	-1.23
672.833	10.77
672.864	1.77
672.895	2.77
672.926	-13.23
672.957	-26.23
672.989	-10.23
673.02	-3.23
673.051	4.77
673.082	0.77
673.113	-1.23
673.144	9.77
673.175	2.77
673.206	-5.23
673.238	-12.23
673.269	-9.23
673.3	-19.23
673.331	2.77
673.362	-1.23
673.393	3.77
673.424	5.77
673.455	21.77
673.487	12.77
673.518	8.77
673.549	11.77
673.58	1.77
673.611	6.77
673.642	-15.23
673.673	-5.23
673.704	18.77
673.735	3.77
673.766	1.77
673.797	-3.23
673.828	-10.23
673.86	-7.23
673.891	-5.23
673.922	-15.23
673.953	-3.23
673.984	-17.23
674.015	3.77
674.046	21.77
674.077	2.77
674.108	-13.23
674.139	-7.23
674.17	-11.23
674.201	-6.23
674.232	-6.23
674.263	-18.23
674.294	-14.23
674.325	-31.23
674.356	-1.23
674.387	-0.23
674.418	-6.23
674.449	-7.23
674.48	-11.23
674.511	-2.23
674.542	11.77
674.573	-2.23
674.604	19.77
674.635	11.77
674.666	7.77
674.697	-4.23
674.728	13.77
674.759	-1.23
674.79	-12.23
674.821	0.77
674.852	6.77
674.883	-5.23
674.914	5.77
674.945	-12.23
674.976	-5.23
675.007	-9.23
675.038	-1.23
675.069	-6.23
675.1	1.77
675.131	-6.23
675.162	-2.23
675.193	-1.23
675.224	-4.23
675.254	13.77
675.285	8.77
675.316	3.77
675.347	-8.23
675.378	-4.23
675.409	1.77
675.44	2.77
675.471	2.77
675.502	-9.23
675.533	6.77
675.564	-6.23
675.595	-10.23
675.625	22.77
675.656	15.77
675.687	-2.23
675.718	-15.23
675.749	8.77
675.78	5.77
675.811	-21.23
675.842	11.77
675.873	17.77
675.903	3.77
675.934	-3.23
675.965	-1.23
675.996	-11.23
676.027	2.77
676.058	-11.23
676.089	-20.23
676.119	-0.23
676.15	-13.23
676.181	-14.23
676.212	-12.23
676.243	-3.23
676.274	-7.23
676.304	14.77
676.335	-10.23
676.366	-1.23
676.397	-10.23
676.428	-12.23
676.459	-8.23
676.489	19.77
676.52	-6.23
676.551	-2.23
676.582	-10.23
676.613	-3.23
676.643	-17.23
676.674	5.77
676.705	-3.23
676.736	14.77
676.767	14.77
676.797	29.77
676.828	3.77
676.859	5.77
676.89	-0.23
676.92	17.77
676.951	4.77
676.982	12.77
677.013	-6.23
677.044	8.77
677.074	-13.23
677.105	-1.23
677.136	0.77
677.167	-7.23
677.197	-1.23
677.228	-14.23
677.259	-13.23
677.289	-14.23
677.32	-17.23
677.351	-22.23
677.382	-13.23
677.412	-1.23
677.443	2.77
677.474	-11.23
677.505	-0.23
677.535	-3.23
677.566	-12.23
677.597	-5.23
677.627	-6.23
677.658	-8.23
677.689	10.77
677.72	8.77
677.75	-3.23
677.781	5.77
677.812	6.77
677.842	0.77
677.873	-4.23
677.904	-3.23
677.934	-4.23
677.965	-3.23
677.996	-24.23
678.026	-6.23
678.057	-0.23
678.088	-12.23
678.118	4.77
678.149	-15.23
678.18	0.77
678.21	-6.23
678.241	5.77
678.272	5.77
678.302	8.77
678.333	12.77
678.363	-7.23
678.394	-9.23
678.425	2.77
678.455	10.77
678.486	9.77
678.517	-1.23
678.547	-13.23
678.578	-3.23
678.608	-12.23
678.639	-3.23
678.67	-5.23
678.7	0.77
678.731	-2.23
678.761	0.77
678.792	-4.23
678.823	2.77
678.853	-2.23
678.884	-12.23
678.914	1.77
678.945	8.77
678.975	2.77
679.006	1.77
679.037	-12.23
679.067	25.77
679.098	-5.23
679.128	-8.23
679.159	-6.23
679.189	6.77
679.22	-7.23
679.25	-8.23
679.281	-2.23
679.312	10.77
679.342	3.77
679.373	27.77
679.403	-3.23
679.434	1.77
679.464	-7.23
679.495	16.77
679.525	-1.23
679.556	12.77
679.586	5.77
679.617	16.77
679.647	6.77
679.678	-1.23
679.708	-4.23
679.739	-5.23
679.769	-1.23
679.8	-1.23
679.83	2.77
679.861	7.77
679.891	0.77
679.922	-9.23
679.952	1.77
679.983	-4.23
680.013	4.77
680.044	-1.23
680.074	1.77
680.105	6.77
680.135	10.77
680.165	6.77
680.196	10.77
680.226	-7.23
680.257	-9.23
680.287	-8.23
680.318	3.77
680.348	-11.23
680.379	20.77
680.409	2.77
680.439	-3.23
680.47	-7.23
680.5	-7.23
680.531	2.77
680.561	6.77
680.592	7.77
680.622	20.77
680.652	3.77
680.683	13.77
680.713	0.77
680.744	-6.23
680.774	-1.23
680.804	13.77
680.835	-15.23
680.865	-11.23
680.896	1.77
680.926	-3.23
680.956	-7.23
680.987	0.77
681.017	2.77
681.047	1.77
681.078	-5.23
681.108	-0.23
681.139	0.77
681.169	-2.23
681.199	-6.23
681.23	5.77
681.26	6.77
681.29	11.77
681.321	2.77
681.351	-14.23
681.381	-1.23
681.412	0.77
681.442	-2.23
681.472	13.77
681.503	13.77
681.533	20.77
681.563	-0.23
681.594	-3.23
681.624	-0.23
681.654	-3.23
681.685	-2.23
681.715	8.77
681.745	-3.23
681.775	-16.23
681.806	-13.23
681.836	-8.23
681.866	-6.23
681.897	-5.23
681.927	-2.23
681.957	-13.23
681.987	-3.23
682.018	-3.23
682.048	4.77
682.078	18.77
682.109	19.77
682.139	1.77
682.169	7.77
682.199	-21.23
682.23	-19.23
682.26	7.77
682.29	2.77
682.32	6.77
682.351	-10.23
682.381	-3.23
682.411	-3.23
682.441	-6.23
682.472	-3.23
682.502	-4.23
682.532	5.77
682.562	2.77
682.592	18.77
682.623	2.77
682.653	3.77
682.683	0.77
682.713	8.77
682.743	-7.23
682.774	-12.23
682.804	16.77
682.834	2.77
682.864	-1.23
682.894	-4.23
682.925	1.77
682.955	9.77
682.985	-0.23
683.015	1.77
683.045	8.77
683.076	-14.23
683.106	-1.23
683.136	4.77
683.166	-0.23
683.196	-13.23
683.226	-9.23
683.257	2.77
683.287	1.77
683.317	-4.23
683.347	-6.23
683.377	-4.23
683.407	-15.23
683.437	3.77
683.468	-4.23
683.498	-7.23
683.528	-1.23
683.558	0.77
683.588	-1.23
683.618	-1.23
683.648	3.77
683.678	3.77
683.708	-13.23
683.739	-5.23
683.769	-4.23
683.799	-8.23
683.829	-10.23
683.859	-0.23
683.889	10.77
683.919	5.77
683.949	-14.23
683.979	-15.23
684.009	-13.23
684.039	0.77
684.07	-5.23
684.1	15.77
684.13	8.77
684.16	-8.23
684.19	-2.23
684.22	-3.23
684.25	-4.23
684.28	-18.23
684.31	17.77
684.34	9.77
684.37	9.77
684.4	16.77
684.43	6.77
684.46	2.77
684.49	-2.23
684.52	-2.23
684.55	5.77
684.58	-2.23
684.61	13.77
684.64	8.77
684.67	12.77
684.7	-5.23
684.73	4.77
684.76	-4.23
684.79	10.77
684.82	-0.23
684.85	-9.23
684.88	-5.23
684.91	-0.23
684.94	3.77
684.97	-11.23
685	-16.23
685.03	-6.23
685.06	2.77
685.09	-0.23
685.12	8.77
685.15	-14.23
685.18	6.77
685.21	-8.23
685.24	14.77
685.27	6.77
685.3	0.77
685.33	19.77
685.36	13.77
685.39	2.77
685.42	-8.23
685.45	-7.23
685.48	-6.23
685.51	0.77
685.54	-0.23
685.569	9.77
685.599	-9.23
685.629	9.77
685.659	13.77
685.689	1.77
685.719	-9.23
685.749	-14.23
685.779	4.77
685.809	-2.23
685.839	-4.23
685.869	3.77
685.898	11.77
685.928	5.77
685.958	-7.23
685.988	15.77
686.018	-1.23
686.048	11.77
686.078	12.77
686.108	7.77
686.137	-3.23
686.167	20.77
686.197	-17.23
686.227	-2.23
686.257	29.77
686.287	25.77
686.317	5.77
686.346	-15.23
686.376	-25.23
686.406	-9.23
686.436	2.77
686.466	1.77
686.496	3.77
686.525	-12.23
686.555	-8.23
686.585	8.77
686.615	21.77
686.645	6.77
686.675	-4.23
686.704	4.77
686.734	-0.23
686.764	-8.23
686.794	2.77
686.824	-13.23
686.853	-9.23
686.883	4.77
686.913	10.77
686.943	8.77
686.973	-5.23
687.002	13.77
687.032	0.77
687.062	-12.23
687.092	5.77
687.121	2.77
687.151	1.77
687.181	6.77
687.211	-3.23
687.24	17.77
687.27	-6.23
687.3	5.77
687.33	-16.23
687.359	-21.23
687.389	-1.23
687.419	-5.23
687.449	-6.23
687.478	11.77
687.508	-7.23
687.538	3.77
687.568	-5.23
687.597	-8.23
687.627	-0.23
687.657	-9.23
687.686	0.77
687.716	14.77
687.746	1.77
687.776	6.77
687.805	0.77
687.835	0.77
687.865	11.77
687.894	3.77
687.924	0.77
687.954	-6.23
687.983	-14.23
688.013	8.77
688.043	1.77
688.072	18.77
688.102	18.77
688.132	-3.23
688.161	9.77
688.191	4.77
688.221	8.77
688.25	-5.23
688.28	-2.23
688.31	8.77
688.339	12.77
688.369	-11.23
688.399	-13.23
688.428	-1.23
688.458	6.77
688.488	0.77
688.517	3.77
688.547	-6.23
688.576	21.77
688.606	10.77
688.636	-14.23
688.665	17.77
688.695	-7.23
688.725	5.77
688.754	6.77
688.784	4.77
688.813	19.77
688.843	0.77
688.873	-14.23
688.902	-5.23
688.932	-4.23
688.961	-5.23
688.991	13.77
689.02	13.77
689.05	2.77
689.08	19.77
689.109	9.77
689.139	2.77
689.168	0.77
689.198	2.77
689.227	-0.23
689.257	-7.23
689.287	6.77
689.316	-1.23
689.346	-7.23
689.375	-12.23
689.405	2.77
689.434	-9.23
689.464	7.77
689.493	1.77
689.523	-3.23
689.552	-5.23
689.582	6.77
689.611	-7.23
689.641	12.77
689.67	1.77
689.7	0.77
689.73	3.77
689.759	-1.23
689.789	3.77
689.818	-4.23
689.848	-9.23
689.877	0.77
689.906	-1.23
689.936	-15.23
689.965	0.77
689.995	6.77
690.024	7.77
690.054	3.77
690.083	3.77
690.113	-9.23
690.142	-10.23
690.172	-10.23
690.201	-1.23
690.231	-8.23
690.26	10.77
690.29	-4.23
690.319	5.77
690.348	-15.23
690.378	2.77
690.407	0.77
690.437	8.77
690.466	6.77
690.496	-1.23
690.525	0.77
690.555	-4.23
690.584	-11.23
690.613	-9.23
690.643	0.77
690.672	6.77
690.702	12.77
690.731	1.77
690.76	-3.23
690.79	-1.23
690.819	-4.23
690.849	-0.23
690.878	-1.23
690.907	-1.23
690.937	2.77
690.966	9.77
690.996	-3.23
691.025	-4.23
691.054	-5.23
691.084	14.77
691.113	12.77
691.142	4.77
691.172	1.77
691.201	1.77
691.23	8.77
691.26	-0.23
691.289	-9.23
691.319	-1.23
691.348	-3.23
691.377	16.77
691.407	-6.23
691.436	-4.23
691.465	5.77
691.495	13.77
691.524	6.77
691.553	-0.23
691.583	-7.23
691.612	9.77
691.641	-11.23
691.67	-11.23
691.7	4.77
691.729	4.77
691.758	15.77
691.788	10.77
691.817	-10.23
691.846	0.77
691.876	0.77
691.905	8.77
691.934	-0.23
691.963	7.77
691.993	3.77
692.022	3.77
692.051	-22.23
692.081	14.77
692.11	18.77
692.139	-5.23
692.168	0.77
692.198	17.77
692.227	11.77
692.256	4.77
692.285	4.77
692.315	-6.23
692.344	9.77
692.373	10.77
692.402	-7.23
692.432	-9.23
692.461	0.77
692.49	1.77
692.519	-11.23
692.548	5.77
692.578	8.77
692.607	-4.23
692.636	3.77
692.665	15.77
692.694	6.77
692.724	-1.23
692.753	10.77
692.782	5.77
692.811	1.77
692.84	-0.23
692.87	7.77
692.899	-6.23
692.928	0.77
692.957	-1.23
692.986	-1.23
693.016	-0.23
693.045	11.77
693.074	-4.23
693.103	-7.23
693.132	-6.23
693.161	6.77
693.191	-9.23
693.22	-24.23
693.249	-6.23
693.278	2.77
693.307	2.77
693.336	-22.23
693.365	-27.23
693.395	-10.23
693.424	-1.23
693.453	9.77
693.482	-5.23
693.511	4.77
693.54	8.77
693.569	-3.23
693.598	-9.23
693.628	1.77
693.657	0.77
693.686	3.77
693.715	12.77
693.744	8.77
693.773	16.77
693.802	12.77
693.831	-1.23
693.86	13.77
693.889	4.77
693.919	4.77
693.948	-2.23
693.977	-1.23
694.006	2.77
694.035	-10.23
694.064	5.77
694.093	12.77
694.122	-11.23
694.151	-2.23
694.18	5.77
694.209	21.77
694.238	12.77
694.267	30.77
694.296	13.77
694.325	6.77
694.354	16.77
694.383	13.77
694.412	-13.23
694.441	-17.23
694.471	-15.23
694.5	-17.23
694.529	-15.23
694.558	16.77
694.587	7.77
694.616	-5.23
694.645	4.77
694.674	17.77
694.703	3.77
694.732	2.77
694.761	4.77
694.79	7.77
694.819	-5.23
694.848	-7.23
694.877	12.77
694.906	21.77
694.935	4.77
694.963	25.77
694.992	14.77
695.021	5.77
695.05	10.77
695.079	2.77
695.108	-14.23
695.137	15.77
695.166	9.77
695.195	-3.23
695.224	7.77
695.253	3.77
695.282	-4.23
695.311	-6.23
695.34	2.77
695.369	5.77
695.398	3.77
695.427	10.77
695.456	2.77
695.485	3.77
695.513	10.77
695.542	-2.23
695.571	-6.23
695.6	16.77
695.629	-7.23
695.658	10.77
695.687	-0.23
695.716	5.77
695.745	20.77
695.774	-5.23
695.802	-10.23
695.831	3.77
695.86	11.77
695.889	14.77
695.918	5.77
695.947	-1.23
695.976	-13.23
696.005	-4.23
696.033	14.77
696.062	16.77
696.091	0.77
696.12	-1.23
696.149	3.77
696.178	-7.23
696.207	-0.23
696.235	-2.23
696.264	16.77
696.293	12.77
696.322	3.77
696.351	3.77
696.38	-3.23
696.408	-3.23
696.437	-9.23
696.466	8.77
696.495	24.77
696.524	9.77
696.553	6.77
696.581	0.77
696.61	-10.23
696.639	-3.23
696.668	4.77
696.697	-4.23
696.725	3.77
696.754	-5.23
696.783	0.77
696.812	-8.23
696.84	10.77
696.869	8.77
696.898	4.77
696.927	-0.23
696.956	18.77
696.984	1.77
697.013	0.77
697.042	9.77
697.071	-2.23
697.099	-5.23
697.128	-12.23
697.157	-1.23
697.186	7.77
697.214	-11.23
697.243	2.77
697.272	-5.23
697.301	5.77
697.329	3.77
697.358	21.77
697.387	17.77
697.415	-5.23
697.444	-1.23
697.473	-13.23
697.502	-3.23
697.53	-2.23
697.559	17.77
697.588	-1.23
697.616	-2.23
697.645	7.77
697.674	10.77
697.703	3.77
697.731	9.77
697.76	5.77
697.789	-0.23
697.817	1.77
697.846	16.77
697.875	-6.23
697.903	3.77
697.932	5.77
697.961	-2.23
697.989	-10.23
698.018	2.77
698.047	-12.23
698.075	11.77
698.104	3.77
698.133	-2.23
698.161	-5.23
698.19	2.77
698.218	-5.23
698.247	4.77
698.276	-21.23
698.304	6.77
698.333	14.77
698.362	5.77
698.39	2.77
698.419	5.77
698.447	-0.23
698.476	4.77
698.505	13.77
698.533	-11.23
698.562	0.77
698.591	-8.23
698.619	-8.23
698.648	-4.23
698.676	1.77
698.705	-1.23
698.733	-22.23
698.762	16.77
698.791	-6.23
698.819	-1.23
698.848	-11.23
698.876	8.77
698.905	4.77
698.933	14.77
698.962	-3.23
698.991	-6.23
699.019	4.77
699.048	-4.23
699.076	-11.23
699.105	-5.23
699.133	-15.23
699.162	-3.23
699.19	21.77
699.219	15.77
699.248	-2.23
699.276	-1.23
699.305	-2.23
699.333	26.77
699.362	-8.23
699.39	10.77
699.419	-12.23
699.447	-3.23
699.476	19.77
699.504	-0.23
699.533	-1.23
699.561	-7.23
699.59	-7.23
699.618	-13.23
699.647	2.77
699.675	6.77
699.704	6.77
699.732	2.77
699.761	0.77
699.789	-11.23
699.818	-4.23
699.846	-13.23
699.874	0.77
699.903	6.77
699.931	6.77
699.96	-2.23
699.988	-3.23
700.017	4.77
700.045	-3.23
700.074	-9.23
700.102	8.77
700.13	-5.23
700.159	-0.23
700.187	-1.23
700.216	-9.23
700.244	0.77
700.273	2.77
700.301	4.77
700.329	12.77
700.358	10.77
700.386	1.77
700.415	2.77
700.443	5.77
700.472	3.77
700.5	2.77
700.528	-4.23
700.557	-3.23
700.585	-2.23
700.614	-4.23
700.642	-13.23
700.67	16.77
700.699	17.77
700.727	-2.23
700.755	-0.23
700.784	-6.23
700.812	6.77
700.841	21.77
700.869	14.77
700.897	-11.23
700.926	-14.23
700.954	3.77
700.982	9.77
701.011	6.77
701.039	8.77
701.067	-4.23
701.096	2.77
701.124	-6.23
701.152	-1.23
701.181	-5.23
701.209	-23.23
701.237	-6.23
701.266	-5.23
701.294	-0.23
701.322	4.77
701.351	14.77
701.379	-0.23
701.407	-10.23
701.435	0.77
701.464	10.77
701.492	29.77
701.52	-6.23
701.549	-2.23
701.577	-0.23
701.605	11.77
701.634	-12.23
701.662	-5.23
701.69	-11.23
701.718	11.77
701.747	5.77
701.775	3.77
701.803	-5.23
701.831	-6.23
701.86	-19.23
701.888	1.77
701.916	0.77
701.944	-12.23
701.973	-3.23
702.001	-13.23
702.029	-9.23
702.057	-10.23
702.086	-19.23
702.114	-12.23
702.142	-4.23
702.17	-7.23
702.199	-3.23
702.227	-4.23
702.255	-5.23
702.283	0.77
702.311	-2.23
702.34	-14.23
702.368	-6.23
702.396	-11.23
702.424	-3.23
702.452	-3.23
702.481	11.77
702.509	3.77
702.537	-6.23
702.565	8.77
702.593	-15.23
702.621	-16.23
702.65	8.77
702.678	3.77
702.706	4.77
702.734	-4.23
702.762	0.77
702.79	10.77
702.819	1.77
702.847	-5.23
702.875	5.77
702.903	-2.23
702.931	-6.23
702.959	8.77
702.988	-4.23
703.016	0.77
703.044	-2.23
703.072	-1.23
703.1	-10.23
703.128	3.77
703.156	3.77
703.184	7.77
703.212	9.77
703.241	-0.23
703.269	6.77
703.297	-1.23
703.325	-7.23
703.353	-6.23
703.381	-11.23
703.409	4.77
703.437	8.77
703.465	0.77
703.493	4.77
703.522	5.77
703.55	3.77
703.578	4.77
703.606	-2.23
703.634	-2.23
703.662	-10.23
703.69	5.77
703.718	4.77
703.746	16.77
703.774	-2.23
703.802	13.77
703.83	-2.23
703.858	-4.23
703.886	-1.23
703.914	-21.23
703.942	11.77
703.97	-3.23
703.998	-2.23
704.027	31.77
704.055	2.77
704.083	-2.23
704.111	-16.23
704.139	-10.23
704.167	-14.23
704.195	10.77
704.223	-2.23
704.251	4.77
704.279	-11.23
704.307	5.77
704.335	-14.23
704.363	2.77
704.391	7.77
704.419	-3.23
704.447	-3.23
704.475	-7.23
704.503	-12.23
704.531	4.77
704.558	-2.23
704.586	-0.23
704.614	-10.23
704.642	6.77
704.67	-1.23
704.698	14.77
704.726	8.77
704.754	-14.23
704.782	-2.23
704.81	4.77
704.838	8.77
704.866	12.77
704.894	-15.23
704.922	-8.23
704.95	-0.23
704.978	2.77
705.006	2.77
705.034	4.77
705.061	-0.23
705.089	1.77
705.117	-10.23
705.145	-3.23
705.173	-11.23
705.201	10.77
705.229	-1.23
705.257	-10.23
705.285	0.77
705.313	17.77
705.34	-9.23
705.368	-9.23
705.396	-18.23
705.424	5.77
705.452	-14.23
705.48	12.77
705.508	7.77
705.536	-9.23
705.563	-13.23
705.591	7.77
705.619	17.77
705.647	-12.23
705.675	-0.23
705.703	-1.23
705.731	-2.23
705.758	6.77
705.786	8.77
705.814	25.77
705.842	-0.23
705.87	3.77
705.898	5.77
705.925	-7.23
705.953	-7.23
705.981	6.77
706.009	5.77
706.037	19.77
706.065	6.77
706.092	-10.23
706.12	8.77
706.148	0.77
706.176	-6.23
706.204	7.77
706.231	4.77
706.259	-3.23
706.287	-6.23
706.315	-3.23
706.342	-0.23
706.37	22.77
706.398	-12.23
706.426	0.77
706.454	5.77
706.481	2.77
706.509	-2.23
706.537	1.77
706.565	-5.23
706.592	1.77
706.62	-1.23
706.648	-5.23
706.676	-5.23
706.703	4.77
706.731	-5.23
706.759	-13.23
706.787	-0.23
706.814	-9.23
706.842	-14.23
706.87	0.77
706.897	-3.23
706.925	8.77
706.953	20.77
706.981	17.77
707.008	20.77
707.036	-1.23
707.064	6.77
707.091	-7.23
707.119	12.77
707.147	1.77
707.174	-2.23
707.202	14.77
707.23	-8.23
707.258	9.77
707.285	-6.23
707.313	-7.23
707.341	-15.23
707.368	-7.23
707.396	4.77
707.424	15.77
707.451	6.77
707.479	3.77
707.507	-6.23
707.534	-9.23
707.562	-0.23
707.59	-10.23
707.617	-19.23
707.645	-5.23
707.672	-6.23
707.7	8.77
707.728	25.77
707.755	18.77
707.783	-1.23
707.811	0.77
707.838	-9.23
707.866	1.77
707.893	2.77
707.921	9.77
707.949	0.77
707.976	22.77
708.004	11.77
708.031	-17.23
708.059	-10.23
708.087	-4.23
708.114	-22.23
708.142	-16.23
708.169	-18.23
708.197	-3.23
708.225	1.77
708.252	-7.23
708.28	-13.23
708.307	-3.23
708.335	-2.23
708.362	-5.23
708.39	-6.23
708.418	-10.23
708.445	-21.23
708.473	-27.23
708.5	-2.23
708.528	-0.23
708.555	-9.23
708.583	14.77
708.61	0.77
708.638	7.77
708.665	-14.23
708.693	-3.23
708.72	-10.23
708.748	-16.23
708.776	-14.23
708.803	12.77
708.831	3.77
708.858	3.77
708.886	-2.23
708.913	-3.23
708.941	-10.23
708.968	4.77
708.996	-6.23
709.023	18.77
709.051	-3.23
709.078	-8.23
709.105	7.77
709.133	-8.23
709.16	1.77
709.188	17.77
709.215	-8.23
709.243	11.77
709.27	-13.23
709.298	-7.23
709.325	-11.23
709.353	12.77
709.38	2.77
709.408	-3.23
709.435	-2.23
709.462	-2.23
709.49	-2.23
709.517	1.77
709.545	-1.23
709.572	2.77
709.6	-10.23
709.627	2.77
709.655	-14.23
709.682	-3.23
709.709	-5.23
709.737	1.77
709.764	-4.23
709.792	5.77
709.819	-8.23
709.846	2.77
709.874	8.77
709.901	12.77
709.929	9.77
709.956	-0.23
709.983	-5.23
710.011	-15.23
710.038	-14.23
710.066	0.77
710.093	18.77
710.12	-1.23
710.148	-13.23
710.175	-8.23
710.202	-7.23
710.23	8.77
710.257	-1.23
710.284	6.77
710.312	6.77
710.339	8.77
710.366	12.77
710.394	-7.23
710.421	5.77
710.448	-6.23
710.476	-25.23
710.503	5.77
710.53	1.77
710.558	4.77
710.585	17.77
710.612	-2.23
710.64	-7.23
710.667	0.77
710.694	-12.23
710.722	-6.23
710.749	-17.23
710.776	-7.23
710.804	11.77
710.831	1.77
710.858	5.77
710.885	0.77
710.913	-0.23
710.94	17.77
710.967	3.77
710.995	0.77
711.022	-4.23
711.049	3.77
711.076	-3.23
711.104	-18.23
711.131	-20.23
711.158	2.77
711.185	9.77
711.213	-6.23
711.24	-19.23
711.267	-3.23
711.294	4.77
711.322	13.77
711.349	-4.23
711.376	-0.23
711.403	5.77
711.431	-11.23
711.458	-5.23
711.485	1.77
711.512	3.77
711.54	-9.23
711.567	1.77
711.594	-2.23
711.621	-17.23
711.648	-4.23
711.676	6.77
711.703	-8.23
711.73	-11.23
711.757	1.77
711.784	-4.23
711.812	-1.23
711.839	4.77
711.866	-2.23
711.893	-13.23
711.92	14.77
711.947	1.77
711.975	-4.23
712.002	-6.23
712.029	-1.23
712.056	-3.23
712.083	4.77
712.11	-12.23
712.138	2.77
712.165	-7.23
712.192	-1.23
712.219	3.77
712.246	-2.23
712.273	-15.23
712.3	-3.23
712.328	-4.23
712.355	-3.23
712.382	-4.23
712.409	9.77
712.436	-10.23
712.463	4.77
712.49	10.77
712.517	2.77
712.544	1.77
712.572	-0.23
712.599	-2.23
712.626	-2.23
712.653	0.77
712.68	-9.23
712.707	1.77
712.734	-1.23
712.761	-1.23
712.788	9.77
712.815	4.77
712.842	6.77
712.87	-17.23
712.897	-11.23
712.924	-7.23
712.951	14.77
712.978	13.77
713.005	0.77
713.032	9.77
713.059	-13.23
713.086	-15.23
713.113	-21.23
713.14	-32.23
713.167	0.77
713.194	0.77
713.221	-3.23
713.248	9.77
713.275	-1.23
713.302	-11.23
713.329	-5.23
713.356	5.77
713.383	-0.23
713.41	2.77
713.437	-17.23
713.464	-3.23
713.491	14.77
713.518	8.77
713.545	-12.23
713.572	-1.23
713.599	11.77
713.626	-0.23
713.653	5.77
713.68	-6.23
713.707	-1.23
713.734	1.77
713.761	-9.23
713.788	-8.23
713.815	13.77
713.842	-9.23
713.869	-13.23
713.896	1.77
713.923	5.77
713.95	2.77
713.977	-16.23
714.004	-11.23
714.031	-3.23
714.058	8.77
714.085	0.77
714.112	16.77
714.139	-9.23
714.165	-6.23
714.192	-10.23
714.219	7.77
714.246	-0.23
714.273	0.77
714.3	13.77
714.327	4.77
714.354	-4.23
714.381	-18.23
714.408	-1.23
714.435	3.77
714.461	-5.23
714.488	-0.23
714.515	-6.23
714.542	-10.23
714.569	-1.23
714.596	-1.23
714.623	-8.23
714.65	-16.23
714.677	-10.23
714.703	-16.23
714.73	4.77
714.757	-2.23
714.784	4.77
714.811	-10.23
714.838	8.77
714.865	7.77
714.891	10.77
714.918	7.77
714.945	-2.23
714.972	-2.23
714.999	0.77
715.026	-11.23
715.052	12.77
715.079	3.77
715.106	-4.23
715.133	-6.23
715.16	-5.23
715.187	2.77
715.213	-3.23
715.24	-2.23
715.267	-1.23
715.294	1.77
715.321	-3.23
715.347	0.77
715.374	-11.23
715.401	5.77
715.428	-4.23
715.455	3.77
715.481	-15.23
715.508	10.77
715.535	5.77
715.562	0.77
715.588	-6.23
715.615	-2.23
715.642	-2.23
715.669	11.77
715.695	-8.23
715.722	-15.23
715.749	3.77
715.776	9.77
715.802	7.77
715.829	-6.23
715.856	-17.23
715.883	3.77
715.909	-5.23
715.936	-8.23
715.963	-3.23
715.99	-9.23
716.016	-19.23
716.043	-3.23
716.07	-6.23
716.096	-16.23
716.123	-3.23
716.15	-5.23
716.177	7.77
716.203	21.77
716.23	4.77
716.257	4.77
716.283	14.77
716.31	-1.23
716.337	-2.23
716.363	1.77
716.39	-6.23
716.417	-6.23
716.443	-6.23
716.47	2.77
716.497	-4.23
716.523	7.77
716.55	2.77
716.577	8.77
716.603	-10.23
716.63	3.77
716.657	2.77
716.683	-5.23
716.71	-3.23
716.737	-10.23
716.763	5.77
716.79	-1.23
716.817	-10.23
716.843	-10.23
716.87	-0.23
716.897	-6.23
716.923	16.77
716.95	-12.23
716.976	-8.23
717.003	-3.23
717.03	-6.23
717.056	2.77
717.083	-2.23
717.109	-2.23
717.136	2.77
717.163	-10.23
717.189	-9.23
717.216	-11.23
717.242	2.77
717.269	0.77
717.296	1.77
717.322	12.77
717.349	16.77
717.375	6.77
717.402	-7.23
717.428	-2.23
717.455	4.77
717.481	-1.23
717.508	2.77
717.535	-10.23
717.561	-7.23
717.588	-12.23
717.614	-3.23
717.641	4.77
717.667	-6.23
717.694	1.77
717.72	-9.23
717.747	12.77
717.773	-9.23
717.8	-0.23
717.826	-0.23
717.853	9.77
717.88	-20.23
717.906	2.77
717.933	8.77
717.959	-4.23
717.986	12.77
718.012	-3.23
718.039	28.77
718.065	20.77
718.092	15.77
718.118	-3.23
718.144	-2.23
718.171	18.77
718.197	2.77
718.224	-6.23
718.25	4.77
718.277	-9.23
718.303	-9.23
718.33	-5.23
718.356	-13.23
718.383	-5.23
718.409	3.77
718.436	-3.23
718.462	4.77
718.489	-12.23
718.515	5.77
718.541	16.77
718.568	16.77
718.594	5.77
718.621	8.77
718.647	1.77
718.674	16.77
718.7	6.77
718.726	-4.23
718.753	-10.23
718.779	1.77
718.806	-3.23
718.832	-9.23
718.858	-10.23
718.885	-3.23
718.911	-1.23
718.938	1.77
718.964	-28.23
718.99	-0.23
719.017	11.77
719.043	7.77
719.07	4.77
719.096	-14.23
719.122	1.77
719.149	5.77
719.175	-1.23
719.201	-2.23
719.228	-11.23
719.254	-3.23
719.281	-16.23
719.307	-5.23
719.333	4.77
719.36	17.77
719.386	-3.23
719.412	1.77
719.439	-13.23
719.465	-3.23
719.491	-7.23
719.518	-1.23
719.544	-11.23
719.57	9.77
719.597	7.77
719.623	-21.23
719.649	-2.23
719.675	-1.23
719.702	-1.23
719.728	22.77
719.754	-10.23
719.781	-6.23
719.807	-5.23
719.833	0.77
719.86	-3.23
719.886	-6.23
719.912	-1.23
719.938	-10.23
719.965	-9.23
719.991	-6.23
720.017	3.77
720.044	-8.23
720.07	2.77
720.096	20.77
720.122	5.77
720.149	3.77
720.175	23.77
720.201	7.77
720.227	-10.23
720.254	-2.23
720.28	-12.23
720.306	-10.23
720.332	5.77
720.359	-2.23
720.385	-3.23
720.411	-5.23
720.437	-2.23
720.463	-3.23
720.49	11.77
720.516	-2.23
720.542	-17.23
720.568	-8.23
720.595	21.77
720.621	3.77
720.647	2.77
720.673	5.77
720.699	2.77
720.725	11.77
720.752	5.77
720.778	5.77
720.804	-5.23
720.83	8.77
720.856	0.77
720.883	-3.23
720.909	-3.23
720.935	12.77
720.961	11.77
720.987	3.77
721.013	-0.23
721.04	-5.23
721.066	-5.23
721.092	-5.23
721.118	1.77
721.144	-2.23
721.17	-8.23
721.196	0.77
721.223	-7.23
721.249	-3.23
721.275	15.77
721.301	7.77
721.327	11.77
721.353	7.77
721.379	-3.23
721.405	9.77
721.432	6.77
721.458	1.77
721.484	1.77
721.51	-10.23
721.536	-6.23
721.562	-7.23
721.588	-6.23
721.614	-11.23
721.64	-7.23
721.666	-1.23
721.693	-2.23
721.719	-20.23
721.745	-13.23
721.771	-10.23
721.797	0.77
721.823	-3.23
721.849	12.77
721.875	-3.23
721.901	6.77
721.927	-8.23
721.953	0.77
721.979	6.77
722.005	16.77
722.031	-12.23
722.057	-2.23
722.083	1.77
722.109	3.77
722.135	6.77
722.161	4.77
722.187	-0.23
722.214	6.77
722.24	-5.23
722.266	-8.23
722.292	1.77
722.318	10.77
722.344	6.77
722.37	18.77
722.396	2.77
722.422	-3.23
722.448	-5.23
722.474	-16.23
722.5	12.77
722.526	-3.23
722.552	-3.23
722.578	7.77
722.603	14.77
722.629	-3.23
722.655	7.77
722.681	-13.23
722.707	1.77
722.733	7.77
722.759	-7.23
722.785	-1.23
722.811	2.77
722.837	-4.23
722.863	-0.23
722.889	-5.23
722.915	-3.23
722.941	-6.23
722.967	6.77
722.993	10.77
723.019	-2.23
723.045	2.77
723.071	-14.23
723.097	3.77
723.122	7.77
723.148	-10.23
723.174	-6.23
723.2	-0.23
723.226	-20.23
723.252	6.77
723.278	-3.23
723.304	-9.23
723.33	-3.23
723.356	-17.23
723.381	-7.23
723.407	-13.23
723.433	-0.23
723.459	-17.23
723.485	-4.23
723.511	10.77
723.537	-3.23
723.563	-6.23
723.588	-5.23
723.614	-3.23
723.64	-3.23
723.666	-1.23
723.692	13.77
723.718	-7.23
723.744	-6.23
723.769	-3.23
723.795	-3.23
723.821	-5.23
723.847	-12.23
723.873	-5.23
723.899	7.77
723.924	-13.23
723.95	-0.23
723.976	-18.23
724.002	-10.23
724.028	-9.23
724.053	-5.23
724.079	-2.23
724.105	-1.23
724.131	2.77
724.157	3.77
724.182	16.77
724.208	-1.23
724.234	-1.23
724.26	-11.23
724.286	4.77
724.311	-8.23
724.337	-23.23
724.363	-28.23
724.389	-0.23
724.415	9.77
724.44	26.77
724.466	-3.23
724.492	2.77
724.518	-1.23
724.543	1.77
724.569	0.77
724.595	4.77
724.621	-0.23
724.646	-9.23
724.672	-7.23
724.698	6.77
724.723	-0.23
724.749	4.77
724.775	15.77
724.801	13.77
724.826	-4.23
724.852	-5.23
724.878	-15.23
724.904	-33.23
724.929	-9.23
724.955	-5.23
724.981	6.77
725.006	9.77
725.032	-2.23
725.058	-2.23
725.083	-7.23
725.109	-12.23
725.135	2.77
725.161	0.77
725.186	-2.23
725.212	-5.23
725.238	11.77
725.263	-3.23
725.289	-17.23
725.315	-5.23
725.34	-1.23
725.366	2.77
725.392	-15.23
725.417	-22.23
725.443	-7.23
725.468	9.77
725.494	9.77
725.52	6.77
725.545	-0.23
725.571	-2.23
725.597	-5.23
725.622	-2.23
725.648	-10.23
725.674	5.77
725.699	0.77
725.725	-6.23
725.75	16.77
725.776	1.77
725.802	0.77
725.827	-13.23
725.853	0.77
725.878	-3.23
725.904	-8.23
725.93	-3.23
725.955	-1.23
725.981	-2.23
726.006	-5.23
726.032	-3.23
726.057	-9.23
726.083	-6.23
726.109	-5.23
726.134	8.77
726.16	-7.23
726.185	4.77
726.211	-5.23
726.236	11.77
726.262	8.77
726.288	4.77
726.313	15.77
726.339	12.77
726.364	-2.23
726.39	16.77
726.415	0.77
726.441	-7.23
726.466	-0.23
726.492	6.77
726.517	-7.23
726.543	-4.23
726.568	-3.23
726.594	7.77
726.619	-15.23
726.645	5.77
726.67	-1.23
726.696	1.77
726.721	-6.23
726.747	-27.23
726.772	-2.23
726.798	-11.23
726.823	10.77
726.849	-5.23
726.874	-2.23
726.9	18.77
726.925	4.77
726.951	16.77
726.976	12.77
727.002	-2.23
727.027	-14.23
727.053	-2.23
727.078	-14.23
727.104	12.77
727.129	-11.23
727.155	-2.23
727.18	12.77
727.205	14.77
727.231	-2.23
727.256	-9.23
727.282	-0.23
727.307	9.77
727.333	-5.23
727.358	-9.23
727.383	-12.23
727.409	-10.23
727.434	0.77
727.46	0.77
727.485	-9.23
727.511	-7.23
727.536	-22.23
727.561	-0.23
727.587	-2.23
727.612	-0.23
727.637	-9.23
727.663	-17.23
727.688	12.77
727.714	0.77
727.739	-10.23
727.764	-9.23
727.79	7.77
727.815	-3.23
727.841	2.77
727.866	3.77
727.891	-3.23
727.917	-11.23
727.942	-16.23
727.967	-11.23
727.993	-16.23
728.018	-7.23
728.043	1.77
728.069	-4.23
728.094	-0.23
728.119	1.77
728.145	21.77
728.17	3.77
728.195	-3.23
728.221	18.77
728.246	-1.23
728.271	-10.23
728.297	1.77
728.322	-2.23
728.347	-6.23
728.373	2.77
728.398	-7.23
728.423	1.77
728.448	13.77
728.474	4.77
728.499	12.77
728.524	-1.23
728.55	-16.23
728.575	-28.23
728.6	-5.23
728.625	-6.23
728.651	6.77
728.676	11.77
728.701	-0.23
728.727	-6.23
728.752	-3.23
728.777	-16.23
728.802	-1.23
728.828	2.77
728.853	-13.23
728.878	-10.23
728.903	1.77
728.929	0.77
728.954	2.77
728.979	11.77
729.004	-13.23
729.03	-18.23
729.055	-0.23
729.08	-9.23
729.105	-5.23
729.13	10.77
729.156	3.77
729.181	-17.23
729.206	-19.23
729.231	-1.23
729.256	-2.23
729.282	-5.23
729.307	-13.23
729.332	-15.23
729.357	-4.23
729.382	-7.23
729.408	-6.23
729.433	5.77
729.458	-18.23
729.483	10.77
729.508	7.77
729.533	15.77
729.559	-0.23
729.584	-13.23
729.609	-2.23
729.634	-2.23
729.659	-3.23
729.684	-7.23
729.71	14.77
729.735	-5.23
729.76	0.77
729.785	1.77
729.81	-7.23
729.835	-18.23
729.86	-11.23
729.886	8.77
729.911	-2.23
729.936	0.77
729.961	-3.23
729.986	-15.23
730.011	4.77
730.036	0.77
730.061	-0.23
730.086	-10.23
730.112	7.77
730.137	9.77
730.162	1.77
730.187	-4.23
730.212	15.77
730.237	0.77
730.262	1.77
730.287	-9.23
730.312	4.77
730.337	-33.23
730.362	-2.23
730.387	-10.23
730.413	-6.23
730.438	-13.23
730.463	3.77
730.488	4.77
730.513	9.77
730.538	-2.23
730.563	10.77
730.588	3.77
730.613	6.77
730.638	-15.23
730.663	-2.23
730.688	24.77
730.713	9.77
730.738	5.77
730.763	-1.23
730.788	-31.23
730.813	-15.23
730.838	-8.23
730.863	-3.23
730.888	-15.23
730.913	-24.23
730.938	-8.23
730.963	-7.23
730.988	-1.23
731.013	30.77
731.038	-6.23
731.063	-12.23
731.088	-0.23
731.113	-15.23
731.138	-14.23
731.163	-7.23
731.188	-1.23
731.213	-5.23
731.238	8.77
731.263	-15.23
731.288	-2.23
731.313	2.77
731.338	2.77
731.363	11.77
731.388	14.77
731.413	-7.23
731.438	12.77
731.463	10.77
731.487	5.77
731.512	1.77
731.537	-16.23
731.562	-4.23
731.587	1.77
731.612	-3.23
731.637	-10.23
731.662	-6.23
731.687	-7.23
731.712	-22.23
731.737	9.77
731.762	-13.23
731.786	11.77
731.811	-8.23
731.836	-11.23
731.861	6.77
731.886	-1.23
731.911	11.77
731.936	11.77
731.961	2.77
731.986	-15.23
732.01	-0.23
732.035	-7.23
732.06	8.77
732.085	6.77
732.11	-15.23
732.135	-15.23
732.16	-2.23
732.184	-2.23
732.209	0.77
732.234	5.77
732.259	0.77
732.284	7.77
732.309	-2.23
732.334	-5.23
732.358	-7.23
732.383	-16.23
732.408	-7.23
732.433	1.77
732.458	1.77
732.482	7.77
732.507	-11.23
732.532	-13.23
732.557	4.77
732.582	1.77
732.607	-8.23
732.631	-18.23
732.656	-18.23
732.681	8.77
732.706	5.77
732.73	19.77
732.755	-1.23
732.78	0.77
732.805	13.77
732.83	-2.23
732.854	7.77
732.879	2.77
732.904	-18.23
732.929	-8.23
732.953	3.77
732.978	-5.23
733.003	-1.23
733.028	-7.23
733.052	3.77
733.077	-11.23
733.102	6.77
733.127	-6.23
733.151	-3.23
733.176	9.77
733.201	-19.23
733.226	-19.23
733.25	-9.23
733.275	1.77
733.3	-10.23
733.324	5.77
733.349	3.77
733.374	22.77
733.399	-18.23
733.423	3.77
733.448	-6.23
733.473	-10.23
733.497	-18.23
733.522	7.77
733.547	9.77
733.571	17.77
733.596	-4.23
733.621	3.77
733.646	2.77
733.67	5.77
733.695	-13.23
733.72	-2.23
733.744	-2.23
733.769	6.77
733.794	12.77
733.818	8.77
733.843	-11.23
733.867	-15.23
733.892	2.77
733.917	-6.23
733.941	10.77
733.966	-5.23
733.991	-11.23
734.015	-0.23
734.04	5.77
734.065	3.77
734.089	20.77
734.114	10.77
734.138	4.77
734.163	-3.23
734.188	-7.23
734.212	8.77
734.237	3.77
734.261	-7.23
734.286	-11.23
734.311	-5.23
734.335	5.77
734.36	-4.23
734.384	-11.23
734.409	8.77
734.434	-9.23
734.458	2.77
734.483	10.77
734.507	-14.23
734.532	0.77
734.556	-0.23
734.581	-6.23
734.606	-11.23
734.63	-10.23
734.655	-8.23
734.679	9.77
734.704	-25.23
734.728	-15.23
734.753	-7.23
734.777	4.77
734.802	-9.23
734.826	3.77
734.851	-6.23
734.876	16.77
734.9	-1.23
734.925	7.77
734.949	-5.23
734.974	1.77
734.998	-2.23
735.023	-5.23
735.047	-18.23
735.072	4.77
735.096	9.77
735.121	-13.23
735.145	9.77
735.17	-15.23
735.194	8.77
735.219	-9.23
735.243	-21.23
735.268	7.77
735.292	4.77
735.317	4.77
735.341	-6.23
735.365	-10.23
735.39	-1.23
735.414	5.77
735.439	-4.23
735.463	-0.23
735.488	3.77
735.512	14.77
735.537	-6.23
735.561	-5.23
735.586	-15.23
735.61	5.77
735.634	-7.23
735.659	-5.23
735.683	15.77
735.708	-2.23
735.732	-11.23
735.757	-4.23
735.781	9.77
735.805	2.77
735.83	-6.23
735.854	-3.23
735.879	-8.23
735.903	4.77
735.927	10.77
735.952	4.77
735.976	0.77
736.001	-7.23
736.025	6.77
736.049	8.77
736.074	-0.23
736.098	1.77
736.123	2.77
736.147	-10.23
736.171	-15.23
736.196	1.77
736.22	-8.23
736.244	-9.23
736.269	-2.23
736.293	-1.23
736.317	-1.23
736.342	-2.23
736.366	13.77
736.39	3.77
736.415	-1.23
736.439	13.77
736.463	2.77
736.488	10.77
736.512	6.77
736.536	12.77
736.561	13.77
736.585	-1.23
736.609	16.77
736.634	-11.23
736.658	-9.23
736.682	-19.23
736.707	-22.23
736.731	-9.23
736.755	-2.23
736.78	7.77
736.804	7.77
736.828	-3.23
736.852	9.77
736.877	5.77
736.901	0.77
736.925	-3.23
736.949	-5.23
736.974	2.77
736.998	-1.23
737.022	-0.23
737.047	-11.23
737.071	-10.23
737.095	-1.23
737.119	13.77
737.144	12.77
737.168	1.77
737.192	2.77
737.216	9.77
737.241	-11.23
737.265	-6.23
737.289	-6.23
737.313	-19.23
737.337	-2.23
737.362	8.77
737.386	-26.23
737.41	-11.23
737.434	0.77
737.459	-6.23
737.483	-2.23
737.507	-3.23
737.531	10.77
737.555	-8.23
737.58	13.77
737.604	-9.23
737.628	-12.23
737.652	-3.23
737.676	-6.23
737.701	1.77
737.725	4.77
737.749	2.77
737.773	-3.23
737.797	-9.23
737.821	0.77
737.846	13.77
737.87	26.77
737.894	-3.23
737.918	-11.23
737.942	-18.23
737.966	3.77
737.99	4.77
738.015	12.77
738.039	29.77
738.063	-3.23
738.087	17.77
738.111	-6.23
738.135	3.77
738.159	3.77
738.184	9.77
738.208	5.77
738.232	6.77
738.256	18.77
738.28	0.77
738.304	4.77
738.328	1.77
738.352	9.77
738.376	-5.23
738.4	2.77
738.425	1.77
738.449	2.77
738.473	9.77
738.497	-6.23
738.521	-10.23
738.545	12.77
738.569	2.77
738.593	13.77
738.617	3.77
738.641	-7.23
738.665	1.77
738.689	7.77
738.713	3.77
738.737	1.77
738.762	2.77
738.786	3.77
738.81	-10.23
738.834	10.77
738.858	1.77
738.882	1.77
738.906	-15.23
738.93	-14.23
738.954	-3.23
738.978	14.77
739.002	-8.23
739.026	16.77
739.05	5.77
739.074	-12.23
739.098	10.77
739.122	9.77
739.146	-1.23
739.17	-0.23
739.194	11.77
739.218	-4.23
739.242	3.77
739.266	-2.23
739.29	2.77
739.314	-1.23
739.338	7.77
739.362	-8.23
739.386	1.77
739.41	-9.23
739.434	-19.23
739.458	18.77
739.482	4.77
739.506	7.77
739.53	-16.23
739.554	17.77
739.577	6.77
739.601	13.77
739.625	-1.23
739.649	4.77
739.673	0.77
739.697	12.77
739.721	-6.23
739.745	4.77
739.769	-5.23
739.793	14.77
739.817	-0.23
739.841	-0.23
739.865	-3.23
739.889	-22.23
739.912	-1.23
739.936	2.77
739.96	0.77
739.984	10.77
740.008	7.77
740.032	-10.23
740.056	12.77
740.08	2.77
740.104	2.77
740.127	-6.23
740.151	16.77
740.175	10.77
740.199	-4.23
740.223	47.77
740.247	-0.23
740.271	1.77
740.295	-6.23
740.318	-7.23
740.342	-5.23
740.366	2.77
740.39	-2.23
740.414	-2.23
740.438	-4.23
740.461	16.77
740.485	-3.23
740.509	-6.23
740.533	-11.23
740.557	-5.23
740.581	-10.23
740.604	-13.23
740.628	-9.23
740.652	-2.23
740.676	-9.23
740.7	4.77
740.723	-5.23
740.747	-16.23
740.771	-2.23
740.795	0.77
740.819	3.77
740.842	11.77
740.866	4.77
740.89	3.77
740.914	-19.23
740.938	-8.23
740.961	4.77
740.985	5.77
741.009	-9.23
741.033	0.77
741.056	6.77
741.08	-3.23
741.104	-13.23
741.128	-15.23
741.151	-2.23
741.175	-2.23
741.199	-2.23
741.223	2.77
741.246	-7.23
741.27	1.77
741.294	-6.23
741.318	-23.23
741.341	-15.23
741.365	-2.23
741.389	0.77
741.413	16.77
741.436	8.77
741.46	13.77
741.484	10.77
741.507	-2.23
741.531	17.77
741.555	14.77
741.579	20.77
741.602	11.77
741.626	12.77
741.65	-7.23
741.673	-10.23
741.697	11.77
741.721	3.77
741.744	-5.23
741.768	-15.23
741.792	0.77
741.815	-5.23
741.839	7.77
741.863	7.77
741.886	9.77
741.91	7.77
741.934	-0.23
741.957	-18.23
741.981	-0.23
742.005	-0.23
742.028	-21.23
742.052	-8.23
742.075	-2.23
742.099	34.77
742.123	3.77
742.146	-3.23
742.17	-4.23
742.194	-17.23
742.217	-6.23
742.241	-8.23
742.264	-9.23
742.288	-4.23
742.312	4.77
742.335	-1.23
742.359	4.77
742.382	0.77
742.406	2.77
742.43	-2.23
742.453	-11.23
742.477	-13.23
742.5	-1.23
742.524	-14.23
742.548	-18.23
742.571	0.77
742.595	-4.23
742.618	-11.23
742.642	3.77
742.665	11.77
742.689	-3.23
742.712	10.77
742.736	-10.23
742.76	1.77
742.783	-4.23
742.807	1.77
742.83	0.77
742.854	-18.23
742.877	0.77
742.901	-10.23
742.924	-2.23
742.948	-5.23
742.971	17.77
742.995	9.77
743.018	-5.23
743.042	-6.23
743.065	-0.23
743.089	-10.23
743.112	-7.23
743.136	-14.23
743.159	-8.23
743.183	-15.23
743.206	10.77
743.23	-2.23
743.253	2.77
743.277	0.77
743.3	3.77
743.324	-3.23
743.347	-7.23
743.371	10.77
743.394	19.77
743.418	26.77
743.441	2.77
743.465	0.77
743.488	10.77
743.512	-16.23
743.535	5.77
743.558	9.77
743.582	11.77
743.605	10.77
743.629	4.77
743.652	1.77
743.676	-7.23
743.699	13.77
743.723	-7.23
743.746	5.77
743.769	3.77
743.793	8.77
743.816	0.77
743.84	10.77
743.863	8.77
743.886	-3.23
743.91	12.77
743.933	-7.23
743.957	4.77
743.98	-0.23
744.003	-18.23
744.027	-4.23
744.05	-9.23
744.074	-2.23
744.097	-11.23
744.12	2.77
744.144	-14.23
744.167	8.77
744.19	-0.23
744.214	-0.23
744.237	-13.23
744.26	2.77
744.284	-9.23
744.307	-0.23
744.331	0.77
744.354	0.77
744.377	4.77
744.401	-4.23
744.424	-6.23
744.447	-12.23
744.471	-12.23
