Data from HighRes_H2_15_09_11_07_2024_HR4C61891__78__15-11-04-202.txt Node

Date: Thu Nov 07 15:11:04 EST 2024
User: crc00042
Spectrometer: HR4C6189
Trigger mode: 4
Integration Time (sec): 1.000000E-1
Scans to average: 1
Electric dark correction enabled: true
Nonlinearity correction enabled: false
Boxcar width: 0
XAxis mode: Wavelengths
Number of Pixels in Spectrum: 3648
>>>>>Begin Spectral Data<<<<<
639.567	-47.77
639.602	-47.77
639.636	-47.77
639.67	-42.77
639.704	-11.77
639.738	7.23
639.773	5.23
639.807	-10.77
639.841	6.23
639.875	11.23
639.909	-1.77
639.943	-8.77
639.978	-0.77
640.012	-0.77
640.046	-0.77
640.08	-10.77
640.114	7.23
640.148	-2.77
640.182	-11.77
640.217	10.23
640.251	29.23
640.285	-0.77
640.319	-12.77
640.353	5.23
640.387	13.23
640.421	2.23
640.455	-3.77
640.49	6.23
640.524	-5.77
640.558	5.23
640.592	-9.77
640.626	-0.77
640.66	1.23
640.694	-13.77
640.728	10.23
640.762	-1.77
640.796	14.23
640.83	24.23
640.865	4.23
640.899	-5.77
640.933	10.23
640.967	4.23
641.001	17.23
641.035	8.23
641.069	-4.77
641.103	-3.77
641.137	-5.77
641.171	0.23
641.205	16.23
641.239	1.23
641.273	16.23
641.307	12.23
641.341	-8.77
641.375	2.23
641.409	18.23
641.443	-9.77
641.477	1.23
641.511	12.23
641.545	-6.77
641.579	-9.77
641.614	11.23
641.648	5.23
641.682	-4.77
641.716	10.23
641.75	29.23
641.784	3.23
641.818	-0.77
641.852	-6.77
641.886	-0.77
641.919	25.23
641.953	-9.77
641.987	-1.77
642.021	-9.77
642.055	4.23
642.089	4.23
642.123	-8.77
642.157	-18.77
642.191	3.23
642.225	21.23
642.259	-0.77
642.293	15.23
642.327	13.23
642.361	7.23
642.395	15.23
642.429	8.23
642.463	17.23
642.497	27.23
642.531	19.23
642.565	-0.77
642.599	-2.77
642.633	-2.77
642.666	3.23
642.7	18.23
642.734	27.23
642.768	18.23
642.802	-7.77
642.836	9.23
642.87	-7.77
642.904	5.23
642.938	21.23
642.972	-0.77
643.005	21.23
643.039	19.23
643.073	6.23
643.107	6.23
643.141	7.23
643.175	5.23
643.209	-5.77
643.243	6.23
643.276	9.23
643.31	10.23
643.344	-1.77
643.378	8.23
643.412	18.23
643.446	3.23
643.48	-5.77
643.513	6.23
643.547	7.23
643.581	-7.77
643.615	17.23
643.649	7.23
643.683	15.23
643.716	12.23
643.75	5.23
643.784	-12.77
643.818	-4.77
643.852	4.23
643.886	2.23
643.919	9.23
643.953	4.23
643.987	11.23
644.021	23.23
644.055	16.23
644.088	-1.77
644.122	-0.77
644.156	-1.77
644.19	9.23
644.224	4.23
644.257	11.23
644.291	23.23
644.325	22.23
644.359	-0.77
644.392	9.23
644.426	20.23
644.46	6.23
644.494	12.23
644.527	8.23
644.561	4.23
644.595	3.23
644.629	-1.77
644.662	-5.77
644.696	19.23
644.73	13.23
644.764	11.23
644.797	16.23
644.831	-2.77
644.865	25.23
644.899	-0.77
644.932	24.23
644.966	6.23
645	14.23
645.033	21.23
645.067	-10.77
645.101	4.23
645.135	16.23
645.168	-7.77
645.202	-1.77
645.236	4.23
645.269	-1.77
645.303	7.23
645.337	-7.77
645.37	-8.77
645.404	8.23
645.438	15.23
645.471	-8.77
645.505	24.23
645.539	25.23
645.572	-3.77
645.606	-8.77
645.64	6.23
645.673	4.23
645.707	33.23
645.741	-2.77
645.774	-5.77
645.808	6.23
645.842	3.23
645.875	1.23
645.909	13.23
645.943	-13.77
645.976	-7.77
646.01	8.23
646.043	25.23
646.077	11.23
646.111	6.23
646.144	21.23
646.178	7.23
646.212	-18.77
646.245	-1.77
646.279	6.23
646.312	14.23
646.346	19.23
646.38	-13.77
646.413	8.23
646.447	9.23
646.48	3.23
646.514	20.23
646.547	0.23
646.581	-11.77
646.615	2.23
646.648	3.23
646.682	7.23
646.715	14.23
646.749	16.23
646.782	-9.77
646.816	-6.77
646.85	16.23
646.883	6.23
646.917	5.23
646.95	6.23
646.984	9.23
647.017	-5.77
647.051	-2.77
647.084	14.23
647.118	-10.77
647.151	13.23
647.185	23.23
647.218	-11.77
647.252	12.23
647.285	-2.77
647.319	-3.77
647.353	13.23
647.386	19.23
647.42	2.23
647.453	1.23
647.487	0.23
647.52	7.23
647.553	21.23
647.587	-20.77
647.62	9.23
647.654	10.23
647.687	11.23
647.721	16.23
647.754	3.23
647.788	-4.77
647.821	-21.77
647.855	14.23
647.888	22.23
647.922	14.23
647.955	9.23
647.989	8.23
648.022	8.23
648.055	23.23
648.089	21.23
648.122	19.23
648.156	9.23
648.189	13.23
648.223	2.23
648.256	16.23
648.29	0.23
648.323	10.23
648.356	19.23
648.39	2.23
648.423	1.23
648.457	0.23
648.49	16.23
648.523	13.23
648.557	12.23
648.59	-7.77
648.624	2.23
648.657	7.23
648.69	22.23
648.724	16.23
648.757	12.23
648.791	15.23
648.824	10.23
648.857	24.23
648.891	16.23
648.924	-3.77
648.957	22.23
648.991	-3.77
649.024	13.23
649.057	-0.77
649.091	-4.77
649.124	21.23
649.158	20.23
649.191	38.23
649.224	10.23
649.258	0.23
649.291	9.23
649.324	4.23
649.358	2.23
649.391	12.23
649.424	10.23
649.458	-4.77
649.491	-1.77
649.524	-13.77
649.557	7.23
649.591	-5.77
649.624	8.23
649.657	-6.77
649.691	6.23
649.724	7.23
649.757	15.23
649.791	-2.77
649.824	19.23
649.857	15.23
649.89	3.23
649.924	0.23
649.957	-5.77
649.99	-2.77
650.023	12.23
650.057	-7.77
650.09	13.23
650.123	10.23
650.157	19.23
650.19	17.23
650.223	-0.77
650.256	-11.77
650.29	9.23
650.323	-8.77
650.356	20.23
650.389	16.23
650.423	16.23
650.456	18.23
650.489	-1.77
650.522	5.23
650.555	27.23
650.589	8.23
650.622	7.23
650.655	10.23
650.688	11.23
650.721	-4.77
650.755	-6.77
650.788	10.23
650.821	10.23
650.854	-0.77
650.887	10.23
650.921	1.23
650.954	2.23
650.987	6.23
651.02	-8.77
651.053	-8.77
651.087	-19.77
651.12	32.23
651.153	23.23
651.186	12.23
651.219	-13.77
651.252	9.23
651.286	-2.77
651.319	-20.77
651.352	10.23
651.385	8.23
651.418	1.23
651.451	8.23
651.484	12.23
651.518	-6.77
651.551	24.23
651.584	-6.77
651.617	11.23
651.65	4.23
651.683	14.23
651.716	-0.77
651.749	1.23
651.783	-8.77
651.816	0.23
651.849	4.23
651.882	-5.77
651.915	-10.77
651.948	3.23
651.981	7.23
652.014	-8.77
652.047	-11.77
652.08	6.23
652.114	15.23
652.147	-0.77
652.18	4.23
652.213	37.23
652.246	3.23
652.279	3.23
652.312	26.23
652.345	5.23
652.378	1.23
652.411	25.23
652.444	15.23
652.477	1.23
652.51	7.23
652.543	0.23
652.576	5.23
652.609	-10.77
652.642	0.23
652.675	11.23
652.709	9.23
652.742	2.23
652.775	7.23
652.808	13.23
652.841	18.23
652.874	3.23
652.907	1.23
652.94	5.23
652.973	-5.77
653.006	-16.77
653.039	10.23
653.072	5.23
653.105	-12.77
653.138	-7.77
653.171	-2.77
653.204	-7.77
653.237	20.23
653.27	-4.77
653.303	-2.77
653.336	12.23
653.368	-0.77
653.401	-0.77
653.434	2.23
653.467	3.23
653.5	-5.77
653.533	-5.77
653.566	9.23
653.599	8.23
653.632	7.23
653.665	-3.77
653.698	-6.77
653.731	-1.77
653.764	22.23
653.797	1.23
653.83	19.23
653.863	7.23
653.896	11.23
653.929	-10.77
653.961	-1.77
653.994	14.23
654.027	15.23
654.06	12.23
654.093	-3.77
654.126	10.23
654.159	3.23
654.192	3.23
654.225	-0.77
654.258	-5.77
654.29	4.23
654.323	-7.77
654.356	-4.77
654.389	8.23
654.422	-13.77
654.455	0.23
654.488	5.23
654.521	-12.77
654.553	-6.77
654.586	6.23
654.619	10.23
654.652	-10.77
654.685	7.23
654.718	16.23
654.751	23.23
654.783	0.23
654.816	4.23
654.849	9.23
654.882	-1.77
654.915	-23.77
654.948	-8.77
654.98	5.23
655.013	18.23
655.046	-4.77
655.079	7.23
655.112	9.23
655.144	4.23
655.177	27.23
655.21	26.23
655.243	5.23
655.276	-4.77
655.308	4.23
655.341	7.23
655.374	8.23
655.407	-25.77
655.44	10.23
655.472	16.23
655.505	19.23
655.538	4.23
655.571	20.23
655.603	-5.77
655.636	20.23
655.669	19.23
655.702	31.23
655.734	13.23
655.767	13.23
655.8	24.23
655.833	21.23
655.865	35.23
655.898	24.23
655.931	34.23
655.964	52.23
655.996	45.23
656.029	70.23
656.062	62.23
656.095	71.23
656.127	62.23
656.16	95.23
656.193	122.23
656.225	194.23
656.258	284.23
656.291	507.23
656.324	1142.23
656.356	3428.23
656.389	7673.23
656.422	6140.23
656.454	2099.23
656.487	676.23
656.52	274.23
656.552	131.23
656.585	84.23
656.618	67.23
656.65	44.23
656.683	41.23
656.716	25.23
656.748	7.23
656.781	13.23
656.814	2.23
656.846	9.23
656.879	-6.77
656.912	17.23
656.944	7.23
656.977	2.23
657.01	15.23
657.042	3.23
657.075	20.23
657.108	-3.77
657.14	11.23
657.173	25.23
657.205	27.23
657.238	14.23
657.271	11.23
657.303	-8.77
657.336	-3.77
657.369	13.23
657.401	-1.77
657.434	6.23
657.466	-1.77
657.499	12.23
657.532	14.23
657.564	7.23
657.597	1.23
657.629	11.23
657.662	14.23
657.694	5.23
657.727	-6.77
657.76	7.23
657.792	-10.77
657.825	0.23
657.857	22.23
657.89	2.23
657.922	15.23
657.955	-10.77
657.987	0.23
658.02	11.23
658.053	11.23
658.085	-7.77
658.118	6.23
658.15	11.23
658.183	37.23
658.215	11.23
658.248	11.23
658.28	-0.77
658.313	27.23
658.345	26.23
658.378	16.23
658.41	2.23
658.443	15.23
658.475	-3.77
658.508	-7.77
658.54	-0.77
658.573	6.23
658.605	-0.77
658.638	-3.77
658.67	-7.77
658.703	11.23
658.735	-2.77
658.768	15.23
658.8	6.23
658.833	3.23
658.865	13.23
658.898	16.23
658.93	-2.77
658.963	10.23
658.995	-12.77
659.028	-2.77
659.06	-0.77
659.092	-1.77
659.125	4.23
659.157	11.23
659.19	-4.77
659.222	-1.77
659.255	5.23
659.287	6.23
659.32	15.23
659.352	-10.77
659.384	8.23
659.417	-6.77
659.449	10.23
659.482	1.23
659.514	-11.77
659.546	0.23
659.579	1.23
659.611	18.23
659.644	13.23
659.676	5.23
659.708	-9.77
659.741	-10.77
659.773	-0.77
659.806	6.23
659.838	2.23
659.87	-8.77
659.903	-9.77
659.935	12.23
659.967	0.23
660	15.23
660.032	-9.77
660.065	3.23
660.097	-2.77
660.129	5.23
660.162	-2.77
660.194	10.23
660.226	9.23
660.259	9.23
660.291	-0.77
660.323	-1.77
660.356	6.23
660.388	-5.77
660.42	6.23
660.453	10.23
660.485	13.23
660.517	16.23
660.55	19.23
660.582	8.23
660.614	3.23
660.647	6.23
660.679	-12.77
660.711	-7.77
660.743	-11.77
660.776	9.23
660.808	-0.77
660.84	5.23
660.873	15.23
660.905	8.23
660.937	-8.77
660.969	-9.77
661.002	-5.77
661.034	28.23
661.066	6.23
661.099	17.23
661.131	2.23
661.163	8.23
661.195	0.23
661.228	9.23
661.26	-18.77
661.292	8.23
661.324	13.23
661.357	12.23
661.389	16.23
661.421	8.23
661.453	-2.77
661.485	5.23
661.518	5.23
661.55	1.23
661.582	-5.77
661.614	5.23
661.647	13.23
661.679	-7.77
661.711	0.23
661.743	0.23
661.775	8.23
661.808	34.23
661.84	3.23
661.872	20.23
661.904	7.23
661.936	3.23
661.969	-3.77
662.001	-3.77
662.033	-0.77
662.065	-4.77
662.097	12.23
662.129	9.23
662.162	-16.77
662.194	-2.77
662.226	3.23
662.258	2.23
662.29	12.23
662.322	-2.77
662.355	6.23
662.387	23.23
662.419	10.23
662.451	9.23
662.483	7.23
662.515	12.23
662.547	-4.77
662.58	2.23
662.612	-1.77
662.644	-13.77
662.676	2.23
662.708	10.23
662.74	-4.77
662.772	6.23
662.804	-0.77
662.836	12.23
662.869	11.23
662.901	14.23
662.933	14.23
662.965	23.23
662.997	22.23
663.029	-2.77
663.061	-4.77
663.093	6.23
663.125	8.23
663.157	6.23
663.189	8.23
663.221	8.23
663.254	9.23
663.286	3.23
663.318	3.23
663.35	0.23
663.382	11.23
663.414	0.23
663.446	6.23
663.478	-22.77
663.51	18.23
663.542	-6.77
663.574	-3.77
663.606	6.23
663.638	-14.77
663.67	0.23
663.702	-8.77
663.734	2.23
663.766	3.23
663.798	-5.77
663.83	-0.77
663.862	11.23
663.894	1.23
663.926	2.23
663.958	25.23
663.99	-5.77
664.022	-0.77
664.054	14.23
664.086	5.23
664.118	-13.77
664.15	-3.77
664.182	6.23
664.214	10.23
664.246	15.23
664.278	11.23
664.31	20.23
664.342	6.23
664.374	4.23
664.406	1.23
664.438	5.23
664.47	33.23
664.502	11.23
664.534	-4.77
664.566	1.23
664.598	10.23
664.63	7.23
664.662	0.23
664.693	11.23
664.725	4.23
664.757	-13.77
664.789	-22.77
664.821	28.23
664.853	12.23
664.885	-1.77
664.917	7.23
664.949	23.23
664.981	20.23
665.013	9.23
665.045	-3.77
665.076	5.23
665.108	6.23
665.14	-3.77
665.172	9.23
665.204	-1.77
665.236	6.23
665.268	7.23
665.3	-1.77
665.331	11.23
665.363	14.23
665.395	-4.77
665.427	-12.77
665.459	5.23
665.491	3.23
665.523	-4.77
665.555	5.23
665.586	0.23
665.618	1.23
665.65	-8.77
665.682	6.23
665.714	6.23
665.746	14.23
665.777	11.23
665.809	5.23
665.841	6.23
665.873	-4.77
665.905	3.23
665.937	11.23
665.968	1.23
666	-6.77
666.032	-7.77
666.064	1.23
666.096	-1.77
666.127	3.23
666.159	21.23
666.191	28.23
666.223	29.23
666.255	9.23
666.286	-3.77
666.318	5.23
666.35	3.23
666.382	5.23
666.413	-12.77
666.445	-14.77
666.477	-8.77
666.509	-4.77
666.54	21.23
666.572	8.23
666.604	-1.77
666.636	15.23
666.667	13.23
666.699	14.23
666.731	-0.77
666.763	-6.77
666.794	-9.77
666.826	-5.77
666.858	-11.77
666.89	19.23
666.921	4.23
666.953	-6.77
666.985	28.23
667.017	31.23
667.048	19.23
667.08	21.23
667.112	4.23
667.143	-5.77
667.175	12.23
667.207	7.23
667.238	10.23
667.27	15.23
667.302	6.23
667.334	-2.77
667.365	22.23
667.397	-6.77
667.429	2.23
667.46	11.23
667.492	12.23
667.524	8.23
667.555	15.23
667.587	-2.77
667.619	3.23
667.65	4.23
667.682	6.23
667.714	2.23
667.745	1.23
667.777	-2.77
667.808	14.23
667.84	11.23
667.872	16.23
667.903	18.23
667.935	-11.77
667.967	-11.77
667.998	5.23
668.03	-1.77
668.061	3.23
668.093	10.23
668.125	6.23
668.156	11.23
668.188	-1.77
668.22	-7.77
668.251	-1.77
668.283	7.23
668.314	2.23
668.346	-1.77
668.377	3.23
668.409	-9.77
668.441	-0.77
668.472	-5.77
668.504	6.23
668.535	17.23
668.567	0.23
668.599	17.23
668.63	13.23
668.662	22.23
668.693	18.23
668.725	0.23
668.756	19.23
668.788	-7.77
668.819	3.23
668.851	11.23
668.882	18.23
668.914	5.23
668.946	-6.77
668.977	-3.77
669.009	-10.77
669.04	-10.77
669.072	13.23
669.103	1.23
669.135	7.23
669.166	-0.77
669.198	17.23
669.229	-1.77
669.261	5.23
669.292	3.23
669.324	-2.77
669.355	1.23
669.387	-8.77
669.418	7.23
669.45	-7.77
669.481	0.23
669.513	3.23
669.544	-0.77
669.576	8.23
669.607	12.23
669.639	20.23
669.67	-4.77
669.701	3.23
669.733	4.23
669.764	-3.77
669.796	1.23
669.827	-5.77
669.859	7.23
669.89	10.23
669.922	7.23
669.953	24.23
669.985	10.23
670.016	-4.77
670.047	-12.77
670.079	7.23
670.11	28.23
670.142	-4.77
670.173	4.23
670.204	-5.77
670.236	-8.77
670.267	-0.77
670.299	-10.77
670.33	-5.77
670.362	-12.77
670.393	-7.77
670.424	6.23
670.456	-18.77
670.487	4.23
670.518	-5.77
670.55	4.23
670.581	6.23
670.613	26.23
670.644	9.23
670.675	-10.77
670.707	-7.77
670.738	1.23
670.769	-5.77
670.801	-8.77
670.832	4.23
670.864	-16.77
670.895	4.23
670.926	4.23
670.958	-1.77
670.989	-3.77
671.02	-2.77
671.052	0.23
671.083	-1.77
671.114	8.23
671.146	14.23
671.177	13.23
671.208	-3.77
671.24	1.23
671.271	4.23
671.302	6.23
671.333	-9.77
671.365	-0.77
671.396	3.23
671.427	3.23
671.459	9.23
671.49	6.23
671.521	-5.77
671.553	-12.77
671.584	6.23
671.615	-2.77
671.646	4.23
671.678	-1.77
671.709	6.23
671.74	-6.77
671.771	-5.77
671.803	-0.77
671.834	-2.77
671.865	-7.77
671.896	-1.77
671.928	2.23
671.959	9.23
671.99	-17.77
672.021	-8.77
672.053	-11.77
672.084	8.23
672.115	-2.77
672.146	-5.77
672.178	-15.77
672.209	-10.77
672.24	-10.77
672.271	33.23
672.303	12.23
672.334	-3.77
672.365	0.23
672.396	11.23
672.427	6.23
672.459	13.23
672.49	31.23
672.521	11.23
672.552	19.23
672.583	6.23
672.615	8.23
672.646	-4.77
672.677	3.23
672.708	4.23
672.739	6.23
672.77	7.23
672.802	17.23
672.833	-4.77
672.864	0.23
672.895	-17.77
672.926	-2.77
672.957	3.23
672.989	14.23
673.02	24.23
673.051	6.23
673.082	9.23
673.113	4.23
673.144	15.23
673.175	2.23
673.206	2.23
673.238	3.23
673.269	5.23
673.3	-16.77
673.331	15.23
673.362	-0.77
673.393	4.23
673.424	16.23
673.455	6.23
673.487	10.23
673.518	9.23
673.549	15.23
673.58	-10.77
673.611	16.23
673.642	9.23
673.673	1.23
673.704	8.23
673.735	6.23
673.766	-4.77
673.797	-23.77
673.828	-2.77
673.86	-11.77
673.891	-12.77
673.922	-11.77
673.953	-8.77
673.984	-1.77
674.015	5.23
674.046	-12.77
674.077	0.23
674.108	-0.77
674.139	1.23
674.17	23.23
674.201	10.23
674.232	17.23
674.263	0.23
674.294	-1.77
674.325	5.23
674.356	19.23
674.387	16.23
674.418	6.23
674.449	-1.77
674.48	-4.77
674.511	-0.77
674.542	0.23
674.573	-3.77
674.604	22.23
674.635	1.23
674.666	11.23
674.697	0.23
674.728	-0.77
674.759	4.23
674.79	-7.77
674.821	-0.77
674.852	8.23
674.883	-2.77
674.914	8.23
674.945	6.23
674.976	10.23
675.007	8.23
675.038	-1.77
675.069	1.23
675.1	-8.77
675.131	7.23
675.162	1.23
675.193	3.23
675.224	1.23
675.254	1.23
675.285	5.23
675.316	10.23
675.347	11.23
675.378	-2.77
675.409	-4.77
675.44	6.23
675.471	9.23
675.502	5.23
675.533	-0.77
675.564	5.23
675.595	3.23
675.625	11.23
675.656	14.23
675.687	11.23
675.718	4.23
675.749	-9.77
675.78	0.23
675.811	-2.77
675.842	-4.77
675.873	4.23
675.903	3.23
675.934	3.23
675.965	7.23
675.996	5.23
676.027	1.23
676.058	0.23
676.089	6.23
676.119	2.23
676.15	-7.77
676.181	-12.77
676.212	6.23
676.243	17.23
676.274	8.23
676.304	10.23
676.335	-2.77
676.366	-10.77
676.397	7.23
676.428	-0.77
676.459	11.23
676.489	9.23
676.52	9.23
676.551	3.23
676.582	-5.77
676.613	-8.77
676.643	-14.77
676.674	8.23
676.705	15.23
676.736	13.23
676.767	9.23
676.797	23.23
676.828	2.23
676.859	-16.77
676.89	-0.77
676.92	-12.77
676.951	-0.77
676.982	5.23
677.013	2.23
677.044	13.23
677.074	2.23
677.105	0.23
677.136	7.23
677.167	-8.77
677.197	3.23
677.228	-8.77
677.259	-9.77
677.289	-1.77
677.32	15.23
677.351	3.23
677.382	-2.77
677.412	-0.77
677.443	9.23
677.474	-6.77
677.505	-3.77
677.535	5.23
677.566	4.23
677.597	-12.77
677.627	-0.77
677.658	7.23
677.689	3.23
677.72	-5.77
677.75	2.23
677.781	12.23
677.812	12.23
677.842	0.23
677.873	1.23
677.904	4.23
677.934	-1.77
677.965	-0.77
677.996	-5.77
678.026	-6.77
678.057	22.23
678.088	-8.77
678.118	5.23
678.149	-10.77
678.18	9.23
678.21	-6.77
678.241	5.23
678.272	-10.77
678.302	-5.77
678.333	1.23
678.363	-13.77
678.394	12.23
678.425	-7.77
678.455	8.23
678.486	14.23
678.517	-5.77
678.547	-16.77
678.578	2.23
678.608	-22.77
678.639	9.23
678.67	-0.77
678.7	-1.77
678.731	1.23
678.761	2.23
678.792	-3.77
678.823	6.23
678.853	5.23
678.884	-2.77
678.914	19.23
678.945	7.23
678.975	-3.77
679.006	17.23
679.037	6.23
679.067	20.23
679.098	4.23
679.128	4.23
679.159	4.23
679.189	13.23
679.22	-6.77
679.25	-8.77
679.281	16.23
679.312	-4.77
679.342	7.23
679.373	26.23
679.403	-1.77
679.434	4.23
679.464	-11.77
679.495	3.23
679.525	9.23
679.556	10.23
679.586	15.23
679.617	24.23
679.647	4.23
679.678	-9.77
679.708	11.23
679.739	10.23
679.769	5.23
679.8	1.23
679.83	7.23
679.861	6.23
679.891	-0.77
679.922	-22.77
679.952	-10.77
679.983	5.23
680.013	11.23
680.044	-8.77
680.074	8.23
680.105	5.23
680.135	12.23
680.165	3.23
680.196	10.23
680.226	15.23
680.257	-0.77
680.287	0.23
680.318	0.23
680.348	-5.77
680.379	18.23
680.409	20.23
680.439	2.23
680.47	5.23
680.5	4.23
680.531	-3.77
680.561	-1.77
680.592	-1.77
680.622	25.23
680.652	1.23
680.683	5.23
680.713	1.23
680.744	-21.77
680.774	-18.77
680.804	10.23
680.835	1.23
680.865	-26.77
680.896	15.23
680.926	14.23
680.956	10.23
680.987	5.23
681.017	-6.77
681.047	-2.77
681.078	-5.77
681.108	5.23
681.139	20.23
681.169	4.23
681.199	4.23
681.23	12.23
681.26	12.23
681.29	27.23
681.321	-6.77
681.351	-24.77
681.381	-17.77
681.412	12.23
681.442	14.23
681.472	34.23
681.503	20.23
681.533	8.23
681.563	-7.77
681.594	8.23
681.624	19.23
681.654	7.23
681.685	11.23
681.715	6.23
681.745	-8.77
681.775	-21.77
681.806	3.23
681.836	-5.77
681.866	2.23
681.897	6.23
681.927	-13.77
681.957	-5.77
681.987	22.23
682.018	-0.77
682.048	-3.77
682.078	14.23
682.109	28.23
682.139	15.23
682.169	8.23
682.199	8.23
682.23	-11.77
682.26	-8.77
682.29	-0.77
682.32	-3.77
682.351	-1.77
682.381	9.23
682.411	8.23
682.441	4.23
682.472	-9.77
682.502	5.23
682.532	9.23
682.562	0.23
682.592	10.23
682.623	-8.77
682.653	2.23
682.683	-5.77
682.713	15.23
682.743	-3.77
682.774	-4.77
682.804	7.23
682.834	-0.77
682.864	-0.77
682.894	-4.77
682.925	-2.77
682.955	-3.77
682.985	-17.77
683.015	9.23
683.045	7.23
683.076	-21.77
683.106	-4.77
683.136	-5.77
683.166	-9.77
683.196	2.23
683.226	0.23
683.257	0.23
683.287	5.23
683.317	-5.77
683.347	13.23
683.377	9.23
683.407	9.23
683.437	3.23
683.468	10.23
683.498	-7.77
683.528	0.23
683.558	0.23
683.588	5.23
683.618	5.23
683.648	2.23
683.678	-1.77
683.708	10.23
683.739	1.23
683.769	7.23
683.799	0.23
683.829	-0.77
683.859	10.23
683.889	30.23
683.919	-2.77
683.949	-4.77
683.979	-9.77
684.009	-1.77
684.039	7.23
684.07	-4.77
684.1	23.23
684.13	10.23
684.16	5.23
684.19	1.23
684.22	10.23
684.25	7.23
684.28	-1.77
684.31	1.23
684.34	13.23
684.37	22.23
684.4	-5.77
684.43	12.23
684.46	13.23
684.49	9.23
684.52	-12.77
684.55	21.23
684.58	12.23
684.61	15.23
684.64	21.23
684.67	27.23
684.7	4.23
684.73	9.23
684.76	5.23
684.79	8.23
684.82	9.23
684.85	-11.77
684.88	7.23
684.91	9.23
684.94	5.23
684.97	-12.77
685	7.23
685.03	0.23
685.06	-7.77
685.09	0.23
685.12	9.23
685.15	-19.77
685.18	10.23
685.21	-11.77
685.24	-2.77
685.27	7.23
685.3	8.23
685.33	4.23
685.36	-16.77
685.39	-3.77
685.42	2.23
685.45	3.23
685.48	-7.77
685.51	-11.77
685.54	15.23
685.569	9.23
685.599	3.23
685.629	5.23
685.659	7.23
685.689	3.23
685.719	1.23
685.749	0.23
685.779	10.23
685.809	3.23
685.839	11.23
685.869	-1.77
685.898	9.23
685.928	-12.77
685.958	-5.77
685.988	10.23
686.018	13.23
686.048	6.23
686.078	7.23
686.108	4.23
686.137	21.23
686.167	22.23
686.197	2.23
686.227	-7.77
686.257	33.23
686.287	19.23
686.317	-6.77
686.346	-5.77
686.376	-2.77
686.406	-6.77
686.436	11.23
686.466	13.23
686.496	10.23
686.525	-2.77
686.555	-2.77
686.585	10.23
686.615	21.23
686.645	5.23
686.675	0.23
686.704	3.23
686.734	13.23
686.764	2.23
686.794	5.23
686.824	2.23
686.853	12.23
686.883	4.23
686.913	25.23
686.943	4.23
686.973	-0.77
687.002	4.23
687.032	9.23
687.062	-6.77
687.092	29.23
687.121	0.23
687.151	2.23
687.181	3.23
687.211	22.23
687.24	4.23
687.27	-12.77
687.3	-7.77
687.33	-6.77
687.359	-14.77
687.389	6.23
687.419	2.23
687.449	-1.77
687.478	6.23
687.508	8.23
687.538	7.23
687.568	14.23
687.597	2.23
687.627	7.23
687.657	8.23
687.686	11.23
687.716	21.23
687.746	-5.77
687.776	-0.77
687.805	4.23
687.835	-4.77
687.865	3.23
687.894	13.23
687.924	-5.77
687.954	3.23
687.983	13.23
688.013	6.23
688.043	8.23
688.072	12.23
688.102	-6.77
688.132	8.23
688.161	3.23
688.191	13.23
688.221	29.23
688.25	-2.77
688.28	12.23
688.31	0.23
688.339	2.23
688.369	-24.77
688.399	2.23
688.428	-11.77
688.458	-4.77
688.488	-10.77
688.517	8.23
688.547	5.23
688.576	22.23
688.606	11.23
688.636	-0.77
688.665	-8.77
688.695	3.23
688.725	11.23
688.754	2.23
688.784	-2.77
688.813	26.23
688.843	-2.77
688.873	-11.77
688.902	-10.77
688.932	-3.77
688.961	-8.77
688.991	-0.77
689.02	13.23
689.05	2.23
689.08	18.23
689.109	22.23
689.139	12.23
689.168	13.23
689.198	6.23
689.227	8.23
689.257	20.23
689.287	18.23
689.316	-5.77
689.346	-0.77
689.375	-0.77
689.405	10.23
689.434	11.23
689.464	7.23
689.493	2.23
689.523	-5.77
689.552	11.23
689.582	4.23
689.611	0.23
689.641	5.23
689.67	10.23
689.7	2.23
689.73	12.23
689.759	14.23
689.789	35.23
689.818	8.23
689.848	-7.77
689.877	22.23
689.906	1.23
689.936	-3.77
689.965	11.23
689.995	14.23
690.024	14.23
690.054	10.23
690.083	15.23
690.113	2.23
690.142	13.23
690.172	9.23
690.201	-6.77
690.231	-2.77
690.26	3.23
690.29	-2.77
690.319	0.23
690.348	-7.77
690.378	-0.77
690.407	19.23
690.437	7.23
690.466	8.23
690.496	4.23
690.525	11.23
690.555	8.23
690.584	1.23
690.613	-5.77
690.643	5.23
690.672	17.23
690.702	18.23
690.731	5.23
690.76	3.23
690.79	-0.77
690.819	-2.77
690.849	14.23
690.878	-13.77
690.907	6.23
690.937	20.23
690.966	12.23
690.996	3.23
691.025	4.23
691.054	7.23
691.084	19.23
691.113	13.23
691.142	-0.77
691.172	2.23
691.201	10.23
691.23	11.23
691.26	19.23
691.289	14.23
691.319	6.23
691.348	13.23
691.377	25.23
691.407	18.23
691.436	8.23
691.465	-2.77
691.495	4.23
691.524	-12.77
691.553	0.23
691.583	-2.77
691.612	14.23
691.641	2.23
691.67	8.23
691.7	3.23
691.729	-11.77
691.758	-7.77
691.788	7.23
691.817	-3.77
691.846	-10.77
691.876	-1.77
691.905	11.23
691.934	2.23
691.963	14.23
691.993	6.23
692.022	-13.77
692.051	-9.77
692.081	5.23
692.11	15.23
692.139	14.23
692.168	15.23
692.198	18.23
692.227	15.23
692.256	6.23
692.285	-7.77
692.315	16.23
692.344	3.23
692.373	5.23
692.402	-28.77
692.432	-10.77
692.461	-1.77
692.49	19.23
692.519	2.23
692.548	14.23
692.578	14.23
692.607	-1.77
692.636	3.23
692.665	8.23
692.694	3.23
692.724	1.23
692.753	2.23
692.782	4.23
692.811	4.23
692.84	-0.77
692.87	11.23
692.899	-3.77
692.928	-8.77
692.957	12.23
692.986	8.23
693.016	16.23
693.045	7.23
693.074	0.23
693.103	12.23
693.132	2.23
693.161	15.23
693.191	-2.77
693.22	0.23
693.249	-4.77
693.278	5.23
693.307	24.23
693.336	-10.77
693.365	-24.77
693.395	-10.77
693.424	-9.77
693.453	15.23
693.482	5.23
693.511	12.23
693.54	7.23
693.569	-3.77
693.598	-0.77
693.628	5.23
693.657	19.23
693.686	12.23
693.715	6.23
693.744	14.23
693.773	15.23
693.802	0.23
693.831	-7.77
693.86	20.23
693.889	9.23
693.919	6.23
693.948	5.23
693.977	12.23
694.006	-1.77
694.035	-0.77
694.064	1.23
694.093	1.23
694.122	3.23
694.151	7.23
694.18	2.23
694.209	39.23
694.238	12.23
694.267	25.23
694.296	6.23
694.325	7.23
694.354	35.23
694.383	2.23
694.412	-8.77
694.441	-9.77
694.471	-15.77
694.5	-9.77
694.529	8.23
694.558	13.23
694.587	2.23
694.616	-1.77
694.645	5.23
694.674	24.23
694.703	21.23
694.732	-7.77
694.761	1.23
694.79	22.23
694.819	-1.77
694.848	8.23
694.877	19.23
694.906	31.23
694.935	15.23
694.963	25.23
694.992	10.23
695.021	15.23
695.05	25.23
695.079	-2.77
695.108	-1.77
695.137	9.23
695.166	2.23
695.195	1.23
695.224	12.23
695.253	12.23
695.282	5.23
695.311	20.23
695.34	4.23
695.369	9.23
695.398	10.23
695.427	6.23
695.456	-7.77
695.485	3.23
695.513	10.23
695.542	-8.77
695.571	-0.77
695.6	26.23
695.629	7.23
695.658	13.23
695.687	4.23
695.716	8.23
695.745	20.23
695.774	7.23
695.802	-1.77
695.831	10.23
695.86	25.23
695.889	15.23
695.918	-0.77
695.947	-10.77
695.976	9.23
696.005	19.23
696.033	23.23
696.062	-1.77
696.091	9.23
696.12	16.23
696.149	14.23
696.178	8.23
696.207	1.23
696.235	-21.77
696.264	1.23
696.293	7.23
696.322	20.23
696.351	8.23
696.38	3.23
696.408	12.23
696.437	0.23
696.466	15.23
696.495	17.23
696.524	0.23
696.553	11.23
696.581	13.23
696.61	3.23
696.639	9.23
696.668	2.23
696.697	-10.77
696.725	19.23
696.754	13.23
696.783	1.23
696.812	3.23
696.84	16.23
696.869	10.23
696.898	1.23
696.927	19.23
696.956	17.23
696.984	-9.77
697.013	5.23
697.042	1.23
697.071	-4.77
697.099	5.23
697.128	-0.77
697.157	0.23
697.186	1.23
697.214	14.23
697.243	-4.77
697.272	-9.77
697.301	13.23
697.329	-1.77
697.358	10.23
697.387	22.23
697.415	4.23
697.444	11.23
697.473	15.23
697.502	7.23
697.53	26.23
697.559	4.23
697.588	2.23
697.616	-13.77
697.645	-1.77
697.674	8.23
697.703	-0.77
697.731	14.23
697.76	8.23
697.789	9.23
697.817	12.23
697.846	17.23
697.875	-4.77
697.903	18.23
697.932	18.23
697.961	14.23
697.989	15.23
698.018	11.23
698.047	11.23
698.075	13.23
698.104	15.23
698.133	9.23
698.161	4.23
698.19	1.23
698.218	-6.77
698.247	6.23
698.276	3.23
698.304	14.23
698.333	8.23
698.362	9.23
698.39	9.23
698.419	5.23
698.447	2.23
698.476	1.23
698.505	0.23
698.533	11.23
698.562	14.23
698.591	9.23
698.619	9.23
698.648	7.23
698.676	12.23
698.705	-4.77
698.733	-10.77
698.762	5.23
698.791	11.23
698.819	17.23
698.848	-1.77
698.876	8.23
698.905	2.23
698.933	27.23
698.962	5.23
698.991	3.23
699.019	11.23
699.048	3.23
699.076	9.23
699.105	-1.77
699.133	6.23
699.162	14.23
699.19	15.23
699.219	16.23
699.248	14.23
699.276	3.23
699.305	-1.77
699.333	22.23
699.362	10.23
699.39	14.23
699.419	-0.77
699.447	17.23
699.476	6.23
699.504	2.23
699.533	12.23
699.561	-5.77
699.59	2.23
699.618	3.23
699.647	6.23
699.675	4.23
699.704	22.23
699.732	0.23
699.761	7.23
699.789	3.23
699.818	15.23
699.846	-3.77
699.874	7.23
699.903	-3.77
699.931	3.23
699.96	11.23
699.988	-6.77
700.017	-9.77
700.045	11.23
700.074	3.23
700.102	-5.77
700.13	1.23
700.159	10.23
700.187	-3.77
700.216	7.23
700.244	-4.77
700.273	3.23
700.301	17.23
700.329	26.23
700.358	15.23
700.386	7.23
700.415	11.23
700.443	-1.77
700.472	0.23
700.5	-0.77
700.528	12.23
700.557	9.23
700.585	1.23
700.614	14.23
700.642	25.23
700.67	23.23
700.699	4.23
700.727	5.23
700.755	-2.77
700.784	17.23
700.812	0.23
700.841	23.23
700.869	14.23
700.897	-3.77
700.926	4.23
700.954	13.23
700.982	-1.77
701.011	-2.77
701.039	9.23
701.067	-0.77
701.096	-0.77
701.124	5.23
701.152	9.23
701.181	4.23
701.209	-16.77
701.237	-0.77
701.266	0.23
701.294	7.23
701.322	6.23
701.351	14.23
701.379	12.23
701.407	-6.77
701.435	16.23
701.464	16.23
701.492	14.23
701.52	-2.77
701.549	-6.77
701.577	-21.77
701.605	-1.77
701.634	3.23
701.662	26.23
701.69	6.23
701.718	5.23
701.747	1.23
701.775	10.23
701.803	-14.77
701.831	2.23
701.86	2.23
701.888	-0.77
701.916	10.23
701.944	4.23
701.973	-6.77
702.001	-8.77
702.029	-9.77
702.057	-13.77
702.086	-13.77
702.114	-5.77
702.142	5.23
702.17	1.23
702.199	-4.77
702.227	-11.77
702.255	3.23
702.283	-8.77
702.311	10.23
702.34	5.23
702.368	-10.77
702.396	-5.77
702.424	1.23
702.452	-14.77
702.481	18.23
702.509	-7.77
702.537	10.23
702.565	7.23
702.593	-9.77
702.621	3.23
702.65	11.23
702.678	3.23
702.706	13.23
702.734	2.23
702.762	19.23
702.79	2.23
702.819	8.23
702.847	-2.77
702.875	10.23
702.903	15.23
702.931	-11.77
702.959	15.23
702.988	14.23
703.016	-10.77
703.044	-11.77
703.072	-2.77
703.1	-5.77
703.128	1.23
703.156	0.23
703.184	3.23
703.212	1.23
703.241	0.23
703.269	-2.77
703.297	9.23
703.325	9.23
703.353	5.23
703.381	-5.77
703.409	2.23
703.437	-8.77
703.465	9.23
703.493	-18.77
703.522	8.23
703.55	9.23
703.578	0.23
703.606	-13.77
703.634	3.23
703.662	10.23
703.69	2.23
703.718	1.23
703.746	20.23
703.774	-0.77
703.802	14.23
703.83	-10.77
703.858	-5.77
703.886	-1.77
703.914	-6.77
703.942	8.23
703.97	-1.77
703.998	-13.77
704.027	9.23
704.055	-0.77
704.083	4.23
704.111	-19.77
704.139	-1.77
704.167	-3.77
704.195	2.23
704.223	-8.77
704.251	-16.77
704.279	14.23
704.307	1.23
704.335	-27.77
704.363	5.23
704.391	-8.77
704.419	-7.77
704.447	-3.77
704.475	5.23
704.503	-19.77
704.531	14.23
704.558	10.23
704.586	3.23
704.614	0.23
704.642	10.23
704.67	-7.77
704.698	-3.77
704.726	9.23
704.754	-11.77
704.782	-8.77
704.81	-0.77
704.838	23.23
704.866	-7.77
704.894	-0.77
704.922	-0.77
704.95	7.23
704.978	9.23
705.006	-5.77
705.034	18.23
705.061	1.23
705.089	11.23
705.117	2.23
705.145	4.23
705.173	5.23
705.201	-2.77
705.229	0.23
705.257	16.23
705.285	10.23
705.313	7.23
705.34	-3.77
705.368	3.23
705.396	-0.77
705.424	11.23
705.452	5.23
705.48	-8.77
705.508	-3.77
705.536	5.23
705.563	-6.77
705.591	10.23
705.619	18.23
705.647	-4.77
705.675	4.23
705.703	10.23
705.731	11.23
705.758	5.23
705.786	8.23
705.814	27.23
705.842	22.23
705.87	18.23
705.898	12.23
705.925	7.23
705.953	3.23
705.981	2.23
706.009	-6.77
706.037	11.23
706.065	4.23
706.092	-12.77
706.12	4.23
706.148	2.23
706.176	-0.77
706.204	9.23
706.231	14.23
706.259	9.23
706.287	6.23
706.315	-2.77
706.342	-3.77
706.37	17.23
706.398	7.23
706.426	-2.77
706.454	-2.77
706.481	12.23
706.509	-3.77
706.537	8.23
706.565	5.23
706.592	0.23
706.62	3.23
706.648	3.23
706.676	-8.77
706.703	15.23
706.731	-7.77
706.759	-7.77
706.787	-0.77
706.814	1.23
706.842	14.23
706.87	-5.77
706.897	-5.77
706.925	-13.77
706.953	25.23
706.981	12.23
707.008	-0.77
707.036	3.23
707.064	-14.77
707.091	-14.77
707.119	19.23
707.147	-1.77
707.174	-0.77
707.202	10.23
707.23	3.23
707.258	-4.77
707.285	-2.77
707.313	-1.77
707.341	-17.77
707.368	-10.77
707.396	0.23
707.424	11.23
707.451	11.23
707.479	7.23
707.507	3.23
707.534	1.23
707.562	11.23
707.59	7.23
707.617	-8.77
707.645	0.23
707.672	7.23
707.7	-5.77
707.728	3.23
707.755	3.23
707.783	-3.77
707.811	-2.77
707.838	-12.77
707.866	2.23
707.893	3.23
707.921	-20.77
707.949	2.23
707.976	17.23
708.004	12.23
708.031	6.23
708.059	-4.77
708.087	0.23
708.114	-10.77
708.142	-15.77
708.169	-13.77
708.197	-4.77
708.225	5.23
708.252	-5.77
708.28	-0.77
708.307	-4.77
708.335	2.23
708.362	2.23
708.39	-13.77
708.418	-11.77
708.445	-3.77
708.473	-7.77
708.5	-4.77
708.528	17.23
708.555	-4.77
708.583	22.23
708.61	12.23
708.638	23.23
708.665	-17.77
708.693	-4.77
708.72	-18.77
708.748	-22.77
708.776	11.23
708.803	14.23
708.831	12.23
708.858	3.23
708.886	-5.77
708.913	-4.77
708.941	3.23
708.968	21.23
708.996	-2.77
709.023	22.23
709.051	1.23
709.078	-8.77
709.105	-1.77
709.133	8.23
709.16	3.23
709.188	1.23
709.215	6.23
709.243	0.23
709.27	5.23
709.298	-9.77
709.325	0.23
709.353	-1.77
709.38	1.23
709.408	11.23
709.435	1.23
709.462	-0.77
709.49	8.23
709.517	-5.77
709.545	-13.77
709.572	-2.77
709.6	-14.77
709.627	9.23
709.655	-3.77
709.682	-4.77
709.709	-9.77
709.737	-1.77
709.764	-17.77
709.792	20.23
709.819	-0.77
709.846	-3.77
709.874	5.23
709.901	13.23
709.929	22.23
709.956	11.23
709.983	0.23
710.011	-1.77
710.038	-1.77
710.066	2.23
710.093	14.23
710.12	2.23
710.148	3.23
710.175	-0.77
710.202	-13.77
710.23	-4.77
710.257	8.23
710.284	15.23
710.312	-0.77
710.339	-4.77
710.366	4.23
710.394	-8.77
710.421	-5.77
710.448	-0.77
710.476	-5.77
710.503	11.23
710.53	22.23
710.558	15.23
710.585	2.23
710.612	-11.77
710.64	-9.77
710.667	2.23
710.694	-10.77
710.722	-12.77
710.749	6.23
710.776	-8.77
710.804	7.23
710.831	0.23
710.858	3.23
710.885	13.23
710.913	1.23
710.94	18.23
710.967	-1.77
710.995	-7.77
711.022	-14.77
711.049	8.23
711.076	7.23
711.104	2.23
711.131	-4.77
711.158	-8.77
711.185	4.23
711.213	-9.77
711.24	-11.77
711.267	-0.77
711.294	10.23
711.322	16.23
711.349	-8.77
711.376	-4.77
711.403	15.23
711.431	-9.77
711.458	4.23
711.485	-3.77
711.512	15.23
711.54	4.23
711.567	19.23
711.594	3.23
711.621	2.23
711.648	2.23
711.676	7.23
711.703	-10.77
711.73	-24.77
711.757	-2.77
711.784	12.23
711.812	14.23
711.839	2.23
711.866	-11.77
711.893	-17.77
711.92	9.23
711.947	6.23
711.975	21.23
712.002	1.23
712.029	10.23
712.056	12.23
712.083	11.23
712.11	-18.77
712.138	11.23
712.165	6.23
712.192	11.23
712.219	-4.77
712.246	5.23
712.273	2.23
712.3	-2.77
712.328	6.23
712.355	6.23
712.382	-12.77
712.409	19.23
712.436	-5.77
712.463	7.23
712.49	22.23
712.517	-2.77
712.544	0.23
712.572	8.23
712.599	4.23
712.626	12.23
712.653	2.23
712.68	-6.77
712.707	5.23
712.734	11.23
712.761	15.23
712.788	13.23
712.815	6.23
712.842	27.23
712.87	9.23
712.897	-3.77
712.924	4.23
712.951	-0.77
712.978	7.23
713.005	1.23
713.032	4.23
713.059	-1.77
713.086	-9.77
713.113	-14.77
713.14	-7.77
713.167	-1.77
713.194	15.23
713.221	11.23
713.248	3.23
713.275	-2.77
713.302	-7.77
713.329	2.23
713.356	7.23
713.383	4.23
713.41	-2.77
713.437	2.23
713.464	10.23
713.491	12.23
713.518	11.23
713.545	1.23
713.572	-0.77
713.599	17.23
713.626	1.23
713.653	6.23
713.68	-12.77
713.707	-9.77
713.734	9.23
713.761	2.23
713.788	5.23
713.815	8.23
713.842	-8.77
713.869	-2.77
713.896	-7.77
713.923	0.23
713.95	-12.77
713.977	2.23
714.004	10.23
714.031	-0.77
714.058	1.23
714.085	-2.77
714.112	5.23
714.139	4.23
714.165	-1.77
714.192	-8.77
714.219	9.23
714.246	23.23
714.273	1.23
714.3	-4.77
714.327	6.23
714.354	3.23
714.381	-4.77
714.408	-10.77
714.435	4.23
714.461	13.23
714.488	8.23
714.515	6.23
714.542	-8.77
714.569	-7.77
714.596	-1.77
714.623	-5.77
714.65	-12.77
714.677	5.23
714.703	4.23
714.73	18.23
714.757	1.23
714.784	15.23
714.811	-18.77
714.838	-4.77
714.865	-3.77
714.891	7.23
714.918	3.23
714.945	-2.77
714.972	-4.77
714.999	11.23
715.026	-3.77
715.052	13.23
715.079	6.23
715.106	5.23
715.133	15.23
715.16	-6.77
715.187	2.23
715.213	-3.77
715.24	-14.77
715.267	-4.77
715.294	13.23
715.321	-5.77
715.347	7.23
715.374	-11.77
715.401	-6.77
715.428	10.23
715.455	3.23
715.481	-11.77
715.508	8.23
715.535	7.23
715.562	31.23
715.588	19.23
715.615	-1.77
715.642	-4.77
715.669	12.23
715.695	-0.77
715.722	3.23
715.749	-1.77
715.776	6.23
715.802	7.23
715.829	8.23
715.856	2.23
715.883	21.23
715.909	-5.77
715.936	-8.77
715.963	-0.77
715.99	9.23
716.016	3.23
716.043	-1.77
716.07	-3.77
716.096	-6.77
716.123	-4.77
716.15	10.23
716.177	13.23
716.203	23.23
716.23	9.23
716.257	7.23
716.283	12.23
716.31	15.23
716.337	9.23
716.363	-8.77
716.39	-18.77
716.417	34.23
716.443	18.23
716.47	10.23
716.497	-2.77
716.523	13.23
716.55	3.23
716.577	13.23
716.603	-1.77
716.63	23.23
716.657	24.23
716.683	4.23
716.71	-3.77
716.737	1.23
716.763	2.23
716.79	6.23
716.817	9.23
716.843	0.23
716.87	-4.77
716.897	6.23
716.923	9.23
716.95	6.23
716.976	-6.77
717.003	-1.77
717.03	1.23
717.056	10.23
717.083	-2.77
717.109	15.23
717.136	19.23
717.163	-4.77
717.189	3.23
717.216	7.23
717.242	1.23
717.269	-4.77
717.296	18.23
717.322	4.23
717.349	17.23
717.375	3.23
717.402	-0.77
717.428	2.23
717.455	17.23
717.481	-5.77
717.508	25.23
717.535	14.23
717.561	-4.77
717.588	-4.77
717.614	-4.77
717.641	6.23
717.667	-0.77
717.694	2.23
717.72	2.23
717.747	-6.77
717.773	-1.77
717.8	8.23
717.826	7.23
717.853	9.23
717.88	3.23
717.906	3.23
717.933	17.23
717.959	-0.77
717.986	1.23
718.012	7.23
718.039	16.23
718.065	21.23
718.092	14.23
718.118	-1.77
718.144	-2.77
718.171	18.23
718.197	16.23
718.224	-5.77
718.25	4.23
718.277	5.23
718.303	0.23
718.33	9.23
718.356	10.23
718.383	-5.77
718.409	-4.77
718.436	-0.77
718.462	-1.77
718.489	-10.77
718.515	14.23
718.541	16.23
718.568	21.23
718.594	6.23
718.621	-2.77
718.647	2.23
718.674	12.23
718.7	9.23
718.726	11.23
718.753	-2.77
718.779	13.23
718.806	-4.77
718.832	-4.77
718.858	0.23
718.885	-4.77
718.911	9.23
718.938	18.23
718.964	-12.77
718.99	9.23
719.017	15.23
719.043	20.23
719.07	10.23
719.096	-10.77
719.122	5.23
719.149	4.23
719.175	17.23
719.201	2.23
719.228	2.23
719.254	6.23
719.281	-8.77
719.307	-9.77
719.333	2.23
719.36	15.23
719.386	-12.77
719.412	1.23
719.439	-2.77
719.465	23.23
719.491	4.23
719.518	2.23
719.544	9.23
719.57	10.23
719.597	7.23
719.623	-16.77
719.649	15.23
719.675	6.23
719.702	-0.77
719.728	13.23
719.754	14.23
719.781	2.23
719.807	-2.77
719.833	-10.77
719.86	-4.77
719.886	-5.77
719.912	-0.77
719.938	-2.77
719.965	5.23
719.991	3.23
720.017	0.23
720.044	-3.77
720.07	16.23
720.096	15.23
720.122	9.23
720.149	23.23
720.175	31.23
720.201	4.23
720.227	-1.77
720.254	15.23
720.28	8.23
720.306	8.23
720.332	5.23
720.359	9.23
720.385	6.23
720.411	-5.77
720.437	13.23
720.463	-1.77
720.49	19.23
720.516	-1.77
720.542	-8.77
720.568	-0.77
720.595	6.23
720.621	0.23
720.647	2.23
720.673	10.23
720.699	-2.77
720.725	-0.77
720.752	1.23
720.778	-0.77
720.804	7.23
720.83	9.23
720.856	12.23
720.883	-5.77
720.909	7.23
720.935	4.23
720.961	11.23
720.987	-6.77
721.013	8.23
721.04	6.23
721.066	3.23
721.092	-21.77
721.118	13.23
721.144	6.23
721.17	-1.77
721.196	4.23
721.223	-3.77
721.249	0.23
721.275	14.23
721.301	-2.77
721.327	2.23
721.353	17.23
721.379	2.23
721.405	22.23
721.432	3.23
721.458	-0.77
721.484	18.23
721.51	-4.77
721.536	-8.77
721.562	3.23
721.588	12.23
721.614	-2.77
721.64	9.23
721.666	-0.77
721.693	-4.77
721.719	13.23
721.745	-3.77
721.771	10.23
721.797	-1.77
721.823	-4.77
721.849	16.23
721.875	16.23
721.901	15.23
721.927	-2.77
721.953	1.23
721.979	18.23
722.005	11.23
722.031	6.23
722.057	4.23
722.083	7.23
722.109	15.23
722.135	11.23
722.161	1.23
722.187	-18.77
722.214	-14.77
722.24	11.23
722.266	2.23
722.292	21.23
722.318	27.23
722.344	7.23
722.37	16.23
722.396	0.23
722.422	16.23
722.448	7.23
722.474	4.23
722.5	-5.77
722.526	6.23
722.552	-1.77
722.578	3.23
722.603	0.23
722.629	-3.77
722.655	18.23
722.681	5.23
722.707	2.23
722.733	1.23
722.759	4.23
722.785	1.23
722.811	-2.77
722.837	3.23
722.863	13.23
722.889	16.23
722.915	-2.77
722.941	-6.77
722.967	13.23
722.993	4.23
723.019	-1.77
723.045	16.23
723.071	12.23
723.097	6.23
723.122	8.23
723.148	-4.77
723.174	1.23
723.2	11.23
723.226	-4.77
723.252	8.23
723.278	3.23
723.304	-2.77
723.33	-1.77
723.356	-14.77
723.381	-4.77
723.407	-2.77
723.433	18.23
723.459	3.23
723.485	2.23
723.511	10.23
723.537	13.23
723.563	2.23
723.588	-0.77
723.614	18.23
723.64	8.23
723.666	3.23
723.692	12.23
723.718	4.23
723.744	9.23
723.769	2.23
723.795	-9.77
723.821	5.23
723.847	-3.77
723.873	5.23
723.899	-6.77
723.924	0.23
723.95	11.23
723.976	-12.77
724.002	-5.77
724.028	-1.77
724.053	2.23
724.079	-5.77
724.105	-6.77
724.131	-4.77
724.157	3.23
724.182	12.23
724.208	3.23
724.234	-5.77
724.26	6.23
724.286	17.23
724.311	2.23
724.337	-0.77
724.363	-4.77
724.389	9.23
724.415	2.23
724.44	19.23
724.466	4.23
724.492	1.23
724.518	1.23
724.543	-5.77
724.569	4.23
724.595	11.23
724.621	-8.77
724.646	12.23
724.672	-14.77
724.698	-4.77
724.723	3.23
724.749	1.23
724.775	15.23
724.801	2.23
724.826	-8.77
724.852	-4.77
724.878	-5.77
724.904	-14.77
724.929	-5.77
724.955	-9.77
724.981	5.23
725.006	10.23
725.032	1.23
725.058	5.23
725.083	-8.77
725.109	-5.77
725.135	2.23
725.161	5.23
725.186	0.23
725.212	12.23
725.238	15.23
725.263	-2.77
725.289	-2.77
725.315	-3.77
725.34	-1.77
725.366	12.23
725.392	-3.77
725.417	5.23
725.443	6.23
725.468	9.23
725.494	18.23
725.52	19.23
725.545	4.23
725.571	-12.77
725.597	12.23
725.622	22.23
725.648	14.23
725.674	11.23
725.699	11.23
725.725	-4.77
725.75	11.23
725.776	-3.77
725.802	14.23
725.827	3.23
725.853	3.23
725.878	5.23
725.904	-1.77
725.93	12.23
725.955	-3.77
725.981	-7.77
726.006	6.23
726.032	27.23
726.057	-2.77
726.083	-12.77
726.109	14.23
726.134	18.23
726.16	4.23
726.185	-3.77
726.211	-4.77
726.236	12.23
726.262	-1.77
726.288	13.23
726.313	15.23
726.339	8.23
726.364	4.23
726.39	26.23
726.415	7.23
726.441	0.23
726.466	4.23
726.492	-11.77
726.517	8.23
726.543	6.23
726.568	-2.77
726.594	-3.77
726.619	9.23
726.645	10.23
726.67	17.23
726.696	10.23
726.721	-9.77
726.747	-1.77
726.772	15.23
726.798	1.23
726.823	17.23
726.849	14.23
726.874	10.23
726.9	22.23
726.925	5.23
726.951	5.23
726.976	14.23
727.002	0.23
727.027	-1.77
727.053	7.23
727.078	3.23
727.104	9.23
727.129	-3.77
727.155	7.23
727.18	5.23
727.205	-0.77
727.231	-1.77
727.256	-2.77
727.282	0.23
727.307	21.23
727.333	-5.77
727.358	-6.77
727.383	-9.77
727.409	-9.77
727.434	6.23
727.46	-1.77
727.485	-20.77
727.511	2.23
727.536	-0.77
727.561	-10.77
727.587	-2.77
727.612	1.23
727.637	12.23
727.663	-12.77
727.688	16.23
727.714	-6.77
727.739	-7.77
727.764	-18.77
727.79	-8.77
727.815	12.23
727.841	12.23
727.866	6.23
727.891	7.23
727.917	-10.77
727.942	-6.77
727.967	-6.77
727.993	-2.77
728.018	9.23
728.043	19.23
728.069	15.23
728.094	28.23
728.119	5.23
728.145	10.23
728.17	-5.77
728.195	-14.77
728.221	13.23
728.246	-1.77
728.271	2.23
728.297	10.23
728.322	20.23
728.347	4.23
728.373	9.23
728.398	13.23
728.423	7.23
728.448	13.23
728.474	2.23
728.499	2.23
728.524	-7.77
728.55	4.23
728.575	-2.77
728.6	-3.77
728.625	-7.77
728.651	5.23
728.676	3.23
728.701	-1.77
728.727	-1.77
728.752	-2.77
728.777	1.23
728.802	9.23
728.828	12.23
728.853	9.23
728.878	6.23
728.903	13.23
728.929	3.23
728.954	3.23
728.979	9.23
729.004	-10.77
729.03	-10.77
729.055	-4.77
729.08	-4.77
729.105	1.23
729.13	21.23
729.156	2.23
729.181	-0.77
729.206	-12.77
729.231	3.23
729.256	15.23
729.282	14.23
729.307	6.23
729.332	-7.77
729.357	-8.77
729.382	-7.77
729.408	4.23
729.433	15.23
729.458	6.23
729.483	11.23
729.508	4.23
729.533	13.23
729.559	12.23
729.584	-2.77
729.609	9.23
729.634	14.23
729.659	-8.77
729.684	-9.77
729.71	-0.77
729.735	10.23
729.76	13.23
729.785	9.23
729.81	7.23
729.835	4.23
729.86	4.23
729.886	6.23
729.911	13.23
729.936	2.23
729.961	1.23
729.986	-8.77
730.011	5.23
730.036	11.23
730.061	-7.77
730.086	7.23
730.112	-8.77
730.137	30.23
730.162	-2.77
730.187	-2.77
730.212	0.23
730.237	2.23
730.262	-5.77
730.287	1.23
730.312	6.23
730.337	-8.77
730.362	35.23
730.387	1.23
730.413	-10.77
730.438	-2.77
730.463	25.23
730.488	6.23
730.513	7.23
730.538	-1.77
730.563	17.23
730.588	-1.77
730.613	13.23
730.638	-5.77
730.663	1.23
730.688	21.23
730.713	4.23
730.738	-4.77
730.763	14.23
730.788	-4.77
730.813	14.23
730.838	-2.77
730.863	-12.77
730.888	-17.77
730.913	-12.77
730.938	2.23
730.963	6.23
730.988	22.23
731.013	15.23
731.038	-5.77
731.063	-8.77
731.088	-9.77
731.113	-2.77
731.138	1.23
731.163	3.23
731.188	-6.77
731.213	13.23
731.238	15.23
731.263	7.23
731.288	-4.77
731.313	-4.77
731.338	1.23
731.363	-3.77
731.388	16.23
731.413	-1.77
731.438	6.23
731.463	-0.77
731.487	1.23
731.512	1.23
731.537	-5.77
731.562	-6.77
731.587	6.23
731.612	2.23
731.637	3.23
731.662	3.23
731.687	-0.77
731.712	-1.77
731.737	-11.77
731.762	1.23
731.786	6.23
731.811	6.23
731.836	1.23
731.861	-7.77
731.886	-5.77
731.911	13.23
731.936	5.23
731.961	-3.77
731.986	-10.77
732.01	-2.77
732.035	3.23
732.06	18.23
732.085	-7.77
732.11	14.23
732.135	-0.77
732.16	30.23
732.184	13.23
732.209	6.23
732.234	2.23
732.259	-4.77
732.284	2.23
732.309	4.23
732.334	-3.77
732.358	-20.77
732.383	-3.77
732.408	1.23
732.433	-4.77
732.458	-7.77
732.482	-0.77
732.507	5.23
732.532	-3.77
732.557	10.23
732.582	14.23
732.607	-8.77
732.631	-6.77
732.656	-2.77
732.681	-2.77
732.706	6.23
732.73	-4.77
732.755	-16.77
732.78	-1.77
732.805	-2.77
732.83	-12.77
732.854	-5.77
732.879	17.23
732.904	3.23
732.929	-13.77
732.953	13.23
732.978	10.23
733.003	-5.77
733.028	14.23
733.052	22.23
733.077	7.23
733.102	19.23
733.127	-3.77
733.151	-3.77
733.176	2.23
733.201	7.23
733.226	8.23
733.25	17.23
733.275	3.23
733.3	-10.77
733.324	-1.77
733.349	2.23
733.374	11.23
733.399	-7.77
733.423	-10.77
733.448	-3.77
733.473	6.23
733.497	-1.77
733.522	-18.77
733.547	5.23
733.571	-1.77
733.596	5.23
733.621	2.23
733.646	-2.77
733.67	2.23
733.695	1.23
733.72	15.23
733.744	26.23
733.769	11.23
733.794	20.23
733.818	9.23
733.843	-1.77
733.867	-19.77
733.892	-1.77
733.917	-1.77
733.941	3.23
733.966	-2.77
733.991	11.23
734.015	18.23
734.04	17.23
734.065	25.23
734.089	6.23
734.114	10.23
734.138	17.23
734.163	-0.77
734.188	4.23
734.212	24.23
734.237	18.23
734.261	9.23
734.286	-0.77
734.311	-2.77
734.335	-1.77
734.36	-4.77
734.384	9.23
734.409	14.23
734.434	-1.77
734.458	17.23
734.483	12.23
734.507	-4.77
734.532	-12.77
734.556	-0.77
734.581	10.23
734.606	6.23
734.63	8.23
734.655	8.23
734.679	6.23
734.704	11.23
734.728	-6.77
734.753	2.23
734.777	10.23
734.802	4.23
734.826	9.23
734.851	0.23
734.876	39.23
734.9	13.23
734.925	17.23
734.949	1.23
734.974	6.23
734.998	11.23
735.023	0.23
735.047	-1.77
735.072	11.23
735.096	1.23
735.121	4.23
735.145	1.23
735.17	2.23
735.194	3.23
735.219	1.23
735.243	9.23
735.268	3.23
735.292	-0.77
735.317	1.23
735.341	14.23
735.365	-10.77
735.39	12.23
735.414	18.23
735.439	13.23
735.463	6.23
735.488	13.23
735.512	3.23
735.537	5.23
735.561	-4.77
735.586	-2.77
735.61	0.23
735.634	-11.77
735.659	-7.77
735.683	8.23
735.708	-8.77
735.732	0.23
735.757	1.23
735.781	-5.77
735.805	6.23
735.83	-6.77
735.854	0.23
735.879	17.23
735.903	10.23
735.927	6.23
735.952	0.23
735.976	6.23
736.001	8.23
736.025	-5.77
736.049	7.23
736.074	1.23
736.098	6.23
736.123	-2.77
736.147	14.23
736.171	3.23
736.196	9.23
736.22	-2.77
736.244	-8.77
736.269	3.23
736.293	-8.77
736.317	11.23
736.342	20.23
736.366	10.23
736.39	31.23
736.415	12.23
736.439	-1.77
736.463	17.23
736.488	-1.77
736.512	-3.77
736.536	6.23
736.561	25.23
736.585	9.23
736.609	16.23
736.634	3.23
736.658	-0.77
736.682	-10.77
736.707	-23.77
736.731	-5.77
736.755	6.23
736.78	1.23
736.804	-1.77
736.828	4.23
736.852	3.23
736.877	-12.77
736.901	7.23
736.925	3.23
736.949	18.23
736.974	3.23
736.998	-1.77
737.022	-8.77
737.047	-19.77
737.071	9.23
737.095	10.23
737.119	17.23
737.144	-1.77
737.168	-17.77
737.192	-4.77
737.216	5.23
737.241	8.23
737.265	17.23
737.289	5.23
737.313	4.23
737.337	5.23
737.362	-1.77
737.386	3.23
737.41	-8.77
737.434	9.23
737.459	16.23
737.483	17.23
737.507	11.23
737.531	9.23
737.555	-5.77
737.58	7.23
737.604	-1.77
737.628	-16.77
737.652	-11.77
737.676	-9.77
737.701	5.23
737.725	7.23
737.749	18.23
737.773	1.23
737.797	-5.77
737.821	7.23
737.846	4.23
737.87	19.23
737.894	6.23
737.918	-0.77
737.942	-9.77
737.966	22.23
737.99	9.23
738.015	21.23
738.039	-2.77
738.063	3.23
738.087	13.23
738.111	-2.77
738.135	17.23
738.159	6.23
738.184	-5.77
738.208	5.23
738.232	1.23
738.256	18.23
738.28	21.23
738.304	7.23
738.328	-12.77
738.352	0.23
738.376	-1.77
738.4	6.23
738.425	12.23
738.449	-1.77
738.473	18.23
738.497	4.23
738.521	3.23
738.545	1.23
738.569	27.23
738.593	14.23
738.617	14.23
738.641	14.23
738.665	-9.77
738.689	0.23
738.713	0.23
738.737	11.23
738.762	18.23
738.786	5.23
738.81	-3.77
738.834	10.23
738.858	-11.77
738.882	2.23
738.906	-6.77
738.93	9.23
738.954	2.23
738.978	5.23
739.002	10.23
739.026	15.23
739.05	20.23
739.074	-2.77
739.098	18.23
739.122	13.23
739.146	11.23
739.17	11.23
739.194	19.23
739.218	12.23
739.242	-8.77
739.266	-2.77
739.29	4.23
739.314	6.23
739.338	3.23
739.362	2.23
739.386	11.23
739.41	-12.77
739.434	-4.77
739.458	1.23
739.482	7.23
739.506	-1.77
739.53	-5.77
739.554	15.23
739.577	12.23
739.601	10.23
739.625	-19.77
739.649	-6.77
739.673	6.23
739.697	21.23
739.721	1.23
739.745	1.23
739.769	8.23
739.793	-2.77
739.817	5.23
739.841	-18.77
739.865	-1.77
739.889	-6.77
739.912	9.23
739.936	4.23
739.96	10.23
739.984	26.23
740.008	18.23
740.032	1.23
740.056	-4.77
740.08	7.23
740.104	1.23
740.127	15.23
740.151	6.23
740.175	10.23
740.199	4.23
740.223	61.23
740.247	19.23
740.271	7.23
740.295	1.23
740.318	-7.77
740.342	-0.77
740.366	-8.77
740.39	1.23
740.414	5.23
740.438	-7.77
740.461	18.23
740.485	9.23
740.509	-8.77
740.533	19.23
740.557	-2.77
740.581	4.23
740.604	-1.77
740.628	-6.77
740.652	10.23
740.676	-8.77
740.7	3.23
740.723	8.23
740.747	-10.77
740.771	4.23
740.795	-8.77
740.819	3.23
740.842	14.23
740.866	11.23
740.89	-1.77
740.914	-5.77
740.938	-8.77
740.961	14.23
740.985	13.23
741.009	-2.77
741.033	7.23
741.056	10.23
741.08	-4.77
741.104	0.23
741.128	1.23
741.151	2.23
741.175	-1.77
741.199	7.23
741.223	1.23
741.246	12.23
741.27	29.23
741.294	8.23
741.318	-1.77
741.341	6.23
741.365	5.23
741.389	4.23
741.413	13.23
741.436	18.23
741.46	15.23
741.484	17.23
741.507	2.23
741.531	17.23
741.555	10.23
741.579	7.23
741.602	12.23
741.626	23.23
741.65	5.23
741.673	1.23
741.697	10.23
741.721	13.23
741.744	-9.77
741.768	-1.77
741.792	7.23
741.815	8.23
741.839	15.23
741.863	22.23
741.886	5.23
741.91	10.23
741.934	4.23
741.957	-4.77
741.981	16.23
742.005	4.23
742.028	4.23
742.052	11.23
742.075	6.23
742.099	14.23
742.123	7.23
742.146	1.23
742.17	8.23
742.194	-3.77
742.217	1.23
742.241	13.23
742.264	11.23
742.288	19.23
742.312	5.23
742.335	-16.77
742.359	-5.77
742.382	20.23
742.406	8.23
742.43	-14.77
742.453	-10.77
742.477	-3.77
742.5	16.23
742.524	-1.77
742.548	2.23
742.571	5.23
742.595	-0.77
742.618	-12.77
742.642	8.23
742.665	18.23
742.689	10.23
742.712	8.23
742.736	1.23
742.76	-0.77
742.783	2.23
742.807	7.23
742.83	14.23
742.854	-2.77
742.877	0.23
742.901	8.23
742.924	6.23
742.948	16.23
742.971	22.23
742.995	13.23
743.018	-14.77
743.042	-5.77
743.065	-0.77
743.089	-6.77
743.112	3.23
743.136	-2.77
743.159	-18.77
743.183	-9.77
743.206	4.23
743.23	-5.77
743.253	6.23
743.277	-1.77
743.3	-2.77
743.324	-1.77
743.347	-24.77
743.371	17.23
743.394	6.23
743.418	16.23
743.441	19.23
743.465	-2.77
743.488	6.23
743.512	-3.77
743.535	3.23
743.558	-2.77
743.582	-11.77
743.605	-7.77
743.629	23.23
743.652	13.23
743.676	5.23
743.699	15.23
743.723	13.23
743.746	3.23
743.769	4.23
743.793	4.23
743.816	-12.77
743.84	14.23
743.863	4.23
743.886	10.23
743.91	2.23
743.933	-0.77
743.957	5.23
743.98	-4.77
744.003	-7.77
744.027	8.23
744.05	6.23
744.074	14.23
744.097	-8.77
744.12	-1.77
744.144	-7.77
744.167	12.23
744.19	9.23
744.214	-4.77
744.237	-5.77
744.26	13.23
744.284	6.23
744.307	-6.77
744.331	7.23
744.354	1.23
744.377	-5.77
744.401	-5.77
744.424	8.23
744.447	-12.77
744.471	-5.77
