Data from HighRes_H2_15_09_11_07_2024_HR4C61891__99__15-11-06-302.txt Node

Date: Thu Nov 07 15:11:06 EST 2024
User: crc00042
Spectrometer: HR4C6189
Trigger mode: 4
Integration Time (sec): 1.000000E-1
Scans to average: 1
Electric dark correction enabled: true
Nonlinearity correction enabled: false
Boxcar width: 0
XAxis mode: Wavelengths
Number of Pixels in Spectrum: 3648
>>>>>Begin Spectral Data<<<<<
639.567	-53.77
639.602	-53.77
639.636	-53.77
639.67	-34.77
639.704	-6.77
639.738	4.23
639.773	14.23
639.807	-13.77
639.841	-0.77
639.875	12.23
639.909	-2.77
639.943	-20.77
639.978	-20.77
640.012	0.23
640.046	20.23
640.08	17.23
640.114	-3.77
640.148	-5.77
640.182	-5.77
640.217	8.23
640.251	21.23
640.285	4.23
640.319	-9.77
640.353	-2.77
640.387	1.23
640.421	12.23
640.455	1.23
640.49	4.23
640.524	0.23
640.558	-10.77
640.592	12.23
640.626	13.23
640.66	1.23
640.694	-18.77
640.728	10.23
640.762	4.23
640.796	15.23
640.83	17.23
640.865	0.23
640.899	9.23
640.933	-5.77
640.967	8.23
641.001	4.23
641.035	7.23
641.069	-1.77
641.103	-3.77
641.137	-11.77
641.171	-11.77
641.205	13.23
641.239	7.23
641.273	15.23
641.307	-4.77
641.341	9.23
641.375	8.23
641.409	-7.77
641.443	-3.77
641.477	8.23
641.511	23.23
641.545	1.23
641.579	1.23
641.614	6.23
641.648	10.23
641.682	-3.77
641.716	16.23
641.75	12.23
641.784	13.23
641.818	-2.77
641.852	-0.77
641.886	8.23
641.919	19.23
641.953	-1.77
641.987	-11.77
642.021	1.23
642.055	1.23
642.089	16.23
642.123	-4.77
642.157	7.23
642.191	0.23
642.225	19.23
642.259	0.23
642.293	8.23
642.327	0.23
642.361	8.23
642.395	31.23
642.429	5.23
642.463	15.23
642.497	20.23
642.531	18.23
642.565	-12.77
642.599	19.23
642.633	-1.77
642.666	27.23
642.7	27.23
642.734	17.23
642.768	-7.77
642.802	-0.77
642.836	15.23
642.87	9.23
642.904	24.23
642.938	35.23
642.972	18.23
643.005	9.23
643.039	14.23
643.073	1.23
643.107	28.23
643.141	15.23
643.175	14.23
643.209	5.23
643.243	11.23
643.276	1.23
643.31	5.23
643.344	4.23
643.378	7.23
643.412	14.23
643.446	24.23
643.48	12.23
643.513	15.23
643.547	0.23
643.581	-11.77
643.615	0.23
643.649	8.23
643.683	-1.77
643.716	25.23
643.75	20.23
643.784	-20.77
643.818	20.23
643.852	5.23
643.886	-9.77
643.919	0.23
643.953	16.23
643.987	8.23
644.021	15.23
644.055	9.23
644.088	12.23
644.122	-6.77
644.156	-1.77
644.19	4.23
644.224	10.23
644.257	24.23
644.291	13.23
644.325	15.23
644.359	-3.77
644.392	27.23
644.426	14.23
644.46	20.23
644.494	7.23
644.527	2.23
644.561	-9.77
644.595	6.23
644.629	-3.77
644.662	-6.77
644.696	18.23
644.73	6.23
644.764	-2.77
644.797	13.23
644.831	-1.77
644.865	24.23
644.899	8.23
644.932	33.23
644.966	-5.77
645	7.23
645.033	4.23
645.067	11.23
645.101	12.23
645.135	8.23
645.168	8.23
645.202	3.23
645.236	2.23
645.269	7.23
645.303	0.23
645.337	-1.77
645.37	25.23
645.404	11.23
645.438	17.23
645.471	-15.77
645.505	6.23
645.539	-6.77
645.572	-12.77
645.606	0.23
645.64	2.23
645.673	2.23
645.707	30.23
645.741	16.23
645.774	-0.77
645.808	7.23
645.842	6.23
645.875	23.23
645.909	14.23
645.943	1.23
645.976	1.23
646.01	25.23
646.043	22.23
646.077	19.23
646.111	7.23
646.144	12.23
646.178	17.23
646.212	-7.77
646.245	1.23
646.279	9.23
646.312	21.23
646.346	22.23
646.38	-1.77
646.413	24.23
646.447	-5.77
646.48	-7.77
646.514	11.23
646.547	-3.77
646.581	-9.77
646.615	2.23
646.648	14.23
646.682	-7.77
646.715	2.23
646.749	3.23
646.782	8.23
646.816	-1.77
646.85	5.23
646.883	1.23
646.917	1.23
646.95	3.23
646.984	1.23
647.017	10.23
647.051	14.23
647.084	-5.77
647.118	-4.77
647.151	-2.77
647.185	10.23
647.218	-4.77
647.252	15.23
647.285	-6.77
647.319	-8.77
647.353	8.23
647.386	23.23
647.42	8.23
647.453	12.23
647.487	-1.77
647.52	5.23
647.553	-2.77
647.587	5.23
647.62	4.23
647.654	12.23
647.687	-1.77
647.721	12.23
647.754	7.23
647.788	20.23
647.821	-0.77
647.855	7.23
647.888	-1.77
647.922	16.23
647.955	10.23
647.989	17.23
648.022	16.23
648.055	-2.77
648.089	4.23
648.122	25.23
648.156	25.23
648.189	0.23
648.223	16.23
648.256	3.23
648.29	-2.77
648.323	6.23
648.356	7.23
648.39	6.23
648.423	9.23
648.457	14.23
648.49	4.23
648.523	25.23
648.557	1.23
648.59	-0.77
648.624	2.23
648.657	12.23
648.69	10.23
648.724	26.23
648.757	28.23
648.791	11.23
648.824	16.23
648.857	24.23
648.891	6.23
648.924	-3.77
648.957	18.23
648.991	-7.77
649.024	26.23
649.057	12.23
649.091	6.23
649.124	14.23
649.158	-1.77
649.191	23.23
649.224	-3.77
649.258	12.23
649.291	-2.77
649.324	13.23
649.358	16.23
649.391	12.23
649.424	11.23
649.458	0.23
649.491	14.23
649.524	1.23
649.557	-7.77
649.591	4.23
649.624	28.23
649.657	-5.77
649.691	4.23
649.724	7.23
649.757	-10.77
649.791	-3.77
649.824	10.23
649.857	8.23
649.89	8.23
649.924	-3.77
649.957	-8.77
649.99	-4.77
650.023	12.23
650.057	0.23
650.09	11.23
650.123	-4.77
650.157	9.23
650.19	11.23
650.223	-3.77
650.256	-6.77
650.29	-9.77
650.323	3.23
650.356	4.23
650.389	2.23
650.423	-5.77
650.456	1.23
650.489	-3.77
650.522	16.23
650.555	20.23
650.589	16.23
650.622	9.23
650.655	14.23
650.688	13.23
650.721	10.23
650.755	5.23
650.788	3.23
650.821	8.23
650.854	15.23
650.887	13.23
650.921	-5.77
650.954	1.23
650.987	6.23
651.02	-3.77
651.053	9.23
651.087	-9.77
651.12	15.23
651.153	-1.77
651.186	15.23
651.219	-14.77
651.252	15.23
651.286	12.23
651.319	7.23
651.352	12.23
651.385	-2.77
651.418	9.23
651.451	31.23
651.484	15.23
651.518	1.23
651.551	26.23
651.584	6.23
651.617	19.23
651.65	-0.77
651.683	7.23
651.716	19.23
651.749	1.23
651.783	7.23
651.816	6.23
651.849	12.23
651.882	9.23
651.915	-19.77
651.948	13.23
651.981	14.23
652.014	-3.77
652.047	-4.77
652.08	-2.77
652.114	9.23
652.147	-2.77
652.18	16.23
652.213	27.23
652.246	6.23
652.279	-21.77
652.312	3.23
652.345	14.23
652.378	3.23
652.411	11.23
652.444	7.23
652.477	6.23
652.51	0.23
652.543	-7.77
652.576	13.23
652.609	-3.77
652.642	6.23
652.675	6.23
652.709	0.23
652.742	2.23
652.775	7.23
652.808	7.23
652.841	13.23
652.874	13.23
652.907	-6.77
652.94	-4.77
652.973	-7.77
653.006	-2.77
653.039	17.23
653.072	12.23
653.105	10.23
653.138	-6.77
653.171	3.23
653.204	15.23
653.237	6.23
653.27	-6.77
653.303	-1.77
653.336	18.23
653.368	-0.77
653.401	14.23
653.434	8.23
653.467	16.23
653.5	4.23
653.533	-0.77
653.566	7.23
653.599	8.23
653.632	-3.77
653.665	-12.77
653.698	-4.77
653.731	1.23
653.764	7.23
653.797	0.23
653.83	4.23
653.863	-3.77
653.896	-15.77
653.929	-3.77
653.961	21.23
653.994	2.23
654.027	-9.77
654.06	-3.77
654.093	4.23
654.126	21.23
654.159	5.23
654.192	15.23
654.225	13.23
654.258	5.23
654.29	5.23
654.323	-9.77
654.356	-4.77
654.389	5.23
654.422	-0.77
654.455	4.23
654.488	22.23
654.521	-16.77
654.553	-11.77
654.586	12.23
654.619	-10.77
654.652	13.23
654.685	19.23
654.718	12.23
654.751	14.23
654.783	8.23
654.816	9.23
654.849	1.23
654.882	-9.77
654.915	-2.77
654.948	-9.77
654.98	2.23
655.013	0.23
655.046	7.23
655.079	4.23
655.112	17.23
655.144	-5.77
655.177	11.23
655.21	16.23
655.243	11.23
655.276	12.23
655.308	-4.77
655.341	1.23
655.374	22.23
655.407	5.23
655.44	6.23
655.472	4.23
655.505	7.23
655.538	-18.77
655.571	14.23
655.603	7.23
655.636	-2.77
655.669	28.23
655.702	22.23
655.734	8.23
655.767	21.23
655.8	24.23
655.833	35.23
655.865	40.23
655.898	40.23
655.931	37.23
655.964	46.23
655.996	50.23
656.029	67.23
656.062	68.23
656.095	68.23
656.127	78.23
656.16	99.23
656.193	129.23
656.225	171.23
656.258	267.23
656.291	502.23
656.324	1109.23
656.356	3395.23
656.389	7547.23
656.422	5981.23
656.454	2066.23
656.487	683.23
656.52	268.23
656.552	120.23
656.585	79.23
656.618	65.23
656.65	40.23
656.683	29.23
656.716	24.23
656.748	3.23
656.781	10.23
656.814	4.23
656.846	1.23
656.879	1.23
656.912	9.23
656.944	-1.77
656.977	1.23
657.01	10.23
657.042	11.23
657.075	12.23
657.108	-3.77
657.14	11.23
657.173	23.23
657.205	30.23
657.238	8.23
657.271	20.23
657.303	-3.77
657.336	3.23
657.369	6.23
657.401	7.23
657.434	11.23
657.466	18.23
657.499	0.23
657.532	-2.77
657.564	28.23
657.597	-9.77
657.629	23.23
657.662	0.23
657.694	-1.77
657.727	-6.77
657.76	6.23
657.792	-0.77
657.825	-7.77
657.857	2.23
657.89	-14.77
657.922	10.23
657.955	2.23
657.987	16.23
658.02	23.23
658.053	2.23
658.085	-12.77
658.118	12.23
658.15	17.23
658.183	20.23
658.215	9.23
658.248	-1.77
658.28	10.23
658.313	24.23
658.345	4.23
658.378	-0.77
658.41	1.23
658.443	17.23
658.475	-3.77
658.508	11.23
658.54	0.23
658.573	-2.77
658.605	6.23
658.638	0.23
658.67	19.23
658.703	16.23
658.735	-5.77
658.768	7.23
658.8	7.23
658.833	24.23
658.865	-1.77
658.898	2.23
658.93	6.23
658.963	13.23
658.995	1.23
659.028	13.23
659.06	4.23
659.092	1.23
659.125	-5.77
659.157	7.23
659.19	4.23
659.222	2.23
659.255	8.23
659.287	6.23
659.32	8.23
659.352	0.23
659.384	12.23
659.417	-1.77
659.449	16.23
659.482	27.23
659.514	-2.77
659.546	-1.77
659.579	-25.77
659.611	-9.77
659.644	12.23
659.676	-10.77
659.708	-2.77
659.741	4.23
659.773	20.23
659.806	3.23
659.838	6.23
659.87	17.23
659.903	-4.77
659.935	15.23
659.967	13.23
660	8.23
660.032	-14.77
660.065	18.23
660.097	9.23
660.129	-6.77
660.162	-9.77
660.194	-2.77
660.226	11.23
660.259	6.23
660.291	-9.77
660.323	14.23
660.356	4.23
660.388	4.23
660.42	8.23
660.453	13.23
660.485	12.23
660.517	24.23
660.55	4.23
660.582	7.23
660.614	10.23
660.647	13.23
660.679	-15.77
660.711	4.23
660.743	-7.77
660.776	-14.77
660.808	12.23
660.84	-3.77
660.873	8.23
660.905	13.23
660.937	13.23
660.969	0.23
661.002	10.23
661.034	12.23
661.066	14.23
661.099	9.23
661.131	36.23
661.163	19.23
661.195	-1.77
661.228	31.23
661.26	12.23
661.292	11.23
661.324	16.23
661.357	14.23
661.389	17.23
661.421	15.23
661.453	-1.77
661.485	6.23
661.518	-1.77
661.55	-3.77
661.582	1.23
661.614	-5.77
661.647	14.23
661.679	-0.77
661.711	0.23
661.743	9.23
661.775	12.23
661.808	15.23
661.84	3.23
661.872	3.23
661.904	-4.77
661.936	11.23
661.969	-5.77
662.001	2.23
662.033	7.23
662.065	5.23
662.097	11.23
662.129	6.23
662.162	-11.77
662.194	15.23
662.226	4.23
662.258	11.23
662.29	-8.77
662.322	-16.77
662.355	-1.77
662.387	10.23
662.419	2.23
662.451	9.23
662.483	8.23
662.515	2.23
662.547	4.23
662.58	10.23
662.612	-12.77
662.644	-14.77
662.676	-8.77
662.708	41.23
662.74	1.23
662.772	11.23
662.804	-0.77
662.836	5.23
662.869	1.23
662.901	10.23
662.933	10.23
662.965	11.23
662.997	16.23
663.029	11.23
663.061	-2.77
663.093	9.23
663.125	0.23
663.157	13.23
663.189	13.23
663.221	19.23
663.254	1.23
663.286	15.23
663.318	-0.77
663.35	12.23
663.382	8.23
663.414	8.23
663.446	12.23
663.478	1.23
663.51	40.23
663.542	-0.77
663.574	-14.77
663.606	4.23
663.638	-12.77
663.67	-2.77
663.702	-4.77
663.734	-6.77
663.766	26.23
663.798	12.23
663.83	9.23
663.862	10.23
663.894	7.23
663.926	-8.77
663.958	15.23
663.99	0.23
664.022	-5.77
664.054	17.23
664.086	5.23
664.118	8.23
664.15	-0.77
664.182	-2.77
664.214	-0.77
664.246	23.23
664.278	26.23
664.31	3.23
664.342	-0.77
664.374	9.23
664.406	-1.77
664.438	4.23
664.47	16.23
664.502	2.23
664.534	-6.77
664.566	-7.77
664.598	12.23
664.63	7.23
664.662	11.23
664.693	16.23
664.725	8.23
664.757	-1.77
664.789	3.23
664.821	5.23
664.853	23.23
664.885	-4.77
664.917	-1.77
664.949	23.23
664.981	22.23
665.013	-4.77
665.045	-16.77
665.076	6.23
665.108	5.23
665.14	3.23
665.172	8.23
665.204	1.23
665.236	-0.77
665.268	8.23
665.3	5.23
665.331	-7.77
665.363	1.23
665.395	16.23
665.427	-0.77
665.459	21.23
665.491	13.23
665.523	4.23
665.555	-5.77
665.586	2.23
665.618	2.23
665.65	-11.77
665.682	15.23
665.714	11.23
665.746	12.23
665.777	19.23
665.809	10.23
665.841	0.23
665.873	14.23
665.905	12.23
665.937	20.23
665.968	-4.77
666	-11.77
666.032	-7.77
666.064	0.23
666.096	2.23
666.127	8.23
666.159	27.23
666.191	9.23
666.223	-0.77
666.255	10.23
666.286	14.23
666.318	-4.77
666.35	20.23
666.382	11.23
666.413	-3.77
666.445	-9.77
666.477	1.23
666.509	-1.77
666.54	-0.77
666.572	8.23
666.604	7.23
666.636	10.23
666.667	10.23
666.699	10.23
666.731	-4.77
666.763	7.23
666.794	0.23
666.826	19.23
666.858	-16.77
666.89	24.23
666.921	6.23
666.953	24.23
666.985	18.23
667.017	20.23
667.048	9.23
667.08	5.23
667.112	0.23
667.143	-25.77
667.175	6.23
667.207	1.23
667.238	13.23
667.27	9.23
667.302	9.23
667.334	13.23
667.365	21.23
667.397	12.23
667.429	13.23
667.46	-0.77
667.492	9.23
667.524	0.23
667.555	2.23
667.587	6.23
667.619	1.23
667.65	-6.77
667.682	11.23
667.714	4.23
667.745	-2.77
667.777	3.23
667.808	19.23
667.84	15.23
667.872	14.23
667.903	16.23
667.935	4.23
667.967	16.23
667.998	-1.77
668.03	3.23
668.061	13.23
668.093	2.23
668.125	12.23
668.156	8.23
668.188	-8.77
668.22	2.23
668.251	20.23
668.283	12.23
668.314	-0.77
668.346	-9.77
668.377	14.23
668.409	13.23
668.441	22.23
668.472	20.23
668.504	-1.77
668.535	-0.77
668.567	8.23
668.599	-6.77
668.63	2.23
668.662	2.23
668.693	10.23
668.725	26.23
668.756	18.23
668.788	-3.77
668.819	-3.77
668.851	0.23
668.882	-5.77
668.914	-7.77
668.946	-1.77
668.977	-7.77
669.009	5.23
669.04	-12.77
669.072	9.23
669.103	11.23
669.135	1.23
669.166	11.23
669.198	7.23
669.229	7.23
669.261	-11.77
669.292	-3.77
669.324	6.23
669.355	10.23
669.387	-1.77
669.418	8.23
669.45	-14.77
669.481	19.23
669.513	5.23
669.544	1.23
669.576	18.23
669.607	30.23
669.639	22.23
669.67	10.23
669.701	18.23
669.733	2.23
669.764	23.23
669.796	8.23
669.827	-3.77
669.859	-0.77
669.89	2.23
669.922	15.23
669.953	-8.77
669.985	17.23
670.016	12.23
670.047	12.23
670.079	10.23
670.11	0.23
670.142	-1.77
670.173	9.23
670.204	-5.77
670.236	-4.77
670.267	-8.77
670.299	-10.77
670.33	-3.77
670.362	5.23
670.393	-12.77
670.424	1.23
670.456	-2.77
670.487	13.23
670.518	16.23
670.55	5.23
670.581	-4.77
670.613	1.23
670.644	11.23
670.675	1.23
670.707	-5.77
670.738	0.23
670.769	7.23
670.801	-16.77
670.832	11.23
670.864	-4.77
670.895	18.23
670.926	1.23
670.958	12.23
670.989	1.23
671.02	-3.77
671.052	5.23
671.083	26.23
671.114	-3.77
671.146	8.23
671.177	-1.77
671.208	8.23
671.24	2.23
671.271	1.23
671.302	24.23
671.333	1.23
671.365	-0.77
671.396	-8.77
671.427	-1.77
671.459	5.23
671.49	4.23
671.521	19.23
671.553	10.23
671.584	5.23
671.615	-2.77
671.646	-7.77
671.678	9.23
671.709	-17.77
671.74	-15.77
671.771	-11.77
671.803	-3.77
671.834	-8.77
671.865	-8.77
671.896	12.23
671.928	2.23
671.959	3.23
671.99	12.23
672.021	4.23
672.053	6.23
672.084	6.23
672.115	9.23
672.146	-10.77
672.178	-1.77
672.209	2.23
672.24	-5.77
672.271	11.23
672.303	12.23
672.334	-8.77
672.365	-11.77
672.396	6.23
672.427	13.23
672.459	3.23
672.49	21.23
672.521	3.23
672.552	7.23
672.583	0.23
672.615	-1.77
672.646	13.23
672.677	7.23
672.708	9.23
672.739	-8.77
672.77	6.23
672.802	11.23
672.833	7.23
672.864	6.23
672.895	-0.77
672.926	5.23
672.957	-5.77
672.989	5.23
673.02	13.23
673.051	-5.77
673.082	-7.77
673.113	-21.77
673.144	10.23
673.175	6.23
673.206	7.23
673.238	-1.77
673.269	14.23
673.3	-4.77
673.331	20.23
673.362	16.23
673.393	10.23
673.424	8.23
673.455	29.23
673.487	1.23
673.518	13.23
673.549	10.23
673.58	4.23
673.611	9.23
673.642	10.23
673.673	-12.77
673.704	4.23
673.735	2.23
673.766	-6.77
673.797	-1.77
673.828	8.23
673.86	4.23
673.891	-3.77
673.922	1.23
673.953	6.23
673.984	10.23
674.015	15.23
674.046	9.23
674.077	16.23
674.108	6.23
674.139	8.23
674.17	-4.77
674.201	1.23
674.232	1.23
674.263	9.23
674.294	-3.77
674.325	-13.77
674.356	16.23
674.387	30.23
674.418	3.23
674.449	8.23
674.48	-1.77
674.511	17.23
674.542	14.23
674.573	5.23
674.604	8.23
674.635	-2.77
674.666	14.23
674.697	5.23
674.728	-9.77
674.759	-5.77
674.79	-3.77
674.821	1.23
674.852	10.23
674.883	21.23
674.914	6.23
674.945	-7.77
674.976	14.23
675.007	-4.77
675.038	-3.77
675.069	-20.77
675.1	4.23
675.131	4.23
675.162	-2.77
675.193	11.23
675.224	19.23
675.254	0.23
675.285	5.23
675.316	8.23
675.347	4.23
675.378	-22.77
675.409	3.23
675.44	9.23
675.471	9.23
675.502	4.23
675.533	5.23
675.564	7.23
675.595	11.23
675.625	10.23
675.656	8.23
675.687	-4.77
675.718	-18.77
675.749	14.23
675.78	6.23
675.811	4.23
675.842	2.23
675.873	18.23
675.903	2.23
675.934	-0.77
675.965	-13.77
675.996	4.23
676.027	13.23
676.058	9.23
676.089	5.23
676.119	10.23
676.15	6.23
676.181	10.23
676.212	-1.77
676.243	27.23
676.274	7.23
676.304	21.23
676.335	-9.77
676.366	5.23
676.397	3.23
676.428	-2.77
676.459	10.23
676.489	7.23
676.52	9.23
676.551	7.23
676.582	5.23
676.613	9.23
676.643	0.23
676.674	16.23
676.705	2.23
676.736	-2.77
676.767	17.23
676.797	17.23
676.828	4.23
676.859	17.23
676.89	-9.77
676.92	10.23
676.951	11.23
676.982	5.23
677.013	0.23
677.044	21.23
677.074	-0.77
677.105	-10.77
677.136	-1.77
677.167	11.23
677.197	30.23
677.228	12.23
677.259	11.23
677.289	10.23
677.32	-11.77
677.351	-7.77
677.382	-3.77
677.412	-3.77
677.443	15.23
677.474	6.23
677.505	-3.77
677.535	8.23
677.566	1.23
677.597	2.23
677.627	-2.77
677.658	2.23
677.689	0.23
677.72	18.23
677.75	4.23
677.781	16.23
677.812	3.23
677.842	8.23
677.873	13.23
677.904	23.23
677.934	15.23
677.965	12.23
677.996	-11.77
678.026	0.23
678.057	5.23
678.088	-6.77
678.118	3.23
678.149	-8.77
678.18	9.23
678.21	14.23
678.241	1.23
678.272	10.23
678.302	7.23
678.333	18.23
678.363	2.23
678.394	-5.77
678.425	-4.77
678.455	1.23
678.486	1.23
678.517	0.23
678.547	13.23
678.578	5.23
678.608	-14.77
678.639	5.23
678.67	7.23
678.7	-1.77
678.731	-8.77
678.761	7.23
678.792	1.23
678.823	14.23
678.853	8.23
678.884	-7.77
678.914	-6.77
678.945	0.23
678.975	10.23
679.006	-1.77
679.037	10.23
679.067	21.23
679.098	4.23
679.128	-14.77
679.159	14.23
679.189	14.23
679.22	-6.77
679.25	-0.77
679.281	25.23
679.312	1.23
679.342	-2.77
679.373	20.23
679.403	15.23
679.434	11.23
679.464	10.23
679.495	11.23
679.525	8.23
679.556	0.23
679.586	5.23
679.617	13.23
679.647	4.23
679.678	4.23
679.708	-12.77
679.739	-10.77
679.769	12.23
679.8	-5.77
679.83	6.23
679.861	19.23
679.891	3.23
679.922	-14.77
679.952	-8.77
679.983	7.23
680.013	4.23
680.044	-7.77
680.074	8.23
680.105	3.23
680.135	4.23
680.165	21.23
680.196	-3.77
680.226	-3.77
680.257	0.23
680.287	16.23
680.318	-3.77
680.348	-2.77
680.379	31.23
680.409	22.23
680.439	5.23
680.47	-11.77
680.5	-5.77
680.531	0.23
680.561	12.23
680.592	20.23
680.622	14.23
680.652	6.23
680.683	18.23
680.713	2.23
680.744	3.23
680.774	3.23
680.804	22.23
680.835	-4.77
680.865	-9.77
680.896	22.23
680.926	25.23
680.956	-6.77
680.987	3.23
681.017	13.23
681.047	3.23
681.078	-6.77
681.108	3.23
681.139	-1.77
681.169	-5.77
681.199	5.23
681.23	15.23
681.26	14.23
681.29	23.23
681.321	18.23
681.351	14.23
681.381	-3.77
681.412	-2.77
681.442	8.23
681.472	14.23
681.503	13.23
681.533	11.23
681.563	-1.77
681.594	4.23
681.624	15.23
681.654	-18.77
681.685	0.23
681.715	14.23
681.745	23.23
681.775	-3.77
681.806	-0.77
681.836	17.23
681.866	-4.77
681.897	-10.77
681.927	6.23
681.957	-1.77
681.987	-6.77
682.018	11.23
682.048	6.23
682.078	9.23
682.109	17.23
682.139	16.23
682.169	4.23
682.199	3.23
682.23	-2.77
682.26	0.23
682.29	6.23
682.32	8.23
682.351	-9.77
682.381	-16.77
682.411	3.23
682.441	4.23
682.472	-3.77
682.502	-11.77
682.532	-9.77
682.562	4.23
682.592	11.23
682.623	6.23
682.653	1.23
682.683	0.23
682.713	28.23
682.743	3.23
682.774	2.23
682.804	17.23
682.834	30.23
682.864	16.23
682.894	-16.77
682.925	-0.77
682.955	-10.77
682.985	-8.77
683.015	5.23
683.045	7.23
683.076	-10.77
683.106	-1.77
683.136	4.23
683.166	-11.77
683.196	-5.77
683.226	3.23
683.257	6.23
683.287	-6.77
683.317	16.23
683.347	-6.77
683.377	-1.77
683.407	12.23
683.437	-2.77
683.468	23.23
683.498	-17.77
683.528	3.23
683.558	22.23
683.588	9.23
683.618	-15.77
683.648	-2.77
683.678	15.23
683.708	13.23
683.739	14.23
683.769	1.23
683.799	-3.77
683.829	9.23
683.859	31.23
683.889	14.23
683.919	2.23
683.949	13.23
683.979	10.23
684.009	11.23
684.039	24.23
684.07	5.23
684.1	17.23
684.13	4.23
684.16	-3.77
684.19	6.23
684.22	7.23
684.25	25.23
684.28	4.23
684.31	33.23
684.34	7.23
684.37	18.23
684.4	-2.77
684.43	18.23
684.46	21.23
684.49	11.23
684.52	14.23
684.55	6.23
684.58	8.23
684.61	13.23
684.64	7.23
684.67	-0.77
684.7	2.23
684.73	12.23
684.76	-0.77
684.79	24.23
684.82	10.23
684.85	-9.77
684.88	3.23
684.91	15.23
684.94	4.23
684.97	5.23
685	-14.77
685.03	-2.77
685.06	-0.77
685.09	-0.77
685.12	13.23
685.15	-21.77
685.18	5.23
685.21	13.23
685.24	10.23
685.27	9.23
685.3	-3.77
685.33	6.23
685.36	-1.77
685.39	5.23
685.42	4.23
685.45	5.23
685.48	-5.77
685.51	-6.77
685.54	20.23
685.569	4.23
685.599	18.23
685.629	9.23
685.659	6.23
685.689	-1.77
685.719	-7.77
685.749	5.23
685.779	9.23
685.809	18.23
685.839	4.23
685.869	11.23
685.898	10.23
685.928	3.23
685.958	-9.77
685.988	-0.77
686.018	-9.77
686.048	9.23
686.078	18.23
686.108	28.23
686.137	0.23
686.167	14.23
686.197	2.23
686.227	8.23
686.257	29.23
686.287	31.23
686.317	18.23
686.346	-2.77
686.376	-14.77
686.406	-4.77
686.436	10.23
686.466	9.23
686.496	12.23
686.525	7.23
686.555	7.23
686.585	22.23
686.615	26.23
686.645	11.23
686.675	30.23
686.704	9.23
686.734	1.23
686.764	-5.77
686.794	4.23
686.824	-7.77
686.853	7.23
686.883	27.23
686.913	12.23
686.943	15.23
686.973	10.23
687.002	12.23
687.032	8.23
687.062	5.23
687.092	19.23
687.121	12.23
687.151	6.23
687.181	2.23
687.211	24.23
687.24	8.23
687.27	14.23
687.3	9.23
687.33	21.23
687.359	-4.77
687.389	5.23
687.419	12.23
687.449	7.23
687.478	1.23
687.508	6.23
687.538	5.23
687.568	14.23
687.597	2.23
687.627	-4.77
687.657	12.23
687.686	12.23
687.716	18.23
687.746	-12.77
687.776	0.23
687.805	6.23
687.835	1.23
687.865	23.23
687.894	13.23
687.924	11.23
687.954	5.23
687.983	6.23
688.013	20.23
688.043	14.23
688.072	12.23
688.102	5.23
688.132	7.23
688.161	3.23
688.191	-3.77
688.221	26.23
688.25	24.23
688.28	13.23
688.31	-7.77
688.339	1.23
688.369	-11.77
688.399	-12.77
688.428	-2.77
688.458	3.23
688.488	6.23
688.517	4.23
688.547	-0.77
688.576	40.23
688.606	10.23
688.636	8.23
688.665	11.23
688.695	23.23
688.725	20.23
688.754	6.23
688.784	-11.77
688.813	18.23
688.843	4.23
688.873	-0.77
688.902	6.23
688.932	-0.77
688.961	5.23
688.991	20.23
689.02	18.23
689.05	0.23
689.08	6.23
689.109	-3.77
689.139	10.23
689.168	3.23
689.198	-1.77
689.227	-2.77
689.257	-10.77
689.287	17.23
689.316	0.23
689.346	14.23
689.375	0.23
689.405	12.23
689.434	8.23
689.464	12.23
689.493	3.23
689.523	5.23
689.552	2.23
689.582	0.23
689.611	4.23
689.641	10.23
689.67	4.23
689.7	12.23
689.73	23.23
689.759	9.23
689.789	27.23
689.818	1.23
689.848	-7.77
689.877	16.23
689.906	0.23
689.936	-3.77
689.965	28.23
689.995	7.23
690.024	16.23
690.054	8.23
690.083	0.23
690.113	-4.77
690.142	-0.77
690.172	10.23
690.201	4.23
690.231	0.23
690.26	21.23
690.29	15.23
690.319	28.23
690.348	-2.77
690.378	12.23
690.407	11.23
690.437	7.23
690.466	7.23
690.496	-2.77
690.525	8.23
690.555	8.23
690.584	-2.77
690.613	16.23
690.643	23.23
690.672	5.23
690.702	0.23
690.731	6.23
690.76	4.23
690.79	11.23
690.819	14.23
690.849	3.23
690.878	4.23
690.907	4.23
690.937	18.23
690.966	18.23
690.996	-8.77
691.025	-0.77
691.054	-5.77
691.084	14.23
691.113	12.23
691.142	20.23
691.172	16.23
691.201	18.23
691.23	9.23
691.26	28.23
691.289	3.23
691.319	-0.77
691.348	16.23
691.377	21.23
691.407	15.23
691.436	24.23
691.465	11.23
691.495	7.23
691.524	-6.77
691.553	1.23
691.583	2.23
691.612	16.23
691.641	9.23
691.67	-8.77
691.7	1.23
691.729	-12.77
691.758	2.23
691.788	14.23
691.817	6.23
691.846	9.23
691.876	1.23
691.905	-12.77
691.934	27.23
691.963	25.23
691.993	3.23
692.022	9.23
692.051	-3.77
692.081	18.23
692.11	29.23
692.139	16.23
692.168	24.23
692.198	26.23
692.227	2.23
692.256	11.23
692.285	-7.77
692.315	-1.77
692.344	8.23
692.373	7.23
692.402	-32.77
692.432	-16.77
692.461	-1.77
692.49	7.23
692.519	5.23
692.548	15.23
692.578	14.23
692.607	0.23
692.636	7.23
692.665	7.23
692.694	3.23
692.724	0.23
692.753	13.23
692.782	19.23
692.811	-5.77
692.84	1.23
692.87	15.23
692.899	1.23
692.928	4.23
692.957	23.23
692.986	16.23
693.016	7.23
693.045	-0.77
693.074	10.23
693.103	9.23
693.132	12.23
693.161	20.23
693.191	4.23
693.22	-1.77
693.249	10.23
693.278	15.23
693.307	29.23
693.336	7.23
693.365	-11.77
693.395	7.23
693.424	4.23
693.453	5.23
693.482	15.23
693.511	20.23
693.54	9.23
693.569	16.23
693.598	7.23
693.628	18.23
693.657	18.23
693.686	21.23
693.715	12.23
693.744	7.23
693.773	-6.77
693.802	-1.77
693.831	-9.77
693.86	16.23
693.889	-18.77
693.919	16.23
693.948	18.23
693.977	9.23
694.006	-2.77
694.035	4.23
694.064	-1.77
694.093	-0.77
694.122	-4.77
694.151	5.23
694.18	13.23
694.209	17.23
694.238	-4.77
694.267	15.23
694.296	10.23
694.325	5.23
694.354	16.23
694.383	8.23
694.412	15.23
694.441	8.23
694.471	0.23
694.5	-4.77
694.529	12.23
694.558	36.23
694.587	28.23
694.616	11.23
694.645	4.23
694.674	27.23
694.703	23.23
694.732	1.23
694.761	20.23
694.79	23.23
694.819	0.23
694.848	4.23
694.877	30.23
694.906	6.23
694.935	9.23
694.963	16.23
694.992	3.23
695.021	10.23
695.05	5.23
695.079	14.23
695.108	13.23
695.137	20.23
695.166	9.23
695.195	-11.77
695.224	-6.77
695.253	2.23
695.282	7.23
695.311	31.23
695.34	7.23
695.369	4.23
695.398	10.23
695.427	20.23
695.456	8.23
695.485	19.23
695.513	7.23
695.542	9.23
695.571	6.23
695.6	18.23
695.629	9.23
695.658	16.23
695.687	4.23
695.716	2.23
695.745	19.23
695.774	2.23
695.802	6.23
695.831	15.23
695.86	26.23
695.889	10.23
695.918	-4.77
695.947	11.23
695.976	8.23
696.005	4.23
696.033	12.23
696.062	12.23
696.091	11.23
696.12	-1.77
696.149	13.23
696.178	11.23
696.207	1.23
696.235	-5.77
696.264	-0.77
696.293	3.23
696.322	1.23
696.351	14.23
696.38	12.23
696.408	19.23
696.437	19.23
696.466	20.23
696.495	33.23
696.524	25.23
696.553	17.23
696.581	17.23
696.61	15.23
696.639	12.23
696.668	13.23
696.697	7.23
696.725	24.23
696.754	7.23
696.783	3.23
696.812	9.23
696.84	13.23
696.869	2.23
696.898	19.23
696.927	-13.77
696.956	10.23
696.984	8.23
697.013	11.23
697.042	12.23
697.071	13.23
697.099	21.23
697.128	19.23
697.157	11.23
697.186	12.23
697.214	0.23
697.243	7.23
697.272	8.23
697.301	6.23
697.329	3.23
697.358	9.23
697.387	33.23
697.415	12.23
697.444	-1.77
697.473	14.23
697.502	7.23
697.53	5.23
697.559	10.23
697.588	17.23
697.616	12.23
697.645	-6.77
697.674	23.23
697.703	18.23
697.731	12.23
697.76	14.23
697.789	8.23
697.817	16.23
697.846	24.23
697.875	1.23
697.903	21.23
697.932	15.23
697.961	14.23
697.989	15.23
698.018	17.23
698.047	23.23
698.075	13.23
698.104	-6.77
698.133	15.23
698.161	1.23
698.19	0.23
698.218	15.23
698.247	30.23
698.276	1.23
698.304	12.23
698.333	22.23
698.362	5.23
698.39	6.23
698.419	23.23
698.447	7.23
698.476	6.23
698.505	16.23
698.533	14.23
698.562	17.23
698.591	-1.77
698.619	-4.77
698.648	7.23
698.676	7.23
698.705	13.23
698.733	-3.77
698.762	20.23
698.791	12.23
698.819	3.23
698.848	15.23
698.876	15.23
698.905	12.23
698.933	9.23
698.962	3.23
698.991	22.23
699.019	11.23
699.048	10.23
699.076	18.23
699.105	5.23
699.133	6.23
699.162	7.23
699.19	34.23
699.219	31.23
699.248	2.23
699.276	-10.77
699.305	14.23
699.333	9.23
699.362	0.23
699.39	16.23
699.419	11.23
699.447	12.23
699.476	10.23
699.504	16.23
699.533	8.23
699.561	-2.77
699.59	15.23
699.618	-1.77
699.647	12.23
699.675	13.23
699.704	16.23
699.732	10.23
699.761	28.23
699.789	15.23
699.818	19.23
699.846	10.23
699.874	9.23
699.903	0.23
699.931	9.23
699.96	6.23
699.988	7.23
700.017	2.23
700.045	14.23
700.074	-0.77
700.102	10.23
700.13	5.23
700.159	2.23
700.187	0.23
700.216	3.23
700.244	0.23
700.273	8.23
700.301	11.23
700.329	34.23
700.358	31.23
700.386	6.23
700.415	-17.77
700.443	-2.77
700.472	-2.77
700.5	21.23
700.528	18.23
700.557	19.23
700.585	-0.77
700.614	6.23
700.642	22.23
700.67	22.23
700.699	15.23
700.727	4.23
700.755	9.23
700.784	12.23
700.812	1.23
700.841	25.23
700.869	2.23
700.897	-4.77
700.926	4.23
700.954	4.23
700.982	14.23
701.011	3.23
701.039	5.23
701.067	19.23
701.096	22.23
701.124	-1.77
701.152	13.23
701.181	-15.77
701.209	-1.77
701.237	-3.77
701.266	-7.77
701.294	-4.77
701.322	15.23
701.351	12.23
701.379	8.23
701.407	16.23
701.435	1.23
701.464	24.23
701.492	24.23
701.52	8.23
701.549	9.23
701.577	-1.77
701.605	0.23
701.634	6.23
701.662	7.23
701.69	-11.77
701.718	-1.77
701.747	15.23
701.775	16.23
701.803	4.23
701.831	20.23
701.86	-3.77
701.888	12.23
701.916	-3.77
701.944	11.23
701.973	-6.77
702.001	-4.77
702.029	-3.77
702.057	-5.77
702.086	0.23
702.114	11.23
702.142	5.23
702.17	0.23
702.199	5.23
702.227	13.23
702.255	21.23
702.283	23.23
702.311	14.23
702.34	7.23
702.368	-4.77
702.396	15.23
702.424	12.23
702.452	2.23
702.481	7.23
702.509	-0.77
702.537	7.23
702.565	0.23
702.593	7.23
702.621	20.23
702.65	11.23
702.678	12.23
702.706	0.23
702.734	6.23
702.762	2.23
702.79	7.23
702.819	6.23
702.847	11.23
702.875	23.23
702.903	15.23
702.931	-10.77
702.959	6.23
702.988	1.23
703.016	6.23
703.044	5.23
703.072	2.23
703.1	-7.77
703.128	3.23
703.156	8.23
703.184	7.23
703.212	28.23
703.241	9.23
703.269	0.23
703.297	1.23
703.325	1.23
703.353	1.23
703.381	-11.77
703.409	0.23
703.437	2.23
703.465	10.23
703.493	5.23
703.522	1.23
703.55	11.23
703.578	-1.77
703.606	-5.77
703.634	13.23
703.662	3.23
703.69	5.23
703.718	15.23
703.746	25.23
703.774	14.23
703.802	24.23
703.83	-7.77
703.858	8.23
703.886	-14.77
703.914	7.23
703.942	9.23
703.97	1.23
703.998	11.23
704.027	1.23
704.055	10.23
704.083	13.23
704.111	-9.77
704.139	4.23
704.167	2.23
704.195	2.23
704.223	1.23
704.251	1.23
704.279	9.23
704.307	11.23
704.335	-5.77
704.363	14.23
704.391	16.23
704.419	0.23
704.447	-0.77
704.475	9.23
704.503	2.23
704.531	4.23
704.558	15.23
704.586	6.23
704.614	7.23
704.642	7.23
704.67	-1.77
704.698	8.23
704.726	0.23
704.754	3.23
704.782	5.23
704.81	7.23
704.838	27.23
704.866	7.23
704.894	-2.77
704.922	2.23
704.95	14.23
704.978	6.23
705.006	-0.77
705.034	20.23
705.061	-8.77
705.089	3.23
705.117	3.23
705.145	-4.77
705.173	6.23
705.201	13.23
705.229	6.23
705.257	-3.77
705.285	16.23
705.313	30.23
705.34	1.23
705.368	4.23
705.396	10.23
705.424	11.23
705.452	-3.77
705.48	8.23
705.508	4.23
705.536	-1.77
705.563	6.23
705.591	12.23
705.619	14.23
705.647	2.23
705.675	13.23
705.703	14.23
705.731	1.23
705.758	-0.77
705.786	3.23
705.814	21.23
705.842	7.23
705.87	22.23
705.898	31.23
705.925	6.23
705.953	17.23
705.981	4.23
706.009	24.23
706.037	18.23
706.065	1.23
706.092	-14.77
706.12	6.23
706.148	-4.77
706.176	7.23
706.204	13.23
706.231	10.23
706.259	-11.77
706.287	-1.77
706.315	6.23
706.342	-1.77
706.37	25.23
706.398	21.23
706.426	11.23
706.454	-0.77
706.481	11.23
706.509	4.23
706.537	-8.77
706.565	15.23
706.592	1.23
706.62	9.23
706.648	8.23
706.676	-6.77
706.703	17.23
706.731	8.23
706.759	-8.77
706.787	7.23
706.814	4.23
706.842	9.23
706.87	9.23
706.897	-1.77
706.925	-9.77
706.953	22.23
706.981	29.23
707.008	9.23
707.036	11.23
707.064	8.23
707.091	5.23
707.119	31.23
707.147	18.23
707.174	-10.77
707.202	18.23
707.23	-12.77
707.258	7.23
707.285	-14.77
707.313	-11.77
707.341	-6.77
707.368	7.23
707.396	23.23
707.424	18.23
707.451	6.23
707.479	19.23
707.507	13.23
707.534	7.23
707.562	9.23
707.59	-0.77
707.617	-5.77
707.645	1.23
707.672	21.23
707.7	-0.77
707.728	9.23
707.755	13.23
707.783	8.23
707.811	-4.77
707.838	7.23
707.866	7.23
707.893	16.23
707.921	8.23
707.949	-16.77
707.976	11.23
708.004	12.23
708.031	9.23
708.059	-16.77
708.087	-0.77
708.114	-7.77
708.142	-1.77
708.169	-1.77
708.197	-2.77
708.225	-1.77
708.252	-0.77
708.28	15.23
708.307	-7.77
708.335	0.23
708.362	2.23
708.39	8.23
708.418	-1.77
708.445	-12.77
708.473	-6.77
708.5	8.23
708.528	7.23
708.555	-16.77
708.583	-5.77
708.61	0.23
708.638	7.23
708.665	9.23
708.693	4.23
708.72	1.23
708.748	-3.77
708.776	0.23
708.803	22.23
708.831	7.23
708.858	2.23
708.886	3.23
708.913	-8.77
708.941	-4.77
708.968	15.23
708.996	-8.77
709.023	31.23
709.051	-0.77
709.078	-3.77
709.105	6.23
709.133	8.23
709.16	0.23
709.188	13.23
709.215	11.23
709.243	12.23
709.27	-2.77
709.298	0.23
709.325	0.23
709.353	-6.77
709.38	7.23
709.408	28.23
709.435	6.23
709.462	11.23
709.49	-1.77
709.517	-8.77
709.545	4.23
709.572	3.23
709.6	4.23
709.627	8.23
709.655	0.23
709.682	9.23
709.709	-2.77
709.737	3.23
709.764	-9.77
709.792	18.23
709.819	11.23
709.846	10.23
709.874	7.23
709.901	18.23
709.929	17.23
709.956	6.23
709.983	0.23
710.011	0.23
710.038	3.23
710.066	4.23
710.093	6.23
710.12	8.23
710.148	-2.77
710.175	-10.77
710.202	-9.77
710.23	9.23
710.257	-7.77
710.284	2.23
710.312	5.23
710.339	0.23
710.366	-1.77
710.394	-18.77
710.421	-5.77
710.448	-0.77
710.476	-7.77
710.503	-2.77
710.53	19.23
710.558	16.23
710.585	-3.77
710.612	-10.77
710.64	1.23
710.667	3.23
710.694	8.23
710.722	-4.77
710.749	3.23
710.776	22.23
710.804	16.23
710.831	9.23
710.858	17.23
710.885	7.23
710.913	0.23
710.94	11.23
710.967	10.23
710.995	3.23
711.022	7.23
711.049	8.23
711.076	4.23
711.104	16.23
711.131	-0.77
711.158	-1.77
711.185	10.23
711.213	-13.77
711.24	-3.77
711.267	-11.77
711.294	-5.77
711.322	21.23
711.349	3.23
711.376	7.23
711.403	11.23
711.431	0.23
711.458	-3.77
711.485	6.23
711.512	15.23
711.54	-7.77
711.567	-10.77
711.594	3.23
711.621	8.23
711.648	18.23
711.676	4.23
711.703	-1.77
711.73	-9.77
711.757	-3.77
711.784	3.23
711.812	5.23
711.839	5.23
711.866	0.23
711.893	-4.77
711.92	21.23
711.947	9.23
711.975	7.23
712.002	-6.77
712.029	10.23
712.056	1.23
712.083	-6.77
712.11	-7.77
712.138	7.23
712.165	20.23
712.192	1.23
712.219	7.23
712.246	4.23
712.273	2.23
712.3	-9.77
712.328	8.23
712.355	19.23
712.382	1.23
712.409	14.23
712.436	4.23
712.463	13.23
712.49	5.23
712.517	-12.77
712.544	-0.77
712.572	5.23
712.599	-0.77
712.626	9.23
712.653	3.23
712.68	-0.77
712.707	8.23
712.734	15.23
712.761	-4.77
712.788	5.23
712.815	-3.77
712.842	13.23
712.87	-2.77
712.897	-8.77
712.924	-18.77
712.951	-3.77
712.978	-6.77
713.005	1.23
713.032	17.23
713.059	13.23
713.086	2.23
713.113	-5.77
713.14	-9.77
713.167	-1.77
713.194	11.23
713.221	-1.77
713.248	24.23
713.275	3.23
713.302	-6.77
713.329	-0.77
713.356	3.23
713.383	7.23
713.41	19.23
713.437	-0.77
713.464	-0.77
713.491	1.23
713.518	3.23
713.545	-4.77
713.572	-0.77
713.599	18.23
713.626	0.23
713.653	1.23
713.68	-3.77
713.707	-4.77
713.734	9.23
713.761	2.23
713.788	-1.77
713.815	23.23
713.842	15.23
713.869	6.23
713.896	3.23
713.923	1.23
713.95	-5.77
713.977	8.23
714.004	3.23
714.031	-7.77
714.058	-0.77
714.085	6.23
714.112	13.23
714.139	0.23
714.165	-10.77
714.192	-1.77
714.219	3.23
714.246	-0.77
714.273	-19.77
714.3	5.23
714.327	9.23
714.354	17.23
714.381	-0.77
714.408	-5.77
714.435	5.23
714.461	10.23
714.488	14.23
714.515	7.23
714.542	5.23
714.569	3.23
714.596	-7.77
714.623	-10.77
714.65	-10.77
714.677	6.23
714.703	11.23
714.73	8.23
714.757	17.23
714.784	2.23
714.811	-14.77
714.838	8.23
714.865	11.23
714.891	17.23
714.918	5.23
714.945	-6.77
714.972	0.23
714.999	0.23
715.026	-11.77
715.052	12.23
715.079	-0.77
715.106	-9.77
715.133	1.23
715.16	1.23
715.187	19.23
715.213	15.23
715.24	-0.77
715.267	7.23
715.294	-4.77
715.321	-4.77
715.347	11.23
715.374	12.23
715.401	6.23
715.428	-4.77
715.455	4.23
715.481	-0.77
715.508	4.23
715.535	1.23
715.562	15.23
715.588	1.23
715.615	8.23
715.642	6.23
715.669	15.23
715.695	4.23
715.722	1.23
715.749	20.23
715.776	24.23
715.802	-7.77
715.829	7.23
715.856	-0.77
715.883	5.23
715.909	-5.77
715.936	7.23
715.963	1.23
715.99	3.23
716.016	11.23
716.043	16.23
716.07	-5.77
716.096	-8.77
716.123	-5.77
716.15	3.23
716.177	5.23
716.203	8.23
716.23	6.23
716.257	13.23
716.283	11.23
716.31	-6.77
716.337	-0.77
716.363	-11.77
716.39	-0.77
716.417	20.23
716.443	-1.77
716.47	12.23
716.497	0.23
716.523	10.23
716.55	23.23
716.577	10.23
716.603	-2.77
716.63	0.23
716.657	8.23
716.683	-16.77
716.71	0.23
716.737	3.23
716.763	17.23
716.79	12.23
716.817	11.23
716.843	20.23
716.87	-11.77
716.897	-5.77
716.923	24.23
716.95	5.23
716.976	-0.77
717.003	8.23
717.03	0.23
717.056	6.23
717.083	6.23
717.109	17.23
717.136	12.23
717.163	-0.77
717.189	4.23
717.216	-14.77
717.242	4.23
717.269	-0.77
717.296	10.23
717.322	9.23
717.349	4.23
717.375	5.23
717.402	-0.77
717.428	8.23
717.455	20.23
717.481	-0.77
717.508	1.23
717.535	8.23
717.561	10.23
717.588	-8.77
717.614	9.23
717.641	15.23
717.667	5.23
717.694	4.23
717.72	12.23
717.747	1.23
717.773	-6.77
717.8	9.23
717.826	-4.77
717.853	4.23
717.88	3.23
717.906	4.23
717.933	11.23
717.959	8.23
717.986	10.23
718.012	-0.77
718.039	-3.77
718.065	14.23
718.092	11.23
718.118	14.23
718.144	7.23
718.171	11.23
718.197	10.23
718.224	4.23
718.25	1.23
718.277	5.23
718.303	5.23
718.33	-4.77
718.356	-13.77
718.383	-14.77
718.409	-2.77
718.436	9.23
718.462	11.23
718.489	-8.77
718.515	10.23
718.541	17.23
718.568	11.23
718.594	23.23
718.621	14.23
718.647	4.23
718.674	24.23
718.7	5.23
718.726	-1.77
718.753	9.23
718.779	12.23
718.806	12.23
718.832	-0.77
718.858	6.23
718.885	-5.77
718.911	3.23
718.938	22.23
718.964	-9.77
718.99	9.23
719.017	-3.77
719.043	4.23
719.07	5.23
719.096	-9.77
719.122	24.23
719.149	-3.77
719.175	12.23
719.201	11.23
719.228	6.23
719.254	1.23
719.281	-8.77
719.307	-0.77
719.333	6.23
719.36	15.23
719.386	12.23
719.412	10.23
719.439	-8.77
719.465	0.23
719.491	-10.77
719.518	9.23
719.544	1.23
719.57	23.23
719.597	9.23
719.623	1.23
719.649	9.23
719.675	-2.77
719.702	1.23
719.728	16.23
719.754	0.23
719.781	-8.77
719.807	8.23
719.833	26.23
719.86	-0.77
719.886	5.23
719.912	-0.77
719.938	-1.77
719.965	1.23
719.991	5.23
720.017	8.23
720.044	-3.77
720.07	5.23
720.096	23.23
720.122	5.23
720.149	4.23
720.175	19.23
720.201	8.23
720.227	15.23
720.254	15.23
720.28	1.23
720.306	-15.77
720.332	-0.77
720.359	0.23
720.385	16.23
720.411	3.23
720.437	-0.77
720.463	-9.77
720.49	16.23
720.516	-8.77
720.542	-19.77
720.568	-0.77
720.595	18.23
720.621	5.23
720.647	14.23
720.673	-3.77
720.699	6.23
720.725	14.23
720.752	8.23
720.778	16.23
720.804	3.23
720.83	8.23
720.856	-1.77
720.883	2.23
720.909	21.23
720.935	4.23
720.961	17.23
720.987	1.23
721.013	14.23
721.04	9.23
721.066	20.23
721.092	5.23
721.118	3.23
721.144	-2.77
721.17	-1.77
721.196	18.23
721.223	5.23
721.249	8.23
721.275	29.23
721.301	-0.77
721.327	8.23
721.353	0.23
721.379	15.23
721.405	12.23
721.432	16.23
721.458	6.23
721.484	5.23
721.51	-16.77
721.536	9.23
721.562	14.23
721.588	10.23
721.614	9.23
721.64	5.23
721.666	7.23
721.693	5.23
721.719	4.23
721.745	-12.77
721.771	-17.77
721.797	12.23
721.823	11.23
721.849	13.23
721.875	16.23
721.901	2.23
721.927	2.23
721.953	0.23
721.979	17.23
722.005	8.23
722.031	3.23
722.057	2.23
722.083	3.23
722.109	13.23
722.135	12.23
722.161	-1.77
722.187	3.23
722.214	0.23
722.24	8.23
722.266	-0.77
722.292	6.23
722.318	13.23
722.344	-5.77
722.37	15.23
722.396	22.23
722.422	13.23
722.448	12.23
722.474	-6.77
722.5	15.23
722.526	-3.77
722.552	-5.77
722.578	1.23
722.603	17.23
722.629	4.23
722.655	5.23
722.681	-1.77
722.707	-1.77
722.733	1.23
722.759	-3.77
722.785	16.23
722.811	9.23
722.837	10.23
722.863	6.23
722.889	22.23
722.915	6.23
722.941	9.23
722.967	20.23
722.993	25.23
723.019	-1.77
723.045	-8.77
723.071	-0.77
723.097	4.23
723.122	1.23
723.148	-18.77
723.174	-2.77
723.2	12.23
723.226	9.23
723.252	-0.77
723.278	5.23
723.304	4.23
723.33	17.23
723.356	5.23
723.381	-13.77
723.407	0.23
723.433	7.23
723.459	-1.77
723.485	-0.77
723.511	12.23
723.537	-8.77
723.563	5.23
723.588	5.23
723.614	16.23
723.64	9.23
723.666	-2.77
723.692	-1.77
723.718	0.23
723.744	3.23
723.769	-1.77
723.795	-2.77
723.821	15.23
723.847	-6.77
723.873	1.23
723.899	16.23
723.924	6.23
723.95	19.23
723.976	-4.77
724.002	-2.77
724.028	5.23
724.053	-4.77
724.079	4.23
724.105	12.23
724.131	4.23
724.157	-0.77
724.182	-2.77
724.208	15.23
724.234	17.23
724.26	-0.77
724.286	17.23
724.311	8.23
724.337	-2.77
724.363	-4.77
724.389	10.23
724.415	0.23
724.44	28.23
724.466	7.23
724.492	13.23
724.518	15.23
724.543	12.23
724.569	14.23
724.595	16.23
724.621	1.23
724.646	3.23
724.672	0.23
724.698	-10.77
724.723	-4.77
724.749	6.23
724.775	9.23
724.801	5.23
724.826	-0.77
724.852	-3.77
724.878	2.23
724.904	-4.77
724.929	18.23
724.955	-3.77
724.981	24.23
725.006	11.23
725.032	-2.77
725.058	0.23
725.083	8.23
725.109	3.23
725.135	7.23
725.161	0.23
725.186	-0.77
725.212	6.23
725.238	25.23
725.263	1.23
725.289	-5.77
725.315	0.23
725.34	5.23
725.366	6.23
725.392	-2.77
725.417	0.23
725.443	9.23
725.468	12.23
725.494	29.23
725.52	37.23
725.545	10.23
725.571	16.23
725.597	-0.77
725.622	4.23
725.648	15.23
725.674	7.23
725.699	15.23
725.725	9.23
725.75	24.23
725.776	13.23
725.802	2.23
725.827	14.23
725.853	4.23
725.878	5.23
725.904	-9.77
725.93	0.23
725.955	1.23
725.981	0.23
726.006	13.23
726.032	18.23
726.057	-2.77
726.083	-1.77
726.109	0.23
726.134	3.23
726.16	4.23
726.185	-7.77
726.211	3.23
726.236	3.23
726.262	4.23
726.288	11.23
726.313	17.23
726.339	7.23
726.364	7.23
726.39	16.23
726.415	12.23
726.441	3.23
726.466	-3.77
726.492	10.23
726.517	21.23
726.543	11.23
726.568	3.23
726.594	12.23
726.619	8.23
726.645	20.23
726.67	10.23
726.696	13.23
726.721	4.23
726.747	-2.77
726.772	12.23
726.798	4.23
726.823	18.23
726.849	1.23
726.874	14.23
726.9	29.23
726.925	10.23
726.951	-3.77
726.976	23.23
727.002	12.23
727.027	17.23
727.053	9.23
727.078	-2.77
727.104	13.23
727.129	3.23
727.155	5.23
727.18	8.23
727.205	22.23
727.231	4.23
727.256	6.23
727.282	5.23
727.307	7.23
727.333	9.23
727.358	-0.77
727.383	-1.77
727.409	-0.77
727.434	15.23
727.46	15.23
727.485	10.23
727.511	4.23
727.536	-11.77
727.561	3.23
727.587	6.23
727.612	-4.77
727.637	15.23
727.663	-6.77
727.688	14.23
727.714	5.23
727.739	-10.77
727.764	7.23
727.79	11.23
727.815	13.23
727.841	12.23
727.866	16.23
727.891	1.23
727.917	4.23
727.942	-7.77
727.967	4.23
727.993	-6.77
728.018	0.23
728.043	10.23
728.069	5.23
728.094	23.23
728.119	0.23
728.145	17.23
728.17	1.23
728.195	7.23
728.221	15.23
728.246	-2.77
728.271	-3.77
728.297	4.23
728.322	10.23
728.347	6.23
728.373	15.23
728.398	9.23
728.423	-4.77
728.448	15.23
728.474	7.23
728.499	4.23
728.524	1.23
728.55	-6.77
728.575	8.23
728.6	12.23
728.625	5.23
728.651	15.23
728.676	9.23
728.701	-0.77
728.727	9.23
728.752	1.23
728.777	12.23
728.802	-14.77
728.828	10.23
728.853	23.23
728.878	16.23
728.903	-2.77
728.929	-0.77
728.954	0.23
728.979	15.23
729.004	3.23
729.03	-1.77
729.055	23.23
729.08	-7.77
729.105	0.23
729.13	20.23
729.156	0.23
729.181	5.23
729.206	-31.77
729.231	1.23
729.256	13.23
729.282	16.23
729.307	-16.77
729.332	0.23
729.357	-0.77
729.382	0.23
729.408	-17.77
729.433	10.23
729.458	17.23
729.483	20.23
729.508	11.23
729.533	13.23
729.559	0.23
729.584	-3.77
729.609	29.23
729.634	12.23
729.659	18.23
729.684	1.23
729.71	20.23
729.735	7.23
729.76	-1.77
729.785	-4.77
729.81	18.23
729.835	3.23
729.86	0.23
729.886	10.23
729.911	7.23
729.936	-7.77
729.961	20.23
729.986	-2.77
730.011	8.23
730.036	-0.77
730.061	20.23
730.086	-1.77
730.112	3.23
730.137	31.23
730.162	19.23
730.187	-2.77
730.212	16.23
730.237	-0.77
730.262	-0.77
730.287	7.23
730.312	22.23
730.337	1.23
730.362	15.23
730.387	0.23
730.413	-2.77
730.438	7.23
730.463	4.23
730.488	-5.77
730.513	15.23
730.538	10.23
730.563	18.23
730.588	17.23
730.613	16.23
730.638	-4.77
730.663	-0.77
730.688	25.23
730.713	18.23
730.738	-0.77
730.763	10.23
730.788	-0.77
730.813	11.23
730.838	-8.77
730.863	-5.77
730.888	12.23
730.913	-2.77
730.938	-13.77
730.963	7.23
730.988	0.23
731.013	17.23
731.038	-8.77
731.063	-6.77
731.088	3.23
731.113	7.23
731.138	15.23
731.163	11.23
731.188	5.23
731.213	18.23
731.238	10.23
731.263	-12.77
731.288	0.23
731.313	12.23
731.338	0.23
731.363	10.23
731.388	-8.77
731.413	-6.77
731.438	20.23
731.463	17.23
731.487	-0.77
731.512	-6.77
731.537	-2.77
731.562	4.23
731.587	8.23
731.612	7.23
731.637	5.23
731.662	-8.77
731.687	-11.77
731.712	7.23
731.737	10.23
731.762	12.23
731.786	7.23
731.811	13.23
731.836	-0.77
731.861	3.23
731.886	5.23
731.911	12.23
731.936	7.23
731.961	-3.77
731.986	0.23
732.01	19.23
732.035	6.23
732.06	15.23
732.085	8.23
732.11	10.23
732.135	-12.77
732.16	-0.77
732.184	5.23
732.209	4.23
732.234	17.23
732.259	8.23
732.284	2.23
732.309	4.23
732.334	-0.77
732.358	-0.77
732.383	-4.77
732.408	-3.77
732.433	10.23
732.458	-3.77
732.482	-2.77
732.507	2.23
732.532	2.23
732.557	5.23
732.582	11.23
732.607	-3.77
732.631	-12.77
732.656	-13.77
732.681	-2.77
732.706	7.23
732.73	4.23
732.755	1.23
732.78	-3.77
732.805	16.23
732.83	1.23
732.854	6.23
732.879	18.23
732.904	-0.77
732.929	-8.77
732.953	13.23
732.978	0.23
733.003	-4.77
733.028	4.23
733.052	33.23
733.077	12.23
733.102	16.23
733.127	-3.77
733.151	-9.77
733.176	16.23
733.201	0.23
733.226	1.23
733.25	4.23
733.275	-6.77
733.3	12.23
733.324	8.23
733.349	11.23
733.374	28.23
733.399	0.23
733.423	2.23
733.448	-4.77
733.473	-8.77
733.497	6.23
733.522	7.23
733.547	9.23
733.571	12.23
733.596	9.23
733.621	11.23
733.646	-1.77
733.67	-0.77
733.695	-3.77
733.72	7.23
733.744	11.23
733.769	19.23
733.794	9.23
733.818	-0.77
733.843	-11.77
733.867	-11.77
733.892	5.23
733.917	3.23
733.941	11.23
733.966	1.23
733.991	6.23
734.015	8.23
734.04	1.23
734.065	19.23
734.089	22.23
734.114	-2.77
734.138	1.23
734.163	-14.77
734.188	17.23
734.212	18.23
734.237	7.23
734.261	-5.77
734.286	8.23
734.311	-0.77
734.335	-3.77
734.36	-2.77
734.384	5.23
734.409	13.23
734.434	0.23
734.458	7.23
734.483	-2.77
734.507	-21.77
734.532	-1.77
734.556	6.23
734.581	-6.77
734.606	-0.77
734.63	-7.77
734.655	17.23
734.679	-5.77
734.704	-3.77
734.728	3.23
734.753	-0.77
734.777	18.23
734.802	12.23
734.826	4.23
734.851	0.23
734.876	9.23
734.9	4.23
734.925	9.23
734.949	5.23
734.974	-1.77
734.998	34.23
735.023	6.23
735.047	-20.77
735.072	18.23
735.096	-13.77
735.121	-0.77
735.145	4.23
735.17	11.23
735.194	17.23
735.219	2.23
735.243	-7.77
735.268	4.23
735.292	5.23
735.317	7.23
735.341	1.23
735.365	-12.77
735.39	4.23
735.414	6.23
735.439	8.23
735.463	3.23
735.488	7.23
735.512	9.23
735.537	3.23
735.561	23.23
735.586	12.23
735.61	5.23
735.634	-12.77
735.659	11.23
735.683	35.23
735.708	-5.77
735.732	0.23
735.757	-1.77
735.781	4.23
735.805	7.23
735.83	-3.77
735.854	1.23
735.879	-0.77
735.903	16.23
735.927	20.23
735.952	8.23
735.976	-3.77
736.001	0.23
736.025	6.23
736.049	15.23
736.074	9.23
736.098	14.23
736.123	15.23
736.147	-2.77
736.171	4.23
736.196	3.23
736.22	-2.77
736.244	9.23
736.269	-0.77
736.293	4.23
736.317	10.23
736.342	14.23
736.366	4.23
736.39	3.23
736.415	-1.77
736.439	2.23
736.463	12.23
736.488	3.23
736.512	13.23
736.536	15.23
736.561	15.23
736.585	5.23
736.609	22.23
736.634	-3.77
736.658	13.23
736.682	3.23
736.707	7.23
736.731	7.23
736.755	-2.77
736.78	31.23
736.804	33.23
736.828	8.23
736.852	0.23
736.877	14.23
736.901	17.23
736.925	3.23
736.949	-3.77
736.974	6.23
736.998	0.23
737.022	16.23
737.047	1.23
737.071	-7.77
737.095	8.23
737.119	28.23
737.144	7.23
737.168	1.23
737.192	1.23
737.216	8.23
737.241	-1.77
737.265	11.23
737.289	-0.77
737.313	-1.77
737.337	3.23
737.362	22.23
737.386	-7.77
737.41	-9.77
737.434	11.23
737.459	15.23
737.483	30.23
737.507	20.23
737.531	15.23
737.555	6.23
737.58	7.23
737.604	3.23
737.628	-8.77
737.652	-2.77
737.676	4.23
737.701	-6.77
737.725	13.23
737.749	17.23
737.773	1.23
737.797	5.23
737.821	9.23
737.846	7.23
737.87	30.23
737.894	-0.77
737.918	-7.77
737.942	-2.77
737.966	13.23
737.99	9.23
738.015	16.23
738.039	22.23
738.063	4.23
738.087	4.23
738.111	9.23
738.135	24.23
738.159	-2.77
738.184	3.23
738.208	3.23
738.232	11.23
738.256	21.23
738.28	20.23
738.304	19.23
738.328	0.23
738.352	3.23
738.376	-2.77
738.4	15.23
738.425	13.23
738.449	-6.77
738.473	9.23
738.497	13.23
738.521	1.23
738.545	11.23
738.569	9.23
738.593	14.23
738.617	19.23
738.641	4.23
738.665	3.23
738.689	12.23
738.713	0.23
738.737	4.23
738.762	27.23
738.786	14.23
738.81	-12.77
738.834	1.23
738.858	-11.77
738.882	13.23
738.906	0.23
738.93	14.23
738.954	-2.77
738.978	-0.77
739.002	0.23
739.026	15.23
739.05	3.23
739.074	-4.77
739.098	25.23
739.122	15.23
739.146	20.23
739.17	11.23
739.194	8.23
739.218	1.23
739.242	8.23
739.266	0.23
739.29	16.23
739.314	11.23
739.338	-0.77
739.362	4.23
739.386	-0.77
739.41	-9.77
739.434	0.23
739.458	0.23
739.482	1.23
739.506	6.23
739.53	13.23
739.554	6.23
739.577	3.23
739.601	11.23
739.625	-2.77
739.649	8.23
739.673	-6.77
739.697	18.23
739.721	8.23
739.745	22.23
739.769	6.23
739.793	6.23
739.817	15.23
739.841	-4.77
739.865	25.23
739.889	-4.77
739.912	5.23
739.936	-6.77
739.96	-10.77
739.984	23.23
740.008	25.23
740.032	-3.77
740.056	17.23
740.08	1.23
740.104	-1.77
740.127	-0.77
740.151	12.23
740.175	13.23
740.199	22.23
740.223	63.23
740.247	23.23
740.271	14.23
740.295	0.23
740.318	-7.77
740.342	4.23
740.366	0.23
740.39	3.23
740.414	5.23
740.438	5.23
740.461	17.23
740.485	14.23
740.509	10.23
740.533	23.23
740.557	0.23
740.581	4.23
740.604	0.23
740.628	-8.77
740.652	17.23
740.676	7.23
740.7	13.23
740.723	9.23
740.747	-10.77
740.771	-8.77
740.795	1.23
740.819	7.23
740.842	10.23
740.866	20.23
740.89	4.23
740.914	8.23
740.938	-0.77
740.961	14.23
740.985	3.23
741.009	-4.77
741.033	16.23
741.056	10.23
741.08	1.23
741.104	2.23
741.128	-4.77
741.151	11.23
741.175	17.23
741.199	17.23
741.223	11.23
741.246	4.23
741.27	11.23
741.294	-0.77
741.318	-9.77
741.341	5.23
741.365	16.23
741.389	6.23
741.413	9.23
741.436	0.23
741.46	9.23
741.484	17.23
741.507	-5.77
741.531	16.23
741.555	29.23
741.579	10.23
741.602	11.23
741.626	13.23
741.65	4.23
741.673	3.23
741.697	16.23
741.721	-3.77
741.744	-11.77
741.768	0.23
741.792	13.23
741.815	7.23
741.839	26.23
741.863	14.23
741.886	15.23
741.91	8.23
741.934	-2.77
741.957	-10.77
741.981	4.23
742.005	-8.77
742.028	-6.77
742.052	5.23
742.075	11.23
742.099	13.23
742.123	-0.77
742.146	-4.77
742.17	-2.77
742.194	-5.77
742.217	-7.77
742.241	10.23
742.264	-2.77
742.288	21.23
742.312	25.23
742.335	5.23
742.359	23.23
742.382	25.23
742.406	23.23
742.43	5.23
742.453	7.23
742.477	4.23
742.5	8.23
742.524	-2.77
742.548	-3.77
742.571	7.23
742.595	-2.77
742.618	-4.77
742.642	-6.77
742.665	13.23
742.689	-1.77
742.712	6.23
742.736	-2.77
742.76	13.23
742.783	3.23
742.807	6.23
742.83	6.23
742.854	-9.77
742.877	1.23
742.901	-1.77
742.924	-8.77
742.948	-1.77
742.971	18.23
742.995	0.23
743.018	-8.77
743.042	-5.77
743.065	9.23
743.089	-1.77
743.112	-3.77
743.136	0.23
743.159	12.23
743.183	16.23
743.206	14.23
743.23	0.23
743.253	8.23
743.277	-0.77
743.3	-0.77
743.324	6.23
743.347	-2.77
743.371	10.23
743.394	13.23
743.418	8.23
743.441	16.23
743.465	23.23
743.488	10.23
743.512	-5.77
743.535	5.23
743.558	-5.77
743.582	16.23
743.605	7.23
743.629	12.23
743.652	22.23
743.676	15.23
743.699	14.23
743.723	10.23
743.746	8.23
743.769	11.23
743.793	17.23
743.816	8.23
743.84	18.23
743.863	-7.77
743.886	6.23
743.91	16.23
743.933	9.23
743.957	3.23
743.98	12.23
744.003	24.23
744.027	6.23
744.05	4.23
744.074	12.23
744.097	-7.77
744.12	16.23
744.144	-7.77
744.167	3.23
744.19	-4.77
744.214	4.23
744.237	-3.77
744.26	5.23
744.284	6.23
744.307	-14.77
744.331	12.23
744.354	4.23
744.377	-0.77
744.401	6.23
744.424	0.23
744.447	0.23
744.471	-1.77
