Data from HighRes_H2_15_09_11_07_2024_HR4C61891__131__15-11-09-501.txt Node

Date: Thu Nov 07 15:11:09 EST 2024
User: crc00042
Spectrometer: HR4C6189
Trigger mode: 4
Integration Time (sec): 1.000000E-1
Scans to average: 1
Electric dark correction enabled: true
Nonlinearity correction enabled: false
Boxcar width: 0
XAxis mode: Wavelengths
Number of Pixels in Spectrum: 3648
>>>>>Begin Spectral Data<<<<<
639.567	-39.77
639.602	-39.77
639.636	-39.77
639.67	-39.77
639.704	-16.77
639.738	2.23
639.773	6.23
639.807	-21.77
639.841	3.23
639.875	18.23
639.909	16.23
639.943	-13.77
639.978	1.23
640.012	6.23
640.046	-2.77
640.08	4.23
640.114	-9.77
640.148	-9.77
640.182	-5.77
640.217	3.23
640.251	27.23
640.285	6.23
640.319	-8.77
640.353	-1.77
640.387	1.23
640.421	3.23
640.455	-1.77
640.49	-12.77
640.524	-10.77
640.558	3.23
640.592	3.23
640.626	6.23
640.66	9.23
640.694	3.23
640.728	13.23
640.762	20.23
640.796	20.23
640.83	2.23
640.865	-8.77
640.899	-1.77
640.933	8.23
640.967	9.23
641.001	3.23
641.035	10.23
641.069	12.23
641.103	0.23
641.137	10.23
641.171	-17.77
641.205	11.23
641.239	-1.77
641.273	20.23
641.307	16.23
641.341	8.23
641.375	4.23
641.409	-4.77
641.443	5.23
641.477	3.23
641.511	14.23
641.545	-10.77
641.579	2.23
641.614	1.23
641.648	11.23
641.682	-8.77
641.716	-4.77
641.75	25.23
641.784	0.23
641.818	3.23
641.852	2.23
641.886	-0.77
641.919	31.23
641.953	-1.77
641.987	-12.77
642.021	6.23
642.055	10.23
642.089	-0.77
642.123	-16.77
642.157	4.23
642.191	2.23
642.225	-1.77
642.259	-10.77
642.293	13.23
642.327	-3.77
642.361	2.23
642.395	8.23
642.429	17.23
642.463	-7.77
642.497	12.23
642.531	-8.77
642.565	1.23
642.599	16.23
642.633	5.23
642.666	24.23
642.7	19.23
642.734	11.23
642.768	17.23
642.802	-1.77
642.836	0.23
642.87	2.23
642.904	4.23
642.938	15.23
642.972	-10.77
643.005	-9.77
643.039	15.23
643.073	1.23
643.107	28.23
643.141	12.23
643.175	19.23
643.209	5.23
643.243	-0.77
643.276	13.23
643.31	11.23
643.344	-7.77
643.378	7.23
643.412	23.23
643.446	7.23
643.48	8.23
643.513	4.23
643.547	-10.77
643.581	-9.77
643.615	8.23
643.649	-3.77
643.683	12.23
643.716	-4.77
643.75	3.23
643.784	-6.77
643.818	6.23
643.852	11.23
643.886	5.23
643.919	22.23
643.953	9.23
643.987	1.23
644.021	7.23
644.055	11.23
644.088	6.23
644.122	-3.77
644.156	-5.77
644.19	-7.77
644.224	-2.77
644.257	29.23
644.291	22.23
644.325	18.23
644.359	9.23
644.392	12.23
644.426	16.23
644.46	5.23
644.494	4.23
644.527	-7.77
644.561	8.23
644.595	-1.77
644.629	-8.77
644.662	7.23
644.696	17.23
644.73	10.23
644.764	3.23
644.797	-7.77
644.831	16.23
644.865	11.23
644.899	-3.77
644.932	11.23
644.966	-9.77
645	17.23
645.033	18.23
645.067	-6.77
645.101	0.23
645.135	9.23
645.168	8.23
645.202	17.23
645.236	3.23
645.269	15.23
645.303	0.23
645.337	-8.77
645.37	3.23
645.404	2.23
645.438	8.23
645.471	3.23
645.505	20.23
645.539	4.23
645.572	-7.77
645.606	-8.77
645.64	16.23
645.673	3.23
645.707	11.23
645.741	8.23
645.774	1.23
645.808	16.23
645.842	-3.77
645.875	8.23
645.909	2.23
645.943	2.23
645.976	11.23
646.01	-0.77
646.043	0.23
646.077	15.23
646.111	16.23
646.144	17.23
646.178	10.23
646.212	11.23
646.245	11.23
646.279	9.23
646.312	-4.77
646.346	1.23
646.38	-6.77
646.413	24.23
646.447	5.23
646.48	-9.77
646.514	19.23
646.547	12.23
646.581	-0.77
646.615	2.23
646.648	-0.77
646.682	4.23
646.715	4.23
646.749	6.23
646.782	-2.77
646.816	-1.77
646.85	13.23
646.883	-4.77
646.917	-4.77
646.95	-7.77
646.984	6.23
647.017	5.23
647.051	9.23
647.084	4.23
647.118	8.23
647.151	-2.77
647.185	8.23
647.218	0.23
647.252	8.23
647.285	-6.77
647.319	-6.77
647.353	12.23
647.386	14.23
647.42	-1.77
647.453	0.23
647.487	6.23
647.52	3.23
647.553	11.23
647.587	2.23
647.62	3.23
647.654	7.23
647.687	15.23
647.721	-11.77
647.754	10.23
647.788	27.23
647.821	7.23
647.855	9.23
647.888	13.23
647.922	15.23
647.955	8.23
647.989	-3.77
648.022	9.23
648.055	4.23
648.089	-12.77
648.122	29.23
648.156	5.23
648.189	7.23
648.223	-0.77
648.256	20.23
648.29	5.23
648.323	15.23
648.356	28.23
648.39	17.23
648.423	1.23
648.457	4.23
648.49	19.23
648.523	14.23
648.557	11.23
648.59	12.23
648.624	7.23
648.657	-4.77
648.69	21.23
648.724	13.23
648.757	8.23
648.791	7.23
648.824	8.23
648.857	18.23
648.891	-0.77
648.924	8.23
648.957	13.23
648.991	1.23
649.024	13.23
649.057	8.23
649.091	5.23
649.124	19.23
649.158	18.23
649.191	14.23
649.224	1.23
649.258	13.23
649.291	13.23
649.324	11.23
649.358	6.23
649.391	2.23
649.424	-2.77
649.458	-7.77
649.491	-5.77
649.524	-11.77
649.557	-14.77
649.591	-20.77
649.624	12.23
649.657	-6.77
649.691	15.23
649.724	6.23
649.757	-5.77
649.791	-14.77
649.824	21.23
649.857	3.23
649.89	15.23
649.924	-12.77
649.957	-4.77
649.99	-1.77
650.023	-0.77
650.057	0.23
650.09	3.23
650.123	-2.77
650.157	13.23
650.19	26.23
650.223	-0.77
650.256	-19.77
650.29	7.23
650.323	8.23
650.356	4.23
650.389	11.23
650.423	4.23
650.456	-3.77
650.489	2.23
650.522	12.23
650.555	22.23
650.589	17.23
650.622	4.23
650.655	17.23
650.688	12.23
650.721	26.23
650.755	28.23
650.788	4.23
650.821	1.23
650.854	-0.77
650.887	2.23
650.921	5.23
650.954	12.23
650.987	-8.77
651.02	9.23
651.053	-1.77
651.087	-10.77
651.12	16.23
651.153	6.23
651.186	-1.77
651.219	3.23
651.252	12.23
651.286	9.23
651.319	-4.77
651.352	-1.77
651.385	-3.77
651.418	4.23
651.451	21.23
651.484	20.23
651.518	-1.77
651.551	19.23
651.584	6.23
651.617	22.23
651.65	24.23
651.683	10.23
651.716	-7.77
651.749	-18.77
651.783	13.23
651.816	10.23
651.849	5.23
651.882	8.23
651.915	-5.77
651.948	13.23
651.981	-0.77
652.014	-7.77
652.047	-1.77
652.08	-3.77
652.114	3.23
652.147	5.23
652.18	10.23
652.213	35.23
652.246	13.23
652.279	-0.77
652.312	9.23
652.345	-7.77
652.378	10.23
652.411	28.23
652.444	18.23
652.477	19.23
652.51	9.23
652.543	-17.77
652.576	3.23
652.609	-8.77
652.642	-5.77
652.675	8.23
652.709	-7.77
652.742	17.23
652.775	0.23
652.808	10.23
652.841	-2.77
652.874	15.23
652.907	19.23
652.94	9.23
652.973	-8.77
653.006	-10.77
653.039	-11.77
653.072	10.23
653.105	-4.77
653.138	3.23
653.171	0.23
653.204	4.23
653.237	11.23
653.27	-24.77
653.303	13.23
653.336	4.23
653.368	-0.77
653.401	-7.77
653.434	-6.77
653.467	16.23
653.5	-10.77
653.533	1.23
653.566	4.23
653.599	15.23
653.632	8.23
653.665	6.23
653.698	0.23
653.731	6.23
653.764	5.23
653.797	7.23
653.83	13.23
653.863	4.23
653.896	3.23
653.929	-1.77
653.961	-3.77
653.994	2.23
654.027	-6.77
654.06	13.23
654.093	8.23
654.126	17.23
654.159	4.23
654.192	11.23
654.225	7.23
654.258	3.23
654.29	4.23
654.323	9.23
654.356	1.23
654.389	-2.77
654.422	11.23
654.455	7.23
654.488	7.23
654.521	-8.77
654.553	4.23
654.586	1.23
654.619	-20.77
654.652	4.23
654.685	8.23
654.718	14.23
654.751	9.23
654.783	6.23
654.816	25.23
654.849	9.23
654.882	1.23
654.915	-9.77
654.948	8.23
654.98	3.23
655.013	0.23
655.046	-0.77
655.079	5.23
655.112	2.23
655.144	-0.77
655.177	7.23
655.21	4.23
655.243	7.23
655.276	6.23
655.308	-11.77
655.341	-4.77
655.374	22.23
655.407	14.23
655.44	-4.77
655.472	13.23
655.505	27.23
655.538	1.23
655.571	14.23
655.603	16.23
655.636	19.23
655.669	25.23
655.702	8.23
655.734	9.23
655.767	16.23
655.8	31.23
655.833	20.23
655.865	21.23
655.898	22.23
655.931	29.23
655.964	49.23
655.996	54.23
656.029	70.23
656.062	52.23
656.095	78.23
656.127	77.23
656.16	110.23
656.193	138.23
656.225	195.23
656.258	286.23
656.291	520.23
656.324	1138.23
656.356	3412.23
656.389	7551.23
656.422	6050.23
656.454	2087.23
656.487	670.23
656.52	259.23
656.552	124.23
656.585	96.23
656.618	58.23
656.65	39.23
656.683	22.23
656.716	18.23
656.748	9.23
656.781	-1.77
656.814	6.23
656.846	3.23
656.879	13.23
656.912	16.23
656.944	-6.77
656.977	-2.77
657.01	1.23
657.042	-5.77
657.075	5.23
657.108	-3.77
657.14	18.23
657.173	10.23
657.205	20.23
657.238	10.23
657.271	2.23
657.303	-1.77
657.336	5.23
657.369	3.23
657.401	9.23
657.434	15.23
657.466	16.23
657.499	-11.77
657.532	1.23
657.564	16.23
657.597	-3.77
657.629	5.23
657.662	8.23
657.694	14.23
657.727	-1.77
657.76	15.23
657.792	-7.77
657.825	15.23
657.857	6.23
657.89	11.23
657.922	14.23
657.955	1.23
657.987	-5.77
658.02	9.23
658.053	16.23
658.085	-7.77
658.118	0.23
658.15	0.23
658.183	12.23
658.215	6.23
658.248	13.23
658.28	11.23
658.313	12.23
658.345	-1.77
658.378	2.23
658.41	-2.77
658.443	14.23
658.475	8.23
658.508	10.23
658.54	11.23
658.573	0.23
658.605	5.23
658.638	-8.77
658.67	4.23
658.703	5.23
658.735	-1.77
658.768	-4.77
658.8	-15.77
658.833	19.23
658.865	1.23
658.898	5.23
658.93	-2.77
658.963	6.23
658.995	-8.77
659.028	14.23
659.06	-1.77
659.092	5.23
659.125	-17.77
659.157	13.23
659.19	-8.77
659.222	5.23
659.255	-5.77
659.287	20.23
659.32	12.23
659.352	6.23
659.384	2.23
659.417	2.23
659.449	4.23
659.482	3.23
659.514	0.23
659.546	6.23
659.579	-3.77
659.611	7.23
659.644	-5.77
659.676	-3.77
659.708	-0.77
659.741	-3.77
659.773	9.23
659.806	2.23
659.838	20.23
659.87	4.23
659.903	6.23
659.935	6.23
659.967	-0.77
660	4.23
660.032	-23.77
660.065	9.23
660.097	4.23
660.129	-5.77
660.162	-8.77
660.194	13.23
660.226	13.23
660.259	0.23
660.291	-0.77
660.323	0.23
660.356	2.23
660.388	-1.77
660.42	-3.77
660.453	9.23
660.485	12.23
660.517	24.23
660.55	19.23
660.582	-9.77
660.614	6.23
660.647	5.23
660.679	-5.77
660.711	9.23
660.743	3.23
660.776	-9.77
660.808	2.23
660.84	-10.77
660.873	11.23
660.905	5.23
660.937	-4.77
660.969	5.23
661.002	-9.77
661.034	5.23
661.066	-4.77
661.099	19.23
661.131	24.23
661.163	-6.77
661.195	0.23
661.228	23.23
661.26	2.23
661.292	-11.77
661.324	12.23
661.357	2.23
661.389	9.23
661.421	-3.77
661.453	-9.77
661.485	11.23
661.518	13.23
661.55	-13.77
661.582	-21.77
661.614	6.23
661.647	-11.77
661.679	11.23
661.711	16.23
661.743	-5.77
661.775	-1.77
661.808	28.23
661.84	3.23
661.872	7.23
661.904	0.23
661.936	7.23
661.969	-3.77
662.001	-4.77
662.033	-19.77
662.065	-11.77
662.097	7.23
662.129	6.23
662.162	2.23
662.194	8.23
662.226	-3.77
662.258	8.23
662.29	19.23
662.322	-19.77
662.355	-4.77
662.387	29.23
662.419	22.23
662.451	14.23
662.483	3.23
662.515	3.23
662.547	-1.77
662.58	6.23
662.612	6.23
662.644	-11.77
662.676	-13.77
662.708	27.23
662.74	9.23
662.772	7.23
662.804	19.23
662.836	12.23
662.869	5.23
662.901	6.23
662.933	-4.77
662.965	5.23
662.997	6.23
663.029	-3.77
663.061	4.23
663.093	15.23
663.125	18.23
663.157	6.23
663.189	10.23
663.221	22.23
663.254	0.23
663.286	12.23
663.318	-3.77
663.35	7.23
663.382	8.23
663.414	1.23
663.446	4.23
663.478	-13.77
663.51	20.23
663.542	-2.77
663.574	6.23
663.606	20.23
663.638	-10.77
663.67	-1.77
663.702	-1.77
663.734	9.23
663.766	12.23
663.798	9.23
663.83	2.23
663.862	8.23
663.894	21.23
663.926	4.23
663.958	10.23
663.99	1.23
664.022	5.23
664.054	6.23
664.086	-11.77
664.118	1.23
664.15	2.23
664.182	6.23
664.214	15.23
664.246	22.23
664.278	0.23
664.31	21.23
664.342	7.23
664.374	3.23
664.406	-5.77
664.438	14.23
664.47	19.23
664.502	10.23
664.534	7.23
664.566	4.23
664.598	11.23
664.63	4.23
664.662	23.23
664.693	3.23
664.725	-10.77
664.757	-5.77
664.789	-6.77
664.821	6.23
664.853	-0.77
664.885	-0.77
664.917	-3.77
664.949	16.23
664.981	3.23
665.013	11.23
665.045	-9.77
665.076	6.23
665.108	18.23
665.14	10.23
665.172	0.23
665.204	-5.77
665.236	5.23
665.268	11.23
665.3	15.23
665.331	2.23
665.363	8.23
665.395	-14.77
665.427	7.23
665.459	19.23
665.491	-4.77
665.523	-2.77
665.555	-18.77
665.586	5.23
665.618	2.23
665.65	-18.77
665.682	23.23
665.714	7.23
665.746	13.23
665.777	20.23
665.809	-6.77
665.841	10.23
665.873	-18.77
665.905	2.23
665.937	5.23
665.968	9.23
666	6.23
666.032	4.23
666.064	-6.77
666.096	-1.77
666.127	10.23
666.159	24.23
666.191	16.23
666.223	-18.77
666.255	-4.77
666.286	6.23
666.318	-4.77
666.35	11.23
666.382	8.23
666.413	5.23
666.445	-4.77
666.477	-3.77
666.509	-4.77
666.54	8.23
666.572	0.23
666.604	13.23
666.636	14.23
666.667	13.23
666.699	11.23
666.731	5.23
666.763	-18.77
666.794	-1.77
666.826	0.23
666.858	-8.77
666.89	21.23
666.921	12.23
666.953	11.23
666.985	8.23
667.017	14.23
667.048	9.23
667.08	9.23
667.112	5.23
667.143	-4.77
667.175	-8.77
667.207	15.23
667.238	9.23
667.27	-2.77
667.302	-1.77
667.334	9.23
667.365	15.23
667.397	-5.77
667.429	-5.77
667.46	19.23
667.492	-2.77
667.524	13.23
667.555	-19.77
667.587	14.23
667.619	11.23
667.65	0.23
667.682	15.23
667.714	18.23
667.745	-0.77
667.777	8.23
667.808	13.23
667.84	10.23
667.872	1.23
667.903	18.23
667.935	-0.77
667.967	17.23
667.998	13.23
668.03	-1.77
668.061	16.23
668.093	20.23
668.125	6.23
668.156	14.23
668.188	-0.77
668.22	-18.77
668.251	5.23
668.283	17.23
668.314	17.23
668.346	2.23
668.377	1.23
668.409	-10.77
668.441	8.23
668.472	23.23
668.504	30.23
668.535	9.23
668.567	11.23
668.599	15.23
668.63	8.23
668.662	-4.77
668.693	5.23
668.725	4.23
668.756	-3.77
668.788	6.23
668.819	-7.77
668.851	8.23
668.882	6.23
668.914	-1.77
668.946	-7.77
668.977	-7.77
669.009	6.23
669.04	-3.77
669.072	-6.77
669.103	2.23
669.135	-4.77
669.166	5.23
669.198	19.23
669.229	12.23
669.261	-13.77
669.292	1.23
669.324	16.23
669.355	20.23
669.387	10.23
669.418	13.23
669.45	-20.77
669.481	2.23
669.513	16.23
669.544	5.23
669.576	-0.77
669.607	21.23
669.639	12.23
669.67	5.23
669.701	14.23
669.733	-9.77
669.764	-5.77
669.796	1.23
669.827	-5.77
669.859	-3.77
669.89	-1.77
669.922	8.23
669.953	11.23
669.985	19.23
670.016	20.23
670.047	7.23
670.079	-16.77
670.11	16.23
670.142	13.23
670.173	-0.77
670.204	-13.77
670.236	13.23
670.267	2.23
670.299	2.23
670.33	-1.77
670.362	15.23
670.393	6.23
670.424	9.23
670.456	-9.77
670.487	8.23
670.518	6.23
670.55	0.23
670.581	6.23
670.613	10.23
670.644	7.23
670.675	12.23
670.707	-2.77
670.738	1.23
670.769	19.23
670.801	-17.77
670.832	6.23
670.864	-7.77
670.895	12.23
670.926	-11.77
670.958	6.23
670.989	9.23
671.02	0.23
671.052	1.23
671.083	10.23
671.114	3.23
671.146	11.23
671.177	1.23
671.208	-12.77
671.24	-13.77
671.271	-0.77
671.302	9.23
671.333	-5.77
671.365	1.23
671.396	-3.77
671.427	14.23
671.459	13.23
671.49	6.23
671.521	4.23
671.553	5.23
671.584	21.23
671.615	1.23
671.646	18.23
671.678	5.23
671.709	-11.77
671.74	-20.77
671.771	-2.77
671.803	-3.77
671.834	3.23
671.865	5.23
671.896	0.23
671.928	-5.77
671.959	-6.77
671.99	-8.77
672.021	-7.77
672.053	-10.77
672.084	4.23
672.115	10.23
672.146	4.23
672.178	7.23
672.209	-6.77
672.24	3.23
672.271	35.23
672.303	2.23
672.334	-5.77
672.365	-4.77
672.396	3.23
672.427	13.23
672.459	11.23
672.49	25.23
672.521	20.23
672.552	2.23
672.583	8.23
672.615	0.23
672.646	0.23
672.677	-0.77
672.708	6.23
672.739	10.23
672.77	32.23
672.802	7.23
672.833	-0.77
672.864	4.23
672.895	-6.77
672.926	8.23
672.957	10.23
672.989	-1.77
673.02	23.23
673.051	9.23
673.082	5.23
673.113	-2.77
673.144	-2.77
673.175	-2.77
673.206	-1.77
673.238	9.23
673.269	5.23
673.3	-1.77
673.331	21.23
673.362	1.23
673.393	16.23
673.424	8.23
673.455	28.23
673.487	15.23
673.518	2.23
673.549	2.23
673.58	-0.77
673.611	13.23
673.642	5.23
673.673	-8.77
673.704	13.23
673.735	13.23
673.766	6.23
673.797	1.23
673.828	-5.77
673.86	-2.77
673.891	7.23
673.922	-16.77
673.953	-11.77
673.984	7.23
674.015	3.23
674.046	10.23
674.077	13.23
674.108	-3.77
674.139	-7.77
674.17	-5.77
674.201	-0.77
674.232	-8.77
674.263	-3.77
674.294	-11.77
674.325	-3.77
674.356	6.23
674.387	7.23
674.418	5.23
674.449	-6.77
674.48	-7.77
674.511	-9.77
674.542	8.23
674.573	-9.77
674.604	19.23
674.635	-2.77
674.666	16.23
674.697	7.23
674.728	1.23
674.759	13.23
674.79	-5.77
674.821	-5.77
674.852	4.23
674.883	1.23
674.914	8.23
674.945	9.23
674.976	2.23
675.007	-11.77
675.038	-10.77
675.069	-21.77
675.1	-16.77
675.131	2.23
675.162	-13.77
675.193	-5.77
675.224	6.23
675.254	6.23
675.285	21.23
675.316	20.23
675.347	13.23
675.378	0.23
675.409	6.23
675.44	10.23
675.471	7.23
675.502	-4.77
675.533	-3.77
675.564	3.23
675.595	-21.77
675.625	5.23
675.656	17.23
675.687	7.23
675.718	-13.77
675.749	8.23
675.78	13.23
675.811	5.23
675.842	10.23
675.873	1.23
675.903	4.23
675.934	0.23
675.965	-18.77
675.996	-1.77
676.027	10.23
676.058	10.23
676.089	-0.77
676.119	-8.77
676.15	10.23
676.181	10.23
676.212	13.23
676.243	3.23
676.274	-1.77
676.304	19.23
676.335	-16.77
676.366	7.23
676.397	-5.77
676.428	-1.77
676.459	17.23
676.489	19.23
676.52	8.23
676.551	-6.77
676.582	6.23
676.613	7.23
676.643	-0.77
676.674	12.23
676.705	9.23
676.736	4.23
676.767	5.23
676.797	3.23
676.828	9.23
676.859	-3.77
676.89	-6.77
676.92	-5.77
676.951	-7.77
676.982	3.23
677.013	2.23
677.044	9.23
677.074	-8.77
677.105	-18.77
677.136	4.23
677.167	2.23
677.197	2.23
677.228	-11.77
677.259	-13.77
677.289	7.23
677.32	-17.77
677.351	-8.77
677.382	-5.77
677.412	-9.77
677.443	3.23
677.474	-5.77
677.505	-6.77
677.535	-4.77
677.566	4.23
677.597	-17.77
677.627	-19.77
677.658	8.23
677.689	0.23
677.72	18.23
677.75	-9.77
677.781	-10.77
677.812	4.23
677.842	5.23
677.873	-1.77
677.904	3.23
677.934	5.23
677.965	-0.77
677.996	-27.77
678.026	-1.77
678.057	5.23
678.088	-17.77
678.118	-13.77
678.149	-5.77
678.18	-12.77
678.21	13.23
678.241	11.23
678.272	-3.77
678.302	5.23
678.333	-2.77
678.363	18.23
678.394	-0.77
678.425	2.23
678.455	4.23
678.486	-0.77
678.517	15.23
678.547	17.23
678.578	4.23
678.608	-19.77
678.639	5.23
678.67	12.23
678.7	-4.77
678.731	6.23
678.761	9.23
678.792	-9.77
678.823	21.23
678.853	21.23
678.884	-5.77
678.914	9.23
678.945	11.23
678.975	-11.77
679.006	2.23
679.037	-8.77
679.067	25.23
679.098	9.23
679.128	3.23
679.159	1.23
679.189	18.23
679.22	-15.77
679.25	19.23
679.281	6.23
679.312	-11.77
679.342	3.23
679.373	17.23
679.403	9.23
679.434	-7.77
679.464	1.23
679.495	6.23
679.525	6.23
679.556	7.23
679.586	16.23
679.617	5.23
679.647	12.23
679.678	7.23
679.708	5.23
679.739	2.23
679.769	4.23
679.8	-0.77
679.83	6.23
679.861	2.23
679.891	-5.77
679.922	-2.77
679.952	-4.77
679.983	0.23
680.013	15.23
680.044	9.23
680.074	8.23
680.105	7.23
680.135	15.23
680.165	7.23
680.196	3.23
680.226	10.23
680.257	-3.77
680.287	-13.77
680.318	20.23
680.348	-11.77
680.379	10.23
680.409	7.23
680.439	-6.77
680.47	-11.77
680.5	11.23
680.531	-6.77
680.561	4.23
680.592	15.23
680.622	2.23
680.652	1.23
680.683	20.23
680.713	9.23
680.744	-7.77
680.774	5.23
680.804	11.23
680.835	-10.77
680.865	-14.77
680.896	18.23
680.926	11.23
680.956	1.23
680.987	7.23
681.017	-18.77
681.047	13.23
681.078	-5.77
681.108	-0.77
681.139	-0.77
681.169	5.23
681.199	-4.77
681.23	-0.77
681.26	-1.77
681.29	14.23
681.321	-8.77
681.351	4.23
681.381	1.23
681.412	6.23
681.442	1.23
681.472	-1.77
681.503	0.23
681.533	-7.77
681.563	1.23
681.594	-10.77
681.624	6.23
681.654	5.23
681.685	-0.77
681.715	5.23
681.745	-5.77
681.775	0.23
681.806	4.23
681.836	-3.77
681.866	2.23
681.897	-7.77
681.927	13.23
681.957	-0.77
681.987	11.23
682.018	0.23
682.048	9.23
682.078	-9.77
682.109	14.23
682.139	19.23
682.169	24.23
682.199	15.23
682.23	-13.77
682.26	0.23
682.29	7.23
682.32	7.23
682.351	16.23
682.381	10.23
682.411	-1.77
682.441	-20.77
682.472	-1.77
682.502	1.23
682.532	-18.77
682.562	-6.77
682.592	-5.77
682.623	3.23
682.653	2.23
682.683	-6.77
682.713	0.23
682.743	-2.77
682.774	5.23
682.804	11.23
682.834	12.23
682.864	-0.77
682.894	9.23
682.925	2.23
682.955	5.23
682.985	4.23
683.015	3.23
683.045	8.23
683.076	-9.77
683.106	4.23
683.136	-5.77
683.166	-1.77
683.196	-12.77
683.226	-2.77
683.257	-5.77
683.287	-5.77
683.317	-10.77
683.347	-16.77
683.377	2.23
683.407	25.23
683.437	0.23
683.468	14.23
683.498	-6.77
683.528	7.23
683.558	8.23
683.588	-5.77
683.618	-7.77
683.648	-0.77
683.678	9.23
683.708	15.23
683.739	-8.77
683.769	6.23
683.799	3.23
683.829	3.23
683.859	12.23
683.889	23.23
683.919	-4.77
683.949	7.23
683.979	-4.77
684.009	6.23
684.039	3.23
684.07	-0.77
684.1	12.23
684.13	5.23
684.16	18.23
684.19	-6.77
684.22	9.23
684.25	-1.77
684.28	-11.77
684.31	26.23
684.34	13.23
684.37	4.23
684.4	-8.77
684.43	4.23
684.46	1.23
684.49	18.23
684.52	7.23
684.55	7.23
684.58	-1.77
684.61	5.23
684.64	0.23
684.67	21.23
684.7	2.23
684.73	7.23
684.76	7.23
684.79	17.23
684.82	-5.77
684.85	-14.77
684.88	7.23
684.91	-3.77
684.94	8.23
684.97	-12.77
685	1.23
685.03	-2.77
685.06	6.23
685.09	3.23
685.12	18.23
685.15	2.23
685.18	21.23
685.21	8.23
685.24	5.23
685.27	12.23
685.3	4.23
685.33	11.23
685.36	0.23
685.39	2.23
685.42	6.23
685.45	-10.77
685.48	-4.77
685.51	-5.77
685.54	10.23
685.569	1.23
685.599	11.23
685.629	20.23
685.659	4.23
685.689	6.23
685.719	-6.77
685.749	-6.77
685.779	4.23
685.809	10.23
685.839	18.23
685.869	16.23
685.898	2.23
685.928	8.23
685.958	18.23
685.988	25.23
686.018	0.23
686.048	8.23
686.078	4.23
686.108	6.23
686.137	10.23
686.167	11.23
686.197	-10.77
686.227	-0.77
686.257	21.23
686.287	16.23
686.317	7.23
686.346	2.23
686.376	-2.77
686.406	-8.77
686.436	9.23
686.466	-3.77
686.496	6.23
686.525	2.23
686.555	-1.77
686.585	17.23
686.615	26.23
686.645	11.23
686.675	6.23
686.704	-2.77
686.734	17.23
686.764	-0.77
686.794	6.23
686.824	2.23
686.853	5.23
686.883	8.23
686.913	5.23
686.943	7.23
686.973	1.23
687.002	12.23
687.032	10.23
687.062	-10.77
687.092	5.23
687.121	15.23
687.151	3.23
687.181	0.23
687.211	6.23
687.24	-3.77
687.27	-7.77
687.3	6.23
687.33	6.23
687.359	-20.77
687.389	-0.77
687.419	9.23
687.449	-5.77
687.478	5.23
687.508	9.23
687.538	17.23
687.568	-3.77
687.597	-7.77
687.627	12.23
687.657	7.23
687.686	10.23
687.716	20.23
687.746	-9.77
687.776	-3.77
687.805	5.23
687.835	7.23
687.865	13.23
687.894	5.23
687.924	-17.77
687.954	16.23
687.983	4.23
688.013	22.23
688.043	-1.77
688.072	7.23
688.102	-2.77
688.132	-8.77
688.161	-1.77
688.191	1.23
688.221	18.23
688.25	-7.77
688.28	-0.77
688.31	12.23
688.339	9.23
688.369	-1.77
688.399	-1.77
688.428	-3.77
688.458	5.23
688.488	-2.77
688.517	8.23
688.547	-5.77
688.576	28.23
688.606	14.23
688.636	6.23
688.665	7.23
688.695	13.23
688.725	12.23
688.754	18.23
688.784	-3.77
688.813	5.23
688.843	-1.77
688.873	-1.77
688.902	5.23
688.932	4.23
688.961	11.23
688.991	2.23
689.02	6.23
689.05	5.23
689.08	3.23
689.109	1.23
689.139	6.23
689.168	6.23
689.198	7.23
689.227	-2.77
689.257	10.23
689.287	20.23
689.316	-0.77
689.346	-2.77
689.375	-17.77
689.405	11.23
689.434	-1.77
689.464	-4.77
689.493	5.23
689.523	-2.77
689.552	10.23
689.582	18.23
689.611	16.23
689.641	15.23
689.67	-4.77
689.7	2.23
689.73	10.23
689.759	17.23
689.789	13.23
689.818	-0.77
689.848	7.23
689.877	29.23
689.906	3.23
689.936	-7.77
689.965	10.23
689.995	12.23
690.024	-5.77
690.054	9.23
690.083	7.23
690.113	-9.77
690.142	2.23
690.172	-0.77
690.201	-1.77
690.231	-0.77
690.26	23.23
690.29	2.23
690.319	23.23
690.348	-4.77
690.378	7.23
690.407	1.23
690.437	4.23
690.466	-11.77
690.496	5.23
690.525	9.23
690.555	-0.77
690.584	3.23
690.613	-4.77
690.643	9.23
690.672	5.23
690.702	4.23
690.731	15.23
690.76	15.23
690.79	7.23
690.819	-2.77
690.849	3.23
690.878	-0.77
690.907	5.23
690.937	20.23
690.966	12.23
690.996	-2.77
691.025	8.23
691.054	10.23
691.084	5.23
691.113	7.23
691.142	15.23
691.172	18.23
691.201	14.23
691.23	23.23
691.26	26.23
691.289	6.23
691.319	8.23
691.348	9.23
691.377	9.23
691.407	3.23
691.436	19.23
691.465	4.23
691.495	-6.77
691.524	-9.77
691.553	-7.77
691.583	-1.77
691.612	2.23
691.641	6.23
691.67	10.23
691.7	2.23
691.729	5.23
691.758	2.23
691.788	8.23
691.817	2.23
691.846	-4.77
691.876	-0.77
691.905	12.23
691.934	0.23
691.963	17.23
691.993	22.23
692.022	6.23
692.051	-7.77
692.081	4.23
692.11	18.23
692.139	10.23
692.168	22.23
692.198	22.23
692.227	7.23
692.256	12.23
692.285	-1.77
692.315	-9.77
692.344	-13.77
692.373	-11.77
692.402	-9.77
692.432	-1.77
692.461	12.23
692.49	-0.77
692.519	-4.77
692.548	19.23
692.578	16.23
692.607	-2.77
692.636	3.23
692.665	18.23
692.694	6.23
692.724	-5.77
692.753	21.23
692.782	6.23
692.811	10.23
692.84	23.23
692.87	20.23
692.899	-1.77
692.928	1.23
692.957	-4.77
692.986	10.23
693.016	-7.77
693.045	5.23
693.074	20.23
693.103	3.23
693.132	22.23
693.161	7.23
693.191	5.23
693.22	-9.77
693.249	-8.77
693.278	5.23
693.307	17.23
693.336	-12.77
693.365	-12.77
693.395	3.23
693.424	18.23
693.453	9.23
693.482	8.23
693.511	16.23
693.54	16.23
693.569	2.23
693.598	15.23
693.628	19.23
693.657	8.23
693.686	36.23
693.715	13.23
693.744	17.23
693.773	8.23
693.802	10.23
693.831	-5.77
693.86	38.23
693.889	3.23
693.919	0.23
693.948	7.23
693.977	12.23
694.006	6.23
694.035	2.23
694.064	-8.77
694.093	1.23
694.122	-1.77
694.151	-6.77
694.18	10.23
694.209	16.23
694.238	-0.77
694.267	18.23
694.296	4.23
694.325	12.23
694.354	11.23
694.383	-1.77
694.412	13.23
694.441	10.23
694.471	-6.77
694.5	6.23
694.529	14.23
694.558	38.23
694.587	5.23
694.616	1.23
694.645	5.23
694.674	26.23
694.703	18.23
694.732	7.23
694.761	6.23
694.79	22.23
694.819	1.23
694.848	1.23
694.877	17.23
694.906	29.23
694.935	6.23
694.963	26.23
694.992	3.23
695.021	13.23
695.05	12.23
695.079	2.23
695.108	5.23
695.137	25.23
695.166	17.23
695.195	-7.77
695.224	4.23
695.253	12.23
695.282	9.23
695.311	32.23
695.34	18.23
695.369	6.23
695.398	13.23
695.427	16.23
695.456	12.23
695.485	17.23
695.513	7.23
695.542	5.23
695.571	7.23
695.6	15.23
695.629	6.23
695.658	-3.77
695.687	13.23
695.716	22.23
695.745	18.23
695.774	-5.77
695.802	-3.77
695.831	26.23
695.86	4.23
695.889	9.23
695.918	-3.77
695.947	-5.77
695.976	1.23
696.005	-2.77
696.033	-0.77
696.062	25.23
696.091	16.23
696.12	7.23
696.149	25.23
696.178	3.23
696.207	4.23
696.235	-0.77
696.264	2.23
696.293	14.23
696.322	15.23
696.351	1.23
696.38	3.23
696.408	7.23
696.437	20.23
696.466	8.23
696.495	28.23
696.524	13.23
696.553	10.23
696.581	3.23
696.61	-8.77
696.639	-6.77
696.668	13.23
696.697	-8.77
696.725	6.23
696.754	3.23
696.783	2.23
696.812	14.23
696.84	24.23
696.869	15.23
696.898	3.23
696.927	6.23
696.956	14.23
696.984	20.23
697.013	17.23
697.042	3.23
697.071	4.23
697.099	34.23
697.128	4.23
697.157	2.23
697.186	-8.77
697.214	5.23
697.243	-5.77
697.272	-6.77
697.301	5.23
697.329	4.23
697.358	12.23
697.387	31.23
697.415	18.23
697.444	14.23
697.473	7.23
697.502	-13.77
697.53	21.23
697.559	5.23
697.588	6.23
697.616	7.23
697.645	14.23
697.674	21.23
697.703	2.23
697.731	14.23
697.76	4.23
697.789	-6.77
697.817	-2.77
697.846	16.23
697.875	2.23
697.903	28.23
697.932	27.23
697.961	22.23
697.989	24.23
698.018	10.23
698.047	-2.77
698.075	5.23
698.104	-2.77
698.133	-7.77
698.161	2.23
698.19	-1.77
698.218	5.23
698.247	17.23
698.276	3.23
698.304	15.23
698.333	13.23
698.362	12.23
698.39	6.23
698.419	10.23
698.447	-4.77
698.476	13.23
698.505	19.23
698.533	11.23
698.562	9.23
698.591	-2.77
698.619	-2.77
698.648	9.23
698.676	18.23
698.705	-11.77
698.733	-6.77
698.762	10.23
698.791	6.23
698.819	-1.77
698.848	2.23
698.876	12.23
698.905	8.23
698.933	14.23
698.962	7.23
698.991	-7.77
699.019	12.23
699.048	1.23
699.076	5.23
699.105	5.23
699.133	1.23
699.162	22.23
699.19	17.23
699.219	2.23
699.248	13.23
699.276	-4.77
699.305	1.23
699.333	9.23
699.362	-6.77
699.39	22.23
699.419	-4.77
699.447	-3.77
699.476	5.23
699.504	1.23
699.533	-11.77
699.561	-0.77
699.59	20.23
699.618	14.23
699.647	12.23
699.675	2.23
699.704	6.23
699.732	6.23
699.761	21.23
699.789	17.23
699.818	7.23
699.846	11.23
699.874	-0.77
699.903	4.23
699.931	8.23
699.96	12.23
699.988	7.23
700.017	8.23
700.045	1.23
700.074	2.23
700.102	-2.77
700.13	-2.77
700.159	0.23
700.187	14.23
700.216	8.23
700.244	-1.77
700.273	5.23
700.301	6.23
700.329	4.23
700.358	20.23
700.386	-5.77
700.415	3.23
700.443	6.23
700.472	-9.77
700.5	-9.77
700.528	11.23
700.557	0.23
700.585	9.23
700.614	3.23
700.642	3.23
700.67	26.23
700.699	17.23
700.727	5.23
700.755	-1.77
700.784	-3.77
700.812	3.23
700.841	4.23
700.869	10.23
700.897	-22.77
700.926	6.23
700.954	9.23
700.982	14.23
701.011	-1.77
701.039	-0.77
701.067	-7.77
701.096	12.23
701.124	-10.77
701.152	-1.77
701.181	-3.77
701.209	-16.77
701.237	1.23
701.266	0.23
701.294	-0.77
701.322	25.23
701.351	23.23
701.379	3.23
701.407	12.23
701.435	14.23
701.464	27.23
701.492	26.23
701.52	-16.77
701.549	-4.77
701.577	-10.77
701.605	2.23
701.634	25.23
701.662	17.23
701.69	-9.77
701.718	-1.77
701.747	8.23
701.775	10.23
701.803	-7.77
701.831	14.23
701.86	-9.77
701.888	7.23
701.916	-1.77
701.944	13.23
701.973	0.23
702.001	5.23
702.029	10.23
702.057	-0.77
702.086	0.23
702.114	-13.77
702.142	-8.77
702.17	-5.77
702.199	-5.77
702.227	-0.77
702.255	-2.77
702.283	-2.77
702.311	6.23
702.34	-2.77
702.368	-5.77
702.396	-1.77
702.424	6.23
702.452	-1.77
702.481	-3.77
702.509	3.23
702.537	13.23
702.565	-2.77
702.593	-16.77
702.621	1.23
702.65	14.23
702.678	12.23
702.706	6.23
702.734	-10.77
702.762	-2.77
702.79	11.23
702.819	13.23
702.847	15.23
702.875	7.23
702.903	9.23
702.931	2.23
702.959	-7.77
702.988	-5.77
703.016	-2.77
703.044	-2.77
703.072	10.23
703.1	-1.77
703.128	1.23
703.156	16.23
703.184	5.23
703.212	11.23
703.241	-4.77
703.269	-9.77
703.297	3.23
703.325	7.23
703.353	-6.77
703.381	-8.77
703.409	1.23
703.437	-4.77
703.465	2.23
703.493	-23.77
703.522	-4.77
703.55	7.23
703.578	12.23
703.606	1.23
703.634	15.23
703.662	-8.77
703.69	12.23
703.718	7.23
703.746	24.23
703.774	22.23
703.802	24.23
703.83	10.23
703.858	9.23
703.886	-6.77
703.914	-9.77
703.942	21.23
703.97	7.23
703.998	2.23
704.027	28.23
704.055	29.23
704.083	-11.77
704.111	2.23
704.139	-17.77
704.167	1.23
704.195	5.23
704.223	-6.77
704.251	-2.77
704.279	11.23
704.307	-4.77
704.335	-5.77
704.363	8.23
704.391	-0.77
704.419	4.23
704.447	-0.77
704.475	3.23
704.503	-4.77
704.531	15.23
704.558	22.23
704.586	25.23
704.614	7.23
704.642	12.23
704.67	-2.77
704.698	-2.77
704.726	18.23
704.754	18.23
704.782	20.23
704.81	-1.77
704.838	14.23
704.866	10.23
704.894	-5.77
704.922	-7.77
704.95	3.23
704.978	4.23
705.006	5.23
705.034	9.23
705.061	-13.77
705.089	-19.77
705.117	-13.77
705.145	-5.77
705.173	-12.77
705.201	-7.77
705.229	13.23
705.257	10.23
705.285	10.23
705.313	4.23
705.34	18.23
705.368	0.23
705.396	0.23
705.424	-0.77
705.452	-6.77
705.48	-2.77
705.508	-6.77
705.536	0.23
705.563	-1.77
705.591	4.23
705.619	5.23
705.647	-1.77
705.675	-3.77
705.703	21.23
705.731	6.23
705.758	12.23
705.786	1.23
705.814	20.23
705.842	6.23
705.87	10.23
705.898	18.23
705.925	-1.77
705.953	15.23
705.981	-9.77
706.009	13.23
706.037	-18.77
706.065	14.23
706.092	10.23
706.12	9.23
706.148	2.23
706.176	3.23
706.204	9.23
706.231	-1.77
706.259	5.23
706.287	2.23
706.315	2.23
706.342	-9.77
706.37	22.23
706.398	10.23
706.426	-0.77
706.454	3.23
706.481	18.23
706.509	-0.77
706.537	-5.77
706.565	-1.77
706.592	20.23
706.62	2.23
706.648	5.23
706.676	-14.77
706.703	-7.77
706.731	6.23
706.759	-11.77
706.787	-0.77
706.814	15.23
706.842	-2.77
706.87	4.23
706.897	9.23
706.925	1.23
706.953	15.23
706.981	13.23
707.008	5.23
707.036	13.23
707.064	-12.77
707.091	-28.77
707.119	14.23
707.147	-11.77
707.174	-17.77
707.202	-1.77
707.23	-8.77
707.258	-5.77
707.285	-27.77
707.313	7.23
707.341	5.23
707.368	-2.77
707.396	9.23
707.424	31.23
707.451	0.23
707.479	-2.77
707.507	9.23
707.534	-1.77
707.562	7.23
707.59	-1.77
707.617	-3.77
707.645	-8.77
707.672	0.23
707.7	10.23
707.728	16.23
707.755	2.23
707.783	-7.77
707.811	17.23
707.838	-10.77
707.866	6.23
707.893	4.23
707.921	1.23
707.949	-6.77
707.976	-3.77
708.004	4.23
708.031	-8.77
708.059	-5.77
708.087	11.23
708.114	-11.77
708.142	-4.77
708.169	1.23
708.197	-17.77
708.225	-0.77
708.252	0.23
708.28	18.23
708.307	4.23
708.335	6.23
708.362	0.23
708.39	-4.77
708.418	-0.77
708.445	1.23
708.473	-2.77
708.5	5.23
708.528	16.23
708.555	-2.77
708.583	-4.77
708.61	-4.77
708.638	12.23
708.665	-11.77
708.693	6.23
708.72	-9.77
708.748	-16.77
708.776	11.23
708.803	14.23
708.831	14.23
708.858	1.23
708.886	-13.77
708.913	-0.77
708.941	-4.77
708.968	23.23
708.996	-1.77
709.023	38.23
709.051	10.23
709.078	-12.77
709.105	1.23
709.133	7.23
709.16	-0.77
709.188	3.23
709.215	14.23
709.243	11.23
709.27	-0.77
709.298	-7.77
709.325	-1.77
709.353	3.23
709.38	13.23
709.408	19.23
709.435	2.23
709.462	15.23
709.49	10.23
709.517	-1.77
709.545	-13.77
709.572	-2.77
709.6	-9.77
709.627	2.23
709.655	-9.77
709.682	1.23
709.709	-2.77
709.737	-3.77
709.764	-6.77
709.792	7.23
709.819	4.23
709.846	-3.77
709.874	23.23
709.901	29.23
709.929	32.23
709.956	13.23
709.983	-1.77
710.011	4.23
710.038	12.23
710.066	11.23
710.093	20.23
710.12	7.23
710.148	-11.77
710.175	-12.77
710.202	-5.77
710.23	19.23
710.257	7.23
710.284	6.23
710.312	11.23
710.339	2.23
710.366	2.23
710.394	11.23
710.421	9.23
710.448	3.23
710.476	-9.77
710.503	-0.77
710.53	12.23
710.558	15.23
710.585	6.23
710.612	-5.77
710.64	3.23
710.667	-3.77
710.694	-12.77
710.722	-8.77
710.749	-6.77
710.776	4.23
710.804	24.23
710.831	-0.77
710.858	9.23
710.885	-11.77
710.913	7.23
710.94	21.23
710.967	-2.77
710.995	-0.77
711.022	-1.77
711.049	11.23
711.076	-13.77
711.104	-1.77
711.131	-11.77
711.158	12.23
711.185	15.23
711.213	-13.77
711.24	-8.77
711.267	-6.77
711.294	-10.77
711.322	3.23
711.349	-3.77
711.376	-15.77
711.403	22.23
711.431	7.23
711.458	2.23
711.485	-8.77
711.512	1.23
711.54	-3.77
711.567	-4.77
711.594	-5.77
711.621	5.23
711.648	-0.77
711.676	2.23
711.703	21.23
711.73	3.23
711.757	17.23
711.784	1.23
711.812	-1.77
711.839	0.23
711.866	-18.77
711.893	-13.77
711.92	0.23
711.947	1.23
711.975	20.23
712.002	10.23
712.029	24.23
712.056	10.23
712.083	20.23
712.11	3.23
712.138	10.23
712.165	-1.77
712.192	-1.77
712.219	-8.77
712.246	-8.77
712.273	-4.77
712.3	-15.77
712.328	-3.77
712.355	-1.77
712.382	3.23
712.409	13.23
712.436	-8.77
712.463	2.23
712.49	18.23
712.517	-1.77
712.544	-3.77
712.572	-15.77
712.599	-4.77
712.626	-2.77
712.653	-4.77
712.68	-6.77
712.707	1.23
712.734	27.23
712.761	-5.77
712.788	-4.77
712.815	-3.77
712.842	2.23
712.87	-5.77
712.897	-6.77
712.924	-8.77
712.951	5.23
712.978	14.23
713.005	6.23
713.032	2.23
713.059	-5.77
713.086	-12.77
713.113	-5.77
713.14	-0.77
713.167	15.23
713.194	8.23
713.221	5.23
713.248	4.23
713.275	1.23
713.302	1.23
713.329	7.23
713.356	6.23
713.383	0.23
713.41	15.23
713.437	-2.77
713.464	3.23
713.491	12.23
713.518	-8.77
713.545	-10.77
713.572	3.23
713.599	3.23
713.626	-6.77
713.653	23.23
713.68	1.23
713.707	-5.77
713.734	10.23
713.761	-0.77
713.788	-3.77
713.815	16.23
713.842	15.23
713.869	4.23
713.896	-2.77
713.923	-4.77
713.95	-12.77
713.977	-9.77
714.004	-17.77
714.031	2.23
714.058	-6.77
714.085	1.23
714.112	10.23
714.139	1.23
714.165	1.23
714.192	7.23
714.219	12.23
714.246	25.23
714.273	1.23
714.3	0.23
714.327	1.23
714.354	10.23
714.381	4.23
714.408	3.23
714.435	3.23
714.461	7.23
714.488	10.23
714.515	11.23
714.542	1.23
714.569	-21.77
714.596	-16.77
714.623	8.23
714.65	-1.77
714.677	-5.77
714.703	4.23
714.73	8.23
714.757	7.23
714.784	9.23
714.811	-1.77
714.838	2.23
714.865	-0.77
714.891	10.23
714.918	1.23
714.945	-1.77
714.972	4.23
714.999	13.23
715.026	-3.77
715.052	16.23
715.079	4.23
715.106	16.23
715.133	1.23
715.16	1.23
715.187	-1.77
715.213	6.23
715.24	-13.77
715.267	-1.77
715.294	2.23
715.321	-13.77
715.347	-1.77
715.374	-2.77
715.401	1.23
715.428	8.23
715.455	0.23
715.481	-2.77
715.508	9.23
715.535	-1.77
715.562	6.23
715.588	11.23
715.615	-2.77
715.642	7.23
715.669	8.23
715.695	11.23
715.722	-11.77
715.749	-7.77
715.776	3.23
715.802	17.23
715.829	5.23
715.856	-2.77
715.883	21.23
715.909	2.23
715.936	-5.77
715.963	-0.77
715.99	-11.77
716.016	4.23
716.043	10.23
716.07	-8.77
716.096	-9.77
716.123	1.23
716.15	9.23
716.177	7.23
716.203	9.23
716.23	17.23
716.257	6.23
716.283	24.23
716.31	11.23
716.337	20.23
716.363	1.23
716.39	15.23
716.417	10.23
716.443	-0.77
716.47	12.23
716.497	21.23
716.523	1.23
716.55	-3.77
716.577	11.23
716.603	4.23
716.63	14.23
716.657	-7.77
716.683	-2.77
716.71	-1.77
716.737	6.23
716.763	5.23
716.79	2.23
716.817	13.23
716.843	10.23
716.87	-3.77
716.897	-2.77
716.923	6.23
716.95	4.23
716.976	-9.77
717.003	-12.77
717.03	6.23
717.056	1.23
717.083	-3.77
717.109	21.23
717.136	8.23
717.163	3.23
717.189	2.23
717.216	5.23
717.242	-11.77
717.269	-11.77
717.296	-4.77
717.322	7.23
717.349	5.23
717.375	-5.77
717.402	-17.77
717.428	18.23
717.455	11.23
717.481	17.23
717.508	20.23
717.535	20.23
717.561	5.23
717.588	-14.77
717.614	8.23
717.641	7.23
717.667	5.23
717.694	-0.77
717.72	5.23
717.747	18.23
717.773	-0.77
717.8	6.23
717.826	-2.77
717.853	5.23
717.88	16.23
717.906	9.23
717.933	12.23
717.959	9.23
717.986	11.23
718.012	14.23
718.039	13.23
718.065	25.23
718.092	28.23
718.118	10.23
718.144	-9.77
718.171	24.23
718.197	23.23
718.224	13.23
718.25	6.23
718.277	3.23
718.303	-1.77
718.33	-0.77
718.356	-12.77
718.383	-10.77
718.409	3.23
718.436	-9.77
718.462	11.23
718.489	5.23
718.515	9.23
718.541	21.23
718.568	5.23
718.594	4.23
718.621	0.23
718.647	-7.77
718.674	15.23
718.7	17.23
718.726	7.23
718.753	6.23
718.779	4.23
718.806	-8.77
718.832	3.23
718.858	4.23
718.885	0.23
718.911	7.23
718.938	3.23
718.964	-0.77
718.99	-6.77
719.017	12.23
719.043	0.23
719.07	13.23
719.096	7.23
719.122	5.23
719.149	14.23
719.175	6.23
719.201	1.23
719.228	-9.77
719.254	2.23
719.281	-13.77
719.307	5.23
719.333	-8.77
719.36	19.23
719.386	7.23
719.412	1.23
719.439	-9.77
719.465	2.23
719.491	0.23
719.518	2.23
719.544	1.23
719.57	13.23
719.597	13.23
719.623	3.23
719.649	26.23
719.675	6.23
719.702	4.23
719.728	20.23
719.754	3.23
719.781	-15.77
719.807	4.23
719.833	2.23
719.86	18.23
719.886	-6.77
719.912	10.23
719.938	-9.77
719.965	-5.77
719.991	9.23
720.017	-11.77
720.044	-2.77
720.07	14.23
720.096	13.23
720.122	15.23
720.149	5.23
720.175	30.23
720.201	1.23
720.227	5.23
720.254	0.23
720.28	8.23
720.306	-3.77
720.332	-3.77
720.359	11.23
720.385	-2.77
720.411	-1.77
720.437	0.23
720.463	-5.77
720.49	21.23
720.516	2.23
720.542	-10.77
720.568	3.23
720.595	9.23
720.621	5.23
720.647	1.23
720.673	11.23
720.699	-4.77
720.725	10.23
720.752	16.23
720.778	10.23
720.804	21.23
720.83	25.23
720.856	-3.77
720.883	0.23
720.909	-0.77
720.935	4.23
720.961	18.23
720.987	11.23
721.013	2.23
721.04	-1.77
721.066	-14.77
721.092	-3.77
721.118	5.23
721.144	12.23
721.17	2.23
721.196	-0.77
721.223	-0.77
721.249	5.23
721.275	7.23
721.301	-2.77
721.327	14.23
721.353	20.23
721.379	10.23
721.405	1.23
721.432	15.23
721.458	-1.77
721.484	-2.77
721.51	-22.77
721.536	6.23
721.562	2.23
721.588	-6.77
721.614	-7.77
721.64	6.23
721.666	1.23
721.693	2.23
721.719	5.23
721.745	-6.77
721.771	-17.77
721.797	-6.77
721.823	-4.77
721.849	17.23
721.875	1.23
721.901	4.23
721.927	15.23
721.953	5.23
721.979	21.23
722.005	11.23
722.031	-6.77
722.057	16.23
722.083	10.23
722.109	5.23
722.135	14.23
722.161	-0.77
722.187	-2.77
722.214	4.23
722.24	3.23
722.266	-2.77
722.292	-0.77
722.318	8.23
722.344	14.23
722.37	1.23
722.396	-1.77
722.422	-5.77
722.448	-0.77
722.474	-11.77
722.5	-2.77
722.526	7.23
722.552	4.23
722.578	5.23
722.603	5.23
722.629	-7.77
722.655	9.23
722.681	6.23
722.707	5.23
722.733	-2.77
722.759	-5.77
722.785	3.23
722.811	8.23
722.837	-2.77
722.863	15.23
722.889	10.23
722.915	-7.77
722.941	2.23
722.967	6.23
722.993	4.23
723.019	0.23
723.045	-0.77
723.071	0.23
723.097	4.23
723.122	17.23
723.148	-1.77
723.174	8.23
723.2	-3.77
723.226	-4.77
723.252	5.23
723.278	-9.77
723.304	-2.77
723.33	9.23
723.356	-1.77
723.381	-9.77
723.407	-7.77
723.433	7.23
723.459	-9.77
723.485	-3.77
723.511	-6.77
723.537	3.23
723.563	7.23
723.588	-1.77
723.614	2.23
723.64	12.23
723.666	-2.77
723.692	-5.77
723.718	-0.77
723.744	-1.77
723.769	6.23
723.795	-2.77
723.821	-7.77
723.847	3.23
723.873	-5.77
723.899	11.23
723.924	5.23
723.95	5.23
723.976	-9.77
724.002	4.23
724.028	-0.77
724.053	-1.77
724.079	-17.77
724.105	-3.77
724.131	1.23
724.157	-0.77
724.182	14.23
724.208	-1.77
724.234	4.23
724.26	1.23
724.286	14.23
724.311	0.23
724.337	1.23
724.363	-6.77
724.389	7.23
724.415	-6.77
724.44	-5.77
724.466	-3.77
724.492	-0.77
724.518	11.23
724.543	6.23
724.569	3.23
724.595	2.23
724.621	-5.77
724.646	1.23
724.672	0.23
724.698	6.23
724.723	-4.77
724.749	10.23
724.775	7.23
724.801	11.23
724.826	-4.77
724.852	-1.77
724.878	2.23
724.904	1.23
724.929	2.23
724.955	-5.77
724.981	1.23
725.006	7.23
725.032	11.23
725.058	5.23
725.083	-4.77
725.109	-4.77
725.135	12.23
725.161	5.23
725.186	4.23
725.212	-4.77
725.238	6.23
725.263	-4.77
725.289	1.23
725.315	2.23
725.34	-24.77
725.366	2.23
725.392	-20.77
725.417	-3.77
725.443	-9.77
725.468	18.23
725.494	14.23
725.52	26.23
725.545	-4.77
725.571	9.23
725.597	12.23
725.622	3.23
725.648	-6.77
725.674	13.23
725.699	11.23
725.725	21.23
725.75	28.23
725.776	-3.77
725.802	2.23
725.827	2.23
725.853	4.23
725.878	9.23
725.904	-1.77
725.93	4.23
725.955	-5.77
725.981	0.23
726.006	3.23
726.032	4.23
726.057	1.23
726.083	-6.77
726.109	0.23
726.134	-0.77
726.16	-5.77
726.185	9.23
726.211	-11.77
726.236	5.23
726.262	-6.77
726.288	10.23
726.313	4.23
726.339	6.23
726.364	-2.77
726.39	13.23
726.415	7.23
726.441	2.23
726.466	-19.77
726.492	-4.77
726.517	10.23
726.543	2.23
726.568	-11.77
726.594	1.23
726.619	4.23
726.645	5.23
726.67	1.23
726.696	7.23
726.721	3.23
726.747	-3.77
726.772	-5.77
726.798	5.23
726.823	11.23
726.849	-5.77
726.874	2.23
726.9	11.23
726.925	15.23
726.951	-5.77
726.976	6.23
727.002	3.23
727.027	-6.77
727.053	-0.77
727.078	15.23
727.104	2.23
727.129	-0.77
727.155	10.23
727.18	15.23
727.205	29.23
727.231	10.23
727.256	-6.77
727.282	3.23
727.307	16.23
727.333	3.23
727.358	3.23
727.383	-1.77
727.409	-13.77
727.434	5.23
727.46	7.23
727.485	-13.77
727.511	-0.77
727.536	-20.77
727.561	-4.77
727.587	1.23
727.612	3.23
727.637	-2.77
727.663	-7.77
727.688	13.23
727.714	-3.77
727.739	-3.77
727.764	-3.77
727.79	15.23
727.815	13.23
727.841	21.23
727.866	21.23
727.891	18.23
727.917	-3.77
727.942	-10.77
727.967	-12.77
727.993	-17.77
728.018	10.23
728.043	9.23
728.069	11.23
728.094	16.23
728.119	3.23
728.145	11.23
728.17	5.23
728.195	-3.77
728.221	11.23
728.246	5.23
728.271	2.23
728.297	2.23
728.322	0.23
728.347	16.23
728.373	11.23
728.398	-0.77
728.423	1.23
728.448	-8.77
728.474	-4.77
728.499	-4.77
728.524	4.23
728.55	-4.77
728.575	-7.77
728.6	4.23
728.625	12.23
728.651	5.23
728.676	-2.77
728.701	-2.77
728.727	-4.77
728.752	-3.77
728.777	5.23
728.802	4.23
728.828	1.23
728.853	-3.77
728.878	-0.77
728.903	-8.77
728.929	-6.77
728.954	10.23
728.979	-2.77
729.004	-6.77
729.03	-1.77
729.055	9.23
729.08	-16.77
729.105	-2.77
729.13	7.23
729.156	10.23
729.181	2.23
729.206	-7.77
729.231	-8.77
729.256	-1.77
729.282	7.23
729.307	-21.77
729.332	-14.77
729.357	-26.77
729.382	-0.77
729.408	7.23
729.433	9.23
729.458	10.23
729.483	-4.77
729.508	25.23
729.533	6.23
729.559	9.23
729.584	-10.77
729.609	3.23
729.634	0.23
729.659	-10.77
729.684	-0.77
729.71	26.23
729.735	6.23
729.76	-2.77
729.785	7.23
729.81	-2.77
729.835	-16.77
729.86	-1.77
729.886	10.23
729.911	6.23
729.936	-4.77
729.961	9.23
729.986	-0.77
730.011	1.23
730.036	15.23
730.061	1.23
730.086	9.23
730.112	-6.77
730.137	-3.77
730.162	-9.77
730.187	-3.77
730.212	22.23
730.237	2.23
730.262	-7.77
730.287	-10.77
730.312	14.23
730.337	-8.77
730.362	5.23
730.387	5.23
730.413	-10.77
730.438	0.23
730.463	5.23
730.488	-1.77
730.513	-6.77
730.538	-0.77
730.563	14.23
730.588	9.23
730.613	13.23
730.638	1.23
730.663	7.23
730.688	20.23
730.713	17.23
730.738	-2.77
730.763	5.23
730.788	-5.77
730.813	3.23
730.838	-6.77
730.863	6.23
730.888	6.23
730.913	-9.77
730.938	-13.77
730.963	8.23
730.988	21.23
731.013	12.23
731.038	-13.77
731.063	-13.77
731.088	1.23
731.113	-16.77
731.138	3.23
731.163	-1.77
731.188	-15.77
731.213	-3.77
731.238	11.23
731.263	0.23
731.288	-1.77
731.313	-2.77
731.338	1.23
731.363	1.23
731.388	-3.77
731.413	2.23
731.438	7.23
731.463	-1.77
731.487	-1.77
731.512	1.23
731.537	-5.77
731.562	-0.77
731.587	16.23
731.612	9.23
731.637	-12.77
731.662	3.23
731.687	-2.77
731.712	-11.77
731.737	1.23
731.762	2.23
731.786	-3.77
731.811	3.23
731.836	-3.77
731.861	1.23
731.886	-16.77
731.911	8.23
731.936	14.23
731.961	-5.77
731.986	-6.77
732.01	-1.77
732.035	12.23
732.06	2.23
732.085	3.23
732.11	15.23
732.135	4.23
732.16	2.23
732.184	0.23
732.209	4.23
732.234	-1.77
732.259	-12.77
732.284	15.23
732.309	-7.77
732.334	-1.77
732.358	-17.77
732.383	-8.77
732.408	-1.77
732.433	-0.77
732.458	-2.77
732.482	-0.77
732.507	6.23
732.532	20.23
732.557	1.23
732.582	14.23
732.607	2.23
732.631	-3.77
732.656	6.23
732.681	14.23
732.706	9.23
732.73	5.23
732.755	3.23
732.78	2.23
732.805	0.23
732.83	-4.77
732.854	16.23
732.879	12.23
732.904	2.23
732.929	4.23
732.953	16.23
732.978	1.23
733.003	-2.77
733.028	-0.77
733.052	2.23
733.077	-5.77
733.102	19.23
733.127	4.23
733.151	5.23
733.176	8.23
733.201	-17.77
733.226	15.23
733.25	-1.77
733.275	2.23
733.3	8.23
733.324	16.23
733.349	17.23
733.374	13.23
733.399	-5.77
733.423	-0.77
733.448	-9.77
733.473	-3.77
733.497	-3.77
733.522	-11.77
733.547	18.23
733.571	1.23
733.596	-6.77
733.621	8.23
733.646	-4.77
733.67	14.23
733.695	-13.77
733.72	-5.77
733.744	14.23
733.769	18.23
733.794	14.23
733.818	10.23
733.843	8.23
733.867	-8.77
733.892	-8.77
733.917	6.23
733.941	-2.77
733.966	-12.77
733.991	-1.77
734.015	12.23
734.04	-13.77
734.065	19.23
734.089	5.23
734.114	-6.77
734.138	4.23
734.163	3.23
734.188	19.23
734.212	2.23
734.237	14.23
734.261	13.23
734.286	-2.77
734.311	-12.77
734.335	2.23
734.36	8.23
734.384	13.23
734.409	4.23
734.434	-13.77
734.458	0.23
734.483	-10.77
734.507	-12.77
734.532	-3.77
734.556	-1.77
734.581	-4.77
734.606	1.23
734.63	-16.77
734.655	0.23
734.679	-4.77
734.704	0.23
734.728	8.23
734.753	-4.77
734.777	-1.77
734.802	1.23
734.826	12.23
734.851	-2.77
734.876	3.23
734.9	5.23
734.925	10.23
734.949	1.23
734.974	9.23
734.998	19.23
735.023	-11.77
735.047	-14.77
735.072	16.23
735.096	-1.77
735.121	3.23
735.145	-2.77
735.17	-2.77
735.194	0.23
735.219	-0.77
735.243	15.23
735.268	0.23
735.292	25.23
735.317	0.23
735.341	-1.77
735.365	-4.77
735.39	4.23
735.414	6.23
735.439	5.23
735.463	-2.77
735.488	9.23
735.512	3.23
735.537	-0.77
735.561	-0.77
735.586	5.23
735.61	7.23
735.634	-4.77
735.659	4.23
735.683	9.23
735.708	-1.77
735.732	-2.77
735.757	1.23
735.781	5.23
735.805	1.23
735.83	-5.77
735.854	-9.77
735.879	0.23
735.903	8.23
735.927	8.23
735.952	-10.77
735.976	-10.77
736.001	-1.77
736.025	-3.77
736.049	10.23
736.074	3.23
736.098	9.23
736.123	2.23
736.147	-1.77
736.171	4.23
736.196	12.23
736.22	-6.77
736.244	1.23
736.269	18.23
736.293	-9.77
736.317	-5.77
736.342	19.23
736.366	15.23
736.39	13.23
736.415	-0.77
736.439	18.23
736.463	10.23
736.488	2.23
736.512	5.23
736.536	5.23
736.561	11.23
736.585	6.23
736.609	-4.77
736.634	-7.77
736.658	-7.77
736.682	-13.77
736.707	-17.77
736.731	-18.77
736.755	0.23
736.78	-3.77
736.804	3.23
736.828	0.23
736.852	-10.77
736.877	0.23
736.901	7.23
736.925	1.23
736.949	14.23
736.974	4.23
736.998	-1.77
737.022	13.23
737.047	-6.77
737.071	9.23
737.095	-2.77
737.119	30.23
737.144	-2.77
737.168	0.23
737.192	-4.77
737.216	6.23
737.241	-8.77
737.265	5.23
737.289	-0.77
737.313	-1.77
737.337	2.23
737.362	9.23
737.386	9.23
737.41	1.23
737.434	-4.77
737.459	7.23
737.483	13.23
737.507	25.23
737.531	22.23
737.555	11.23
737.58	5.23
737.604	9.23
737.628	-18.77
737.652	-14.77
737.676	6.23
737.701	4.23
737.725	8.23
737.749	18.23
737.773	-2.77
737.797	1.23
737.821	-0.77
737.846	1.23
737.87	15.23
737.894	6.23
737.918	1.23
737.942	-1.77
737.966	15.23
737.99	16.23
738.015	16.23
738.039	4.23
738.063	3.23
738.087	10.23
738.111	-2.77
738.135	14.23
738.159	-7.77
738.184	-1.77
738.208	24.23
738.232	9.23
738.256	8.23
738.28	1.23
738.304	20.23
738.328	-3.77
738.352	-6.77
738.376	15.23
738.4	7.23
738.425	15.23
738.449	-0.77
738.473	3.23
738.497	14.23
738.521	-0.77
738.545	5.23
738.569	20.23
738.593	15.23
738.617	11.23
738.641	-10.77
738.665	-1.77
738.689	2.23
738.713	-1.77
738.737	14.23
738.762	14.23
738.786	6.23
738.81	-2.77
738.834	9.23
738.858	-4.77
738.882	2.23
738.906	-3.77
738.93	0.23
738.954	23.23
738.978	8.23
739.002	-3.77
739.026	8.23
739.05	3.23
739.074	13.23
739.098	23.23
739.122	18.23
739.146	-3.77
739.17	5.23
739.194	9.23
739.218	-5.77
739.242	5.23
739.266	6.23
739.29	11.23
739.314	23.23
739.338	9.23
739.362	14.23
739.386	5.23
739.41	10.23
739.434	-8.77
739.458	-4.77
739.482	-1.77
739.506	13.23
739.53	7.23
739.554	22.23
739.577	3.23
739.601	7.23
739.625	6.23
739.649	5.23
739.673	-4.77
739.697	1.23
739.721	6.23
739.745	9.23
739.769	15.23
739.793	-2.77
739.817	1.23
739.841	-11.77
739.865	0.23
739.889	-13.77
739.912	10.23
739.936	2.23
739.96	5.23
739.984	18.23
740.008	16.23
740.032	7.23
740.056	18.23
740.08	1.23
740.104	-4.77
740.127	19.23
740.151	17.23
740.175	16.23
740.199	33.23
740.223	45.23
740.247	24.23
740.271	5.23
740.295	-3.77
740.318	-20.77
740.342	-0.77
740.366	-6.77
740.39	6.23
740.414	16.23
740.438	2.23
740.461	20.23
740.485	22.23
740.509	-3.77
740.533	6.23
740.557	-18.77
740.581	-7.77
740.604	-6.77
740.628	21.23
740.652	12.23
740.676	14.23
740.7	19.23
740.723	8.23
740.747	-21.77
740.771	13.23
740.795	-10.77
740.819	10.23
740.842	21.23
740.866	10.23
740.89	1.23
740.914	-8.77
740.938	3.23
740.961	2.23
740.985	3.23
741.009	6.23
741.033	-0.77
741.056	10.23
741.08	5.23
741.104	-2.77
741.128	1.23
741.151	22.23
741.175	2.23
741.199	10.23
741.223	26.23
741.246	-13.77
741.27	6.23
741.294	4.23
741.318	6.23
741.341	-0.77
741.365	7.23
741.389	-1.77
741.413	6.23
741.436	12.23
741.46	21.23
741.484	18.23
741.507	22.23
741.531	17.23
741.555	7.23
741.579	-2.77
741.602	-1.77
741.626	9.23
741.65	-4.77
741.673	2.23
741.697	10.23
741.721	-0.77
741.744	-1.77
741.768	-0.77
741.792	1.23
741.815	2.23
741.839	9.23
741.863	26.23
741.886	23.23
741.91	14.23
741.934	9.23
741.957	-14.77
741.981	7.23
742.005	2.23
742.028	-8.77
742.052	9.23
742.075	1.23
742.099	4.23
742.123	13.23
742.146	1.23
742.17	2.23
742.194	0.23
742.217	10.23
742.241	-3.77
742.264	11.23
742.288	17.23
742.312	18.23
742.335	10.23
742.359	15.23
742.382	30.23
742.406	31.23
742.43	-1.77
742.453	-1.77
742.477	11.23
742.5	13.23
742.524	-5.77
742.548	2.23
742.571	7.23
742.595	-13.77
742.618	8.23
742.642	-1.77
742.665	3.23
742.689	-3.77
742.712	10.23
742.736	7.23
742.76	16.23
742.783	-2.77
742.807	10.23
742.83	12.23
742.854	-0.77
742.877	15.23
742.901	-0.77
742.924	-8.77
742.948	2.23
742.971	6.23
742.995	15.23
743.018	-4.77
743.042	4.23
743.065	-2.77
743.089	1.23
743.112	1.23
743.136	3.23
743.159	5.23
743.183	4.23
743.206	12.23
743.23	-2.77
743.253	-1.77
743.277	6.23
743.3	3.23
743.324	-1.77
743.347	-17.77
743.371	5.23
743.394	-0.77
743.418	12.23
743.441	14.23
743.465	9.23
743.488	3.23
743.512	4.23
743.535	20.23
743.558	3.23
743.582	13.23
743.605	-1.77
743.629	6.23
743.652	10.23
743.676	-1.77
743.699	11.23
743.723	4.23
743.746	-1.77
743.769	19.23
743.793	-2.77
743.816	-13.77
743.84	16.23
743.863	5.23
743.886	14.23
743.91	-2.77
743.933	-0.77
743.957	14.23
743.98	14.23
744.003	14.23
744.027	5.23
744.05	7.23
744.074	6.23
744.097	-6.77
744.12	10.23
744.144	-16.77
744.167	10.23
744.19	20.23
744.214	5.23
744.237	-1.77
744.26	33.23
744.284	-1.77
744.307	-3.77
744.331	-0.77
744.354	-5.77
744.377	-9.77
744.401	9.23
744.424	-7.77
744.447	-4.77
744.471	2.23
