Data from HighRes_H2_15_09_11_07_2024_HR4C61891__150__15-11-11-401.txt Node

Date: Thu Nov 07 15:11:11 EST 2024
User: crc00042
Spectrometer: HR4C6189
Trigger mode: 4
Integration Time (sec): 1.000000E-1
Scans to average: 1
Electric dark correction enabled: true
Nonlinearity correction enabled: false
Boxcar width: 0
XAxis mode: Wavelengths
Number of Pixels in Spectrum: 3648
>>>>>Begin Spectral Data<<<<<
639.567	-48.85
639.602	-48.85
639.636	-48.85
639.67	-31.85
639.704	-14.85
639.738	-12.85
639.773	16.15
639.807	-2.85
639.841	14.15
639.875	10.15
639.909	-9.85
639.943	0.15
639.978	-15.85
640.012	-1.85
640.046	14.15
640.08	-1.85
640.114	1.15
640.148	-10.85
640.182	-1.85
640.217	3.15
640.251	27.15
640.285	12.15
640.319	3.15
640.353	7.15
640.387	-1.85
640.421	0.15
640.455	10.15
640.49	13.15
640.524	13.15
640.558	9.15
640.592	2.15
640.626	8.15
640.66	17.15
640.694	-10.85
640.728	11.15
640.762	6.15
640.796	15.15
640.83	19.15
640.865	1.15
640.899	5.15
640.933	2.15
640.967	14.15
641.001	4.15
641.035	15.15
641.069	-15.85
641.103	0.15
641.137	2.15
641.171	-18.85
641.205	1.15
641.239	20.15
641.273	10.15
641.307	4.15
641.341	-17.85
641.375	8.15
641.409	-1.85
641.443	5.15
641.477	8.15
641.511	11.15
641.545	1.15
641.579	8.15
641.614	21.15
641.648	15.15
641.682	3.15
641.716	15.15
641.75	19.15
641.784	5.15
641.818	15.15
641.852	23.15
641.886	10.15
641.919	30.15
641.953	18.15
641.987	-6.85
642.021	5.15
642.055	8.15
642.089	5.15
642.123	13.15
642.157	5.15
642.191	-8.85
642.225	17.15
642.259	12.15
642.293	14.15
642.327	24.15
642.361	-6.85
642.395	25.15
642.429	21.15
642.463	10.15
642.497	21.15
642.531	15.15
642.565	4.15
642.599	8.15
642.633	-6.85
642.666	12.15
642.7	25.15
642.734	25.15
642.768	-10.85
642.802	13.15
642.836	1.15
642.87	2.15
642.904	10.15
642.938	-0.85
642.972	-9.85
643.005	8.15
643.039	16.15
643.073	6.15
643.107	0.15
643.141	0.15
643.175	1.15
643.209	6.15
643.243	1.15
643.276	0.15
643.31	-2.85
643.344	-21.85
643.378	2.15
643.412	2.15
643.446	-1.85
643.48	2.15
643.513	13.15
643.547	2.15
643.581	16.15
643.615	38.15
643.649	12.15
643.683	15.15
643.716	-10.85
643.75	17.15
643.784	2.15
643.818	20.15
643.852	6.15
643.886	1.15
643.919	41.15
643.953	0.15
643.987	16.15
644.021	32.15
644.055	12.15
644.088	-4.85
644.122	-7.85
644.156	-1.85
644.19	11.15
644.224	22.15
644.257	12.15
644.291	27.15
644.325	19.15
644.359	7.15
644.392	18.15
644.426	8.15
644.46	8.15
644.494	0.15
644.527	-2.85
644.561	-1.85
644.595	7.15
644.629	2.15
644.662	6.15
644.696	15.15
644.73	11.15
644.764	21.15
644.797	2.15
644.831	4.15
644.865	8.15
644.899	3.15
644.932	27.15
644.966	8.15
645	15.15
645.033	19.15
645.067	24.15
645.101	16.15
645.135	-3.85
645.168	-1.85
645.202	-9.85
645.236	5.15
645.269	27.15
645.303	-15.85
645.337	-17.85
645.37	1.15
645.404	8.15
645.438	14.15
645.471	5.15
645.505	12.15
645.539	1.15
645.572	-2.85
645.606	-4.85
645.64	9.15
645.673	18.15
645.707	23.15
645.741	1.15
645.774	-6.85
645.808	24.15
645.842	3.15
645.875	2.15
645.909	3.15
645.943	7.15
645.976	10.15
646.01	-1.85
646.043	8.15
646.077	19.15
646.111	30.15
646.144	24.15
646.178	17.15
646.212	-6.85
646.245	-4.85
646.279	4.15
646.312	12.15
646.346	20.15
646.38	13.15
646.413	23.15
646.447	26.15
646.48	14.15
646.514	16.15
646.547	16.15
646.581	0.15
646.615	4.15
646.648	-19.85
646.682	2.15
646.715	9.15
646.749	6.15
646.782	-7.85
646.816	-1.85
646.85	-0.85
646.883	-5.85
646.917	24.15
646.95	8.15
646.984	12.15
647.017	6.15
647.051	14.15
647.084	11.15
647.118	5.15
647.151	10.15
647.185	7.15
647.218	2.15
647.252	12.15
647.285	6.15
647.319	3.15
647.353	9.15
647.386	16.15
647.42	16.15
647.453	7.15
647.487	8.15
647.52	0.15
647.553	1.15
647.587	5.15
647.62	-4.85
647.654	12.15
647.687	12.15
647.721	6.15
647.754	19.15
647.788	9.15
647.821	-1.85
647.855	10.15
647.888	17.15
647.922	14.15
647.955	12.15
647.989	4.15
648.022	7.15
648.055	-6.85
648.089	-7.85
648.122	30.15
648.156	-3.85
648.189	4.15
648.223	14.15
648.256	20.15
648.29	17.15
648.323	0.15
648.356	10.15
648.39	9.15
648.423	0.15
648.457	-5.85
648.49	19.15
648.523	18.15
648.557	13.15
648.59	3.15
648.624	4.15
648.657	-2.85
648.69	6.15
648.724	4.15
648.757	10.15
648.791	12.15
648.824	11.15
648.857	20.15
648.891	17.15
648.924	1.15
648.957	12.15
648.991	-2.85
649.024	30.15
649.057	10.15
649.091	-0.85
649.124	17.15
649.158	18.15
649.191	28.15
649.224	4.15
649.258	7.15
649.291	21.15
649.324	-5.85
649.358	4.15
649.391	18.15
649.424	6.15
649.458	0.15
649.491	-6.85
649.524	7.15
649.557	-12.85
649.591	-16.85
649.624	9.15
649.657	-6.85
649.691	-8.85
649.724	3.15
649.757	9.15
649.791	2.15
649.824	25.15
649.857	15.15
649.89	19.15
649.924	-9.85
649.957	7.15
649.99	-6.85
650.023	18.15
650.057	1.15
650.09	4.15
650.123	11.15
650.157	14.15
650.19	21.15
650.223	2.15
650.256	-0.85
650.29	14.15
650.323	16.15
650.356	12.15
650.389	0.15
650.423	1.15
650.456	24.15
650.489	20.15
650.522	16.15
650.555	24.15
650.589	25.15
650.622	9.15
650.655	4.15
650.688	14.15
650.721	-1.85
650.755	8.15
650.788	13.15
650.821	2.15
650.854	2.15
650.887	10.15
650.921	0.15
650.954	-18.85
650.987	-3.85
651.02	-9.85
651.053	-2.85
651.087	-2.85
651.12	18.15
651.153	18.15
651.186	-3.85
651.219	-19.85
651.252	12.15
651.286	8.15
651.319	9.15
651.352	11.15
651.385	9.15
651.418	14.15
651.451	17.15
651.484	6.15
651.518	-2.85
651.551	15.15
651.584	-6.85
651.617	22.15
651.65	17.15
651.683	11.15
651.716	9.15
651.749	-5.85
651.783	1.15
651.816	8.15
651.849	12.15
651.882	25.15
651.915	0.15
651.948	9.15
651.981	-0.85
652.014	-8.85
652.047	-6.85
652.08	7.15
652.114	4.15
652.147	-11.85
652.18	5.15
652.213	47.15
652.246	16.15
652.279	-6.85
652.312	10.15
652.345	-8.85
652.378	4.15
652.411	23.15
652.444	16.15
652.477	0.15
652.51	5.15
652.543	0.15
652.576	19.15
652.609	-11.85
652.642	18.15
652.675	21.15
652.709	1.15
652.742	2.15
652.775	14.15
652.808	30.15
652.841	3.15
652.874	4.15
652.907	8.15
652.94	-2.85
652.973	-7.85
653.006	11.15
653.039	6.15
653.072	12.15
653.105	7.15
653.138	-11.85
653.171	-7.85
653.204	-11.85
653.237	20.15
653.27	-7.85
653.303	17.15
653.336	17.15
653.368	-4.85
653.401	-9.85
653.434	-2.85
653.467	8.15
653.5	-18.85
653.533	-2.85
653.566	9.15
653.599	-4.85
653.632	13.15
653.665	7.15
653.698	4.15
653.731	-11.85
653.764	16.15
653.797	9.15
653.83	7.15
653.863	1.15
653.896	5.15
653.929	-8.85
653.961	14.15
653.994	17.15
654.027	-11.85
654.06	0.15
654.093	9.15
654.126	-6.85
654.159	2.15
654.192	0.15
654.225	10.15
654.258	2.15
654.29	8.15
654.323	-5.85
654.356	-18.85
654.389	-1.85
654.422	8.15
654.455	11.15
654.488	17.15
654.521	-5.85
654.553	-10.85
654.586	16.15
654.619	1.15
654.652	4.15
654.685	17.15
654.718	-4.85
654.751	10.15
654.783	7.15
654.816	20.15
654.849	0.15
654.882	-10.85
654.915	-3.85
654.948	3.15
654.98	3.15
655.013	7.15
655.046	5.15
655.079	0.15
655.112	15.15
655.144	-5.85
655.177	13.15
655.21	24.15
655.243	30.15
655.276	15.15
655.308	3.15
655.341	14.15
655.374	4.15
655.407	8.15
655.44	-0.85
655.472	24.15
655.505	14.15
655.538	17.15
655.571	13.15
655.603	10.15
655.636	20.15
655.669	25.15
655.702	35.15
655.734	26.15
655.767	18.15
655.8	20.15
655.833	27.15
655.865	18.15
655.898	41.15
655.931	41.15
655.964	38.15
655.996	45.15
656.029	63.15
656.062	65.15
656.095	67.15
656.127	65.15
656.16	104.15
656.193	137.15
656.225	186.15
656.258	281.15
656.291	517.15
656.324	1153.15
656.356	3408.15
656.389	7637.15
656.422	6096.15
656.454	2089.15
656.487	708.15
656.52	278.15
656.552	122.15
656.585	74.15
656.618	66.15
656.65	48.15
656.683	29.15
656.716	25.15
656.748	27.15
656.781	20.15
656.814	9.15
656.846	15.15
656.879	6.15
656.912	17.15
656.944	-3.85
656.977	-5.85
657.01	15.15
657.042	23.15
657.075	26.15
657.108	10.15
657.14	15.15
657.173	36.15
657.205	44.15
657.238	12.15
657.271	4.15
657.303	-0.85
657.336	-1.85
657.369	-2.85
657.401	9.15
657.434	7.15
657.466	-0.85
657.499	7.15
657.532	5.15
657.564	31.15
657.597	13.15
657.629	11.15
657.662	18.15
657.694	1.15
657.727	-7.85
657.76	6.15
657.792	10.15
657.825	11.15
657.857	8.15
657.89	2.15
657.922	22.15
657.955	0.15
657.987	17.15
658.02	4.15
658.053	20.15
658.085	7.15
658.118	23.15
658.15	9.15
658.183	19.15
658.215	8.15
658.248	8.15
658.28	-3.85
658.313	8.15
658.345	1.15
658.378	-9.85
658.41	1.15
658.443	-1.85
658.475	0.15
658.508	-1.85
658.54	-3.85
658.573	-7.85
658.605	6.15
658.638	-9.85
658.67	11.15
658.703	15.15
658.735	6.15
658.768	-3.85
658.8	-6.85
658.833	22.15
658.865	14.15
658.898	-1.85
658.93	-1.85
658.963	7.15
658.995	-0.85
659.028	20.15
659.06	6.15
659.092	11.15
659.125	20.15
659.157	31.15
659.19	7.15
659.222	1.15
659.255	0.15
659.287	-0.85
659.32	8.15
659.352	2.15
659.384	6.15
659.417	11.15
659.449	18.15
659.482	7.15
659.514	8.15
659.546	15.15
659.579	10.15
659.611	11.15
659.644	7.15
659.676	-2.85
659.708	1.15
659.741	-7.85
659.773	4.15
659.806	2.15
659.838	7.15
659.87	14.15
659.903	11.15
659.935	21.15
659.967	0.15
660	0.15
660.032	-15.85
660.065	14.15
660.097	-1.85
660.129	14.15
660.162	3.15
660.194	15.15
660.226	19.15
660.259	17.15
660.291	6.15
660.323	9.15
660.356	-13.85
660.388	-0.85
660.42	-4.85
660.453	6.15
660.485	4.15
660.517	6.15
660.55	6.15
660.582	13.15
660.614	33.15
660.647	15.15
660.679	-0.85
660.711	13.15
660.743	-4.85
660.776	-0.85
660.808	-1.85
660.84	0.15
660.873	-9.85
660.905	1.15
660.937	-9.85
660.969	4.15
661.002	5.15
661.034	25.15
661.066	8.15
661.099	6.15
661.131	17.15
661.163	1.15
661.195	8.15
661.228	14.15
661.26	4.15
661.292	1.15
661.324	-3.85
661.357	8.15
661.389	12.15
661.421	6.15
661.453	1.15
661.485	17.15
661.518	7.15
661.55	-3.85
661.582	-9.85
661.614	8.15
661.647	2.15
661.679	-1.85
661.711	6.15
661.743	2.15
661.775	5.15
661.808	17.15
661.84	0.15
661.872	10.15
661.904	19.15
661.936	13.15
661.969	-19.85
662.001	-5.85
662.033	11.15
662.065	5.15
662.097	18.15
662.129	11.15
662.162	-11.85
662.194	-1.85
662.226	-7.85
662.258	28.15
662.29	2.15
662.322	-0.85
662.355	6.15
662.387	24.15
662.419	6.15
662.451	-6.85
662.483	16.15
662.515	-7.85
662.547	0.15
662.58	4.15
662.612	-1.85
662.644	-1.85
662.676	9.15
662.708	24.15
662.74	-4.85
662.772	3.15
662.804	13.15
662.836	7.15
662.869	-1.85
662.901	23.15
662.933	16.15
662.965	19.15
662.997	24.15
663.029	11.15
663.061	7.15
663.093	-4.85
663.125	1.15
663.157	-0.85
663.189	0.15
663.221	2.15
663.254	10.15
663.286	1.15
663.318	-11.85
663.35	5.15
663.382	6.15
663.414	7.15
663.446	3.15
663.478	5.15
663.51	34.15
663.542	4.15
663.574	7.15
663.606	7.15
663.638	-8.85
663.67	-9.85
663.702	-4.85
663.734	12.15
663.766	3.15
663.798	-11.85
663.83	14.15
663.862	16.15
663.894	20.15
663.926	4.15
663.958	17.15
663.99	7.15
664.022	-3.85
664.054	11.15
664.086	-6.85
664.118	-8.85
664.15	-2.85
664.182	4.15
664.214	4.15
664.246	21.15
664.278	12.15
664.31	23.15
664.342	-1.85
664.374	0.15
664.406	-6.85
664.438	9.15
664.47	16.15
664.502	5.15
664.534	-20.85
664.566	-5.85
664.598	17.15
664.63	8.15
664.662	25.15
664.693	13.15
664.725	-0.85
664.757	6.15
664.789	-0.85
664.821	15.15
664.853	10.15
664.885	6.15
664.917	1.15
664.949	19.15
664.981	18.15
665.013	3.15
665.045	0.15
665.076	7.15
665.108	4.15
665.14	-2.85
665.172	8.15
665.204	6.15
665.236	11.15
665.268	29.15
665.3	-2.85
665.331	-6.85
665.363	5.15
665.395	8.15
665.427	8.15
665.459	-10.85
665.491	2.15
665.523	17.15
665.555	10.15
665.586	-6.85
665.618	-8.85
665.65	-5.85
665.682	21.15
665.714	5.15
665.746	-13.85
665.777	-2.85
665.809	11.15
665.841	8.15
665.873	-0.85
665.905	-0.85
665.937	22.15
665.968	3.15
666	-2.85
666.032	-10.85
666.064	4.15
666.096	15.15
666.127	28.15
666.159	16.15
666.191	9.15
666.223	-1.85
666.255	6.15
666.286	-6.85
666.318	4.15
666.35	16.15
666.382	5.15
666.413	3.15
666.445	-6.85
666.477	1.15
666.509	-6.85
666.54	-2.85
666.572	0.15
666.604	-0.85
666.636	-11.85
666.667	17.15
666.699	21.15
666.731	11.15
666.763	4.15
666.794	-4.85
666.826	-6.85
666.858	-21.85
666.89	1.15
666.921	1.15
666.953	-13.85
666.985	6.15
667.017	16.15
667.048	10.15
667.08	3.15
667.112	-2.85
667.143	7.15
667.175	10.15
667.207	-3.85
667.238	19.15
667.27	18.15
667.302	13.15
667.334	25.15
667.365	30.15
667.397	17.15
667.429	-1.85
667.46	29.15
667.492	21.15
667.524	-4.85
667.555	4.15
667.587	7.15
667.619	-11.85
667.65	-5.85
667.682	5.15
667.714	9.15
667.745	7.15
667.777	12.15
667.808	17.15
667.84	11.15
667.872	9.15
667.903	19.15
667.935	8.15
667.967	2.15
667.998	6.15
668.03	8.15
668.061	12.15
668.093	-5.85
668.125	11.15
668.156	8.15
668.188	-4.85
668.22	16.15
668.251	18.15
668.283	29.15
668.314	28.15
668.346	13.15
668.377	17.15
668.409	-3.85
668.441	18.15
668.472	8.15
668.504	4.15
668.535	9.15
668.567	19.15
668.599	-2.85
668.63	-6.85
668.662	7.15
668.693	4.15
668.725	9.15
668.756	16.15
668.788	-3.85
668.819	7.15
668.851	10.15
668.882	12.15
668.914	-0.85
668.946	-9.85
668.977	1.15
669.009	6.15
669.04	0.15
669.072	5.15
669.103	16.15
669.135	2.15
669.166	12.15
669.198	8.15
669.229	8.15
669.261	5.15
669.292	-8.85
669.324	6.15
669.355	17.15
669.387	-1.85
669.418	-3.85
669.45	-17.85
669.481	1.15
669.513	4.15
669.544	-3.85
669.576	5.15
669.607	7.15
669.639	6.15
669.67	5.15
669.701	8.15
669.733	-7.85
669.764	7.15
669.796	5.15
669.827	-1.85
669.859	-2.85
669.89	4.15
669.922	13.15
669.953	9.15
669.985	9.15
670.016	7.15
670.047	-16.85
670.079	4.15
670.11	13.15
670.142	23.15
670.173	7.15
670.204	-9.85
670.236	8.15
670.267	0.15
670.299	7.15
670.33	-0.85
670.362	7.15
670.393	-8.85
670.424	-4.85
670.456	4.15
670.487	-3.85
670.518	9.15
670.55	8.15
670.581	17.15
670.613	10.15
670.644	-2.85
670.675	-13.85
670.707	8.15
670.738	5.15
670.769	2.15
670.801	-6.85
670.832	10.15
670.864	-3.85
670.895	1.15
670.926	15.15
670.958	0.15
670.989	11.15
671.02	4.15
671.052	-7.85
671.083	6.15
671.114	3.15
671.146	20.15
671.177	12.15
671.208	-2.85
671.24	-4.85
671.271	-4.85
671.302	-1.85
671.333	-3.85
671.365	-3.85
671.396	-12.85
671.427	-1.85
671.459	8.15
671.49	6.15
671.521	10.15
671.553	-9.85
671.584	7.15
671.615	-14.85
671.646	15.15
671.678	8.15
671.709	-11.85
671.74	-16.85
671.771	0.15
671.803	0.15
671.834	18.15
671.865	6.15
671.896	4.15
671.928	-6.85
671.959	4.15
671.99	4.15
672.021	2.15
672.053	-1.85
672.084	-1.85
672.115	13.15
672.146	6.15
672.178	5.15
672.209	10.15
672.24	8.15
672.271	19.15
672.303	1.15
672.334	-3.85
672.365	-11.85
672.396	-3.85
672.427	9.15
672.459	9.15
672.49	21.15
672.521	12.15
672.552	21.15
672.583	11.15
672.615	6.15
672.646	12.15
672.677	8.15
672.708	3.15
672.739	-4.85
672.77	16.15
672.802	4.15
672.833	11.15
672.864	-2.85
672.895	2.15
672.926	11.15
672.957	4.15
672.989	5.15
673.02	7.15
673.051	-1.85
673.082	6.15
673.113	3.15
673.144	15.15
673.175	1.15
673.206	-6.85
673.238	4.15
673.269	5.15
673.3	6.15
673.331	18.15
673.362	-2.85
673.393	11.15
673.424	5.15
673.455	8.15
673.487	13.15
673.518	31.15
673.549	-7.85
673.58	-2.85
673.611	27.15
673.642	-6.85
673.673	-19.85
673.704	7.15
673.735	0.15
673.766	-1.85
673.797	-6.85
673.828	16.15
673.86	-0.85
673.891	-11.85
673.922	-3.85
673.953	3.15
673.984	4.15
674.015	8.15
674.046	10.15
674.077	2.15
674.108	5.15
674.139	1.15
674.17	3.15
674.201	-3.85
674.232	2.15
674.263	-6.85
674.294	10.15
674.325	-7.85
674.356	6.15
674.387	16.15
674.418	-3.85
674.449	3.15
674.48	-2.85
674.511	-0.85
674.542	0.15
674.573	7.15
674.604	22.15
674.635	15.15
674.666	5.15
674.697	7.15
674.728	15.15
674.759	1.15
674.79	-21.85
674.821	-7.85
674.852	12.15
674.883	-6.85
674.914	12.15
674.945	5.15
674.976	7.15
675.007	-12.85
675.038	-2.85
675.069	-0.85
675.1	4.15
675.131	11.15
675.162	-10.85
675.193	10.15
675.224	-3.85
675.254	11.15
675.285	11.15
675.316	11.15
675.347	5.15
675.378	13.15
675.409	-6.85
675.44	15.15
675.471	8.15
675.502	4.15
675.533	4.15
675.564	23.15
675.595	5.15
675.625	17.15
675.656	13.15
675.687	13.15
675.718	-3.85
675.749	4.15
675.78	10.15
675.811	2.15
675.842	6.15
675.873	4.15
675.903	-1.85
675.934	8.15
675.965	-5.85
675.996	16.15
676.027	21.15
676.058	-6.85
676.089	-6.85
676.119	10.15
676.15	0.15
676.181	3.15
676.212	-2.85
676.243	11.15
676.274	2.15
676.304	36.15
676.335	-12.85
676.366	7.15
676.397	1.15
676.428	3.15
676.459	10.15
676.489	14.15
676.52	7.15
676.551	-1.85
676.582	0.15
676.613	11.15
676.643	-2.85
676.674	5.15
676.705	12.15
676.736	3.15
676.767	26.15
676.797	15.15
676.828	19.15
676.859	12.15
676.89	4.15
676.92	6.15
676.951	16.15
676.982	18.15
677.013	-0.85
677.044	13.15
677.074	15.15
677.105	8.15
677.136	23.15
677.167	9.15
677.197	15.15
677.228	-6.85
677.259	6.15
677.289	9.15
677.32	-22.85
677.351	5.15
677.382	6.15
677.412	0.15
677.443	-6.85
677.474	-15.85
677.505	3.15
677.535	8.15
677.566	-8.85
677.597	-4.85
677.627	-8.85
677.658	0.15
677.689	-3.85
677.72	-5.85
677.75	11.15
677.781	-7.85
677.812	-19.85
677.842	4.15
677.873	-3.85
677.904	5.15
677.934	7.15
677.965	-5.85
677.996	1.15
678.026	2.15
678.057	13.15
678.088	-1.85
678.118	-5.85
678.149	-2.85
678.18	-5.85
678.21	5.15
678.241	0.15
678.272	12.15
678.302	17.15
678.333	-2.85
678.363	0.15
678.394	24.15
678.425	7.15
678.455	11.15
678.486	-1.85
678.517	-8.85
678.547	-6.85
678.578	17.15
678.608	-20.85
678.639	0.15
678.67	2.15
678.7	7.15
678.731	-9.85
678.761	0.15
678.792	9.15
678.823	7.15
678.853	5.15
678.884	-11.85
678.914	14.15
678.945	11.15
678.975	1.15
679.006	9.15
679.037	1.15
679.067	26.15
679.098	25.15
679.128	1.15
679.159	-2.85
679.189	4.15
679.22	3.15
679.25	1.15
679.281	15.15
679.312	-2.85
679.342	7.15
679.373	23.15
679.403	15.15
679.434	22.15
679.464	19.15
679.495	19.15
679.525	13.15
679.556	-9.85
679.586	14.15
679.617	9.15
679.647	4.15
679.678	2.15
679.708	-5.85
679.739	3.15
679.769	3.15
679.8	5.15
679.83	1.15
679.861	6.15
679.891	9.15
679.922	-5.85
679.952	9.15
679.983	0.15
680.013	28.15
680.044	-3.85
680.074	16.15
680.105	2.15
680.135	-13.85
680.165	24.15
680.196	13.15
680.226	2.15
680.257	3.15
680.287	-3.85
680.318	8.15
680.348	-3.85
680.379	10.15
680.409	6.15
680.439	1.15
680.47	-3.85
680.5	-8.85
680.531	-4.85
680.561	9.15
680.592	13.15
680.622	7.15
680.652	11.15
680.683	21.15
680.713	10.15
680.744	6.15
680.774	-15.85
680.804	20.15
680.835	11.15
680.865	-11.85
680.896	26.15
680.926	20.15
680.956	8.15
680.987	11.15
681.017	6.15
681.047	-1.85
681.078	-16.85
681.108	15.15
681.139	14.15
681.169	0.15
681.199	8.15
681.23	15.15
681.26	-1.85
681.29	1.15
681.321	-19.85
681.351	3.15
681.381	2.15
681.412	4.15
681.442	6.15
681.472	20.15
681.503	8.15
681.533	10.15
681.563	-4.85
681.594	-0.85
681.624	10.15
681.654	-7.85
681.685	0.15
681.715	-2.85
681.745	-14.85
681.775	-0.85
681.806	6.15
681.836	-5.85
681.866	-1.85
681.897	16.15
681.927	9.15
681.957	-9.85
681.987	8.15
682.018	-1.85
682.048	-8.85
682.078	20.15
682.109	45.15
682.139	7.15
682.169	-5.85
682.199	3.15
682.23	0.15
682.26	3.15
682.29	9.15
682.32	9.15
682.351	1.15
682.381	-4.85
682.411	-0.85
682.441	-6.85
682.472	-3.85
682.502	-0.85
682.532	-18.85
682.562	6.15
682.592	3.15
682.623	6.15
682.653	9.15
682.683	9.15
682.713	10.15
682.743	-1.85
682.774	-8.85
682.804	24.15
682.834	15.15
682.864	3.15
682.894	1.15
682.925	-7.85
682.955	-9.85
682.985	3.15
683.015	3.15
683.045	15.15
683.076	12.15
683.106	17.15
683.136	7.15
683.166	6.15
683.196	10.15
683.226	-8.85
683.257	-6.85
683.287	5.15
683.317	1.15
683.347	1.15
683.377	-0.85
683.407	1.15
683.437	7.15
683.468	16.15
683.498	4.15
683.528	13.15
683.558	23.15
683.588	6.15
683.618	4.15
683.648	-8.85
683.678	9.15
683.708	11.15
683.739	-0.85
683.769	12.15
683.799	16.15
683.829	7.15
683.859	2.15
683.889	19.15
683.919	8.15
683.949	12.15
683.979	4.15
684.009	8.15
684.039	-9.85
684.07	-1.85
684.1	21.15
684.13	18.15
684.16	-0.85
684.19	2.15
684.22	1.15
684.25	4.15
684.28	-3.85
684.31	12.15
684.34	19.15
684.37	8.15
684.4	-5.85
684.43	10.15
684.46	0.15
684.49	16.15
684.52	9.15
684.55	29.15
684.58	17.15
684.61	12.15
684.64	8.15
684.67	15.15
684.7	-5.85
684.73	14.15
684.76	-2.85
684.79	2.15
684.82	-17.85
684.85	9.15
684.88	9.15
684.91	6.15
684.94	-6.85
684.97	-3.85
685	-1.85
685.03	-12.85
685.06	0.15
685.09	1.15
685.12	14.15
685.15	-1.85
685.18	10.15
685.21	3.15
685.24	0.15
685.27	16.15
685.3	1.15
685.33	8.15
685.36	0.15
685.39	15.15
685.42	-1.85
685.45	18.15
685.48	-6.85
685.51	6.15
685.54	6.15
685.569	11.15
685.599	15.15
685.629	3.15
685.659	-8.85
685.689	7.15
685.719	-0.85
685.749	0.15
685.779	6.15
685.809	17.15
685.839	5.15
685.869	10.15
685.898	13.15
685.928	7.15
685.958	-0.85
685.988	15.15
686.018	3.15
686.048	13.15
686.078	4.15
686.108	10.15
686.137	24.15
686.167	22.15
686.197	-25.85
686.227	17.15
686.257	29.15
686.287	15.15
686.317	2.15
686.346	-18.85
686.376	-14.85
686.406	-2.85
686.436	4.15
686.466	4.15
686.496	-6.85
686.525	3.15
686.555	-1.85
686.585	2.15
686.615	37.15
686.645	27.15
686.675	6.15
686.704	27.15
686.734	6.15
686.764	-9.85
686.794	-3.85
686.824	8.15
686.853	15.15
686.883	6.15
686.913	23.15
686.943	-2.85
686.973	-8.85
687.002	14.15
687.032	15.15
687.062	7.15
687.092	19.15
687.121	2.15
687.151	12.15
687.181	7.15
687.211	-5.85
687.24	1.15
687.27	-0.85
687.3	7.15
687.33	13.15
687.359	-28.85
687.389	-9.85
687.419	7.15
687.449	-0.85
687.478	19.15
687.508	3.15
687.538	6.15
687.568	9.15
687.597	-0.85
687.627	-6.85
687.657	0.15
687.686	15.15
687.716	31.15
687.746	4.15
687.776	-8.85
687.805	-0.85
687.835	3.15
687.865	17.15
687.894	26.15
687.924	0.15
687.954	8.15
687.983	16.15
688.013	12.15
688.043	26.15
688.072	12.15
688.102	18.15
688.132	5.15
688.161	8.15
688.191	-8.85
688.221	33.15
688.25	0.15
688.28	5.15
688.31	8.15
688.339	7.15
688.369	6.15
688.399	4.15
688.428	-0.85
688.458	3.15
688.488	-3.85
688.517	12.15
688.547	7.15
688.576	33.15
688.606	17.15
688.636	-1.85
688.665	-1.85
688.695	6.15
688.725	9.15
688.754	9.15
688.784	9.15
688.813	11.15
688.843	2.15
688.873	11.15
688.902	-7.85
688.932	3.15
688.961	-4.85
688.991	12.15
689.02	18.15
689.05	9.15
689.08	14.15
689.109	22.15
689.139	4.15
689.168	4.15
689.198	10.15
689.227	-6.85
689.257	5.15
689.287	12.15
689.316	11.15
689.346	-6.85
689.375	-9.85
689.405	17.15
689.434	7.15
689.464	12.15
689.493	12.15
689.523	-1.85
689.552	3.15
689.582	-1.85
689.611	7.15
689.641	16.15
689.67	1.15
689.7	13.15
689.73	11.15
689.759	7.15
689.789	26.15
689.818	-2.85
689.848	0.15
689.877	20.15
689.906	6.15
689.936	-9.85
689.965	4.15
689.995	22.15
690.024	8.15
690.054	-6.85
690.083	7.15
690.113	9.15
690.142	13.15
690.172	1.15
690.201	4.15
690.231	-8.85
690.26	-0.85
690.29	5.15
690.319	11.15
690.348	12.15
690.378	16.15
690.407	7.15
690.437	-1.85
690.466	-2.85
690.496	-11.85
690.525	12.15
690.555	-0.85
690.584	8.15
690.613	3.15
690.643	9.15
690.672	9.15
690.702	-0.85
690.731	1.15
690.76	16.15
690.79	8.15
690.819	8.15
690.849	7.15
690.878	-0.85
690.907	13.15
690.937	23.15
690.966	26.15
690.996	8.15
691.025	20.15
691.054	10.15
691.084	4.15
691.113	-0.85
691.142	0.15
691.172	20.15
691.201	7.15
691.23	7.15
691.26	16.15
691.289	10.15
691.319	1.15
691.348	6.15
691.377	14.15
691.407	7.15
691.436	9.15
691.465	15.15
691.495	18.15
691.524	-0.85
691.553	-4.85
691.583	-6.85
691.612	23.15
691.641	17.15
691.67	5.15
691.7	1.15
691.729	-2.85
691.758	7.15
691.788	11.15
691.817	4.15
691.846	-4.85
691.876	1.15
691.905	6.15
691.934	-1.85
691.963	10.15
691.993	6.15
692.022	3.15
692.051	2.15
692.081	0.15
692.11	22.15
692.139	15.15
692.168	18.15
692.198	25.15
692.227	8.15
692.256	5.15
692.285	-0.85
692.315	11.15
692.344	13.15
692.373	6.15
692.402	-6.85
692.432	-4.85
692.461	0.15
692.49	-1.85
692.519	6.15
692.548	10.15
692.578	21.15
692.607	4.15
692.636	-0.85
692.665	9.15
692.694	2.15
692.724	-4.85
692.753	17.15
692.782	17.15
692.811	6.15
692.84	0.15
692.87	10.15
692.899	11.15
692.928	-7.85
692.957	-1.85
692.986	10.15
693.016	-0.85
693.045	20.15
693.074	14.15
693.103	8.15
693.132	11.15
693.161	15.15
693.191	7.15
693.22	-10.85
693.249	0.15
693.278	1.15
693.307	26.15
693.336	-6.85
693.365	-15.85
693.395	-0.85
693.424	13.15
693.453	21.15
693.482	5.15
693.511	21.15
693.54	0.15
693.569	11.15
693.598	-2.85
693.628	14.15
693.657	11.15
693.686	28.15
693.715	15.15
693.744	9.15
693.773	3.15
693.802	7.15
693.831	4.15
693.86	13.15
693.889	-7.85
693.919	15.15
693.948	2.15
693.977	14.15
694.006	-0.85
694.035	-0.85
694.064	-3.85
694.093	0.15
694.122	6.15
694.151	-7.85
694.18	10.15
694.209	27.15
694.238	2.15
694.267	25.15
694.296	16.15
694.325	8.15
694.354	21.15
694.383	8.15
694.412	4.15
694.441	-7.85
694.471	-1.85
694.5	2.15
694.529	7.15
694.558	23.15
694.587	11.15
694.616	-2.85
694.645	10.15
694.674	17.15
694.703	13.15
694.732	-1.85
694.761	-0.85
694.79	4.15
694.819	-2.85
694.848	11.15
694.877	20.15
694.906	12.15
694.935	7.15
694.963	15.15
694.992	12.15
695.021	19.15
695.05	10.15
695.079	8.15
695.108	24.15
695.137	38.15
695.166	19.15
695.195	11.15
695.224	11.15
695.253	2.15
695.282	12.15
695.311	22.15
695.34	-4.85
695.369	18.15
695.398	14.15
695.427	25.15
695.456	24.15
695.485	20.15
695.513	17.15
695.542	5.15
695.571	10.15
695.6	24.15
695.629	9.15
695.658	12.15
695.687	-1.85
695.716	5.15
695.745	19.15
695.774	3.15
695.802	7.15
695.831	14.15
695.86	25.15
695.889	31.15
695.918	14.15
695.947	-11.85
695.976	7.15
696.005	6.15
696.033	5.15
696.062	17.15
696.091	6.15
696.12	11.15
696.149	13.15
696.178	-2.85
696.207	12.15
696.235	-19.85
696.264	7.15
696.293	9.15
696.322	17.15
696.351	-0.85
696.38	-0.85
696.408	3.15
696.437	-2.85
696.466	10.15
696.495	17.15
696.524	18.15
696.553	14.15
696.581	5.15
696.61	8.15
696.639	5.15
696.668	5.15
696.697	-3.85
696.725	13.15
696.754	10.15
696.783	-5.85
696.812	26.15
696.84	3.15
696.869	2.15
696.898	2.15
696.927	11.15
696.956	16.15
696.984	-4.85
697.013	15.15
697.042	18.15
697.071	13.15
697.099	23.15
697.128	10.15
697.157	20.15
697.186	11.15
697.214	1.15
697.243	-0.85
697.272	0.15
697.301	2.15
697.329	1.15
697.358	29.15
697.387	27.15
697.415	5.15
697.444	-7.85
697.473	11.15
697.502	5.15
697.53	13.15
697.559	6.15
697.588	7.15
697.616	8.15
697.645	-0.85
697.674	9.15
697.703	12.15
697.731	17.15
697.76	6.15
697.789	-4.85
697.817	1.15
697.846	8.15
697.875	0.15
697.903	20.15
697.932	14.15
697.961	-7.85
697.989	25.15
698.018	-5.85
698.047	20.15
698.075	20.15
698.104	1.15
698.133	-5.85
698.161	-2.85
698.19	6.15
698.218	13.15
698.247	13.15
698.276	4.15
698.304	13.15
698.333	17.15
698.362	-0.85
698.39	6.15
698.419	19.15
698.447	10.15
698.476	17.15
698.505	13.15
698.533	-0.85
698.562	7.15
698.591	-5.85
698.619	-10.85
698.648	17.15
698.676	24.15
698.705	4.15
698.733	-5.85
698.762	12.15
698.791	8.15
698.819	-2.85
698.848	4.15
698.876	17.15
698.905	3.15
698.933	8.15
698.962	6.15
698.991	-7.85
699.019	20.15
699.048	13.15
699.076	9.15
699.105	-3.85
699.133	0.15
699.162	8.15
699.19	10.15
699.219	1.15
699.248	11.15
699.276	-10.85
699.305	4.15
699.333	11.15
699.362	8.15
699.39	6.15
699.419	-1.85
699.447	7.15
699.476	12.15
699.504	-1.85
699.533	5.15
699.561	-3.85
699.59	4.15
699.618	3.15
699.647	6.15
699.675	8.15
699.704	14.15
699.732	4.15
699.761	11.15
699.789	8.15
699.818	3.15
699.846	-14.85
699.874	8.15
699.903	3.15
699.931	0.15
699.96	13.15
699.988	5.15
700.017	5.15
700.045	1.15
700.074	7.15
700.102	-4.85
700.13	2.15
700.159	16.15
700.187	4.15
700.216	6.15
700.244	9.15
700.273	16.15
700.301	18.15
700.329	23.15
700.358	9.15
700.386	2.15
700.415	-11.85
700.443	11.15
700.472	8.15
700.5	1.15
700.528	12.15
700.557	17.15
700.585	10.15
700.614	4.15
700.642	28.15
700.67	19.15
700.699	25.15
700.727	17.15
700.755	-2.85
700.784	12.15
700.812	8.15
700.841	16.15
700.869	1.15
700.897	-10.85
700.926	-5.85
700.954	3.15
700.982	15.15
701.011	5.15
701.039	14.15
701.067	5.15
701.096	-0.85
701.124	-3.85
701.152	0.15
701.181	8.15
701.209	-3.85
701.237	-0.85
701.266	-11.85
701.294	-15.85
701.322	9.15
701.351	16.15
701.379	6.15
701.407	-2.85
701.435	-0.85
701.464	17.15
701.492	3.15
701.52	-7.85
701.549	7.15
701.577	-2.85
701.605	3.15
701.634	0.15
701.662	10.15
701.69	12.15
701.718	0.15
701.747	16.15
701.775	7.15
701.803	4.15
701.831	15.15
701.86	11.15
701.888	31.15
701.916	-1.85
701.944	19.15
701.973	10.15
702.001	-2.85
702.029	4.15
702.057	4.15
702.086	-9.85
702.114	-5.85
702.142	6.15
702.17	-11.85
702.199	2.15
702.227	-5.85
702.255	4.15
702.283	3.15
702.311	12.15
702.34	5.15
702.368	13.15
702.396	4.15
702.424	-2.85
702.452	-2.85
702.481	14.15
702.509	8.15
702.537	26.15
702.565	12.15
702.593	-0.85
702.621	3.15
702.65	4.15
702.678	9.15
702.706	8.15
702.734	-7.85
702.762	14.15
702.79	10.15
702.819	4.15
702.847	11.15
702.875	27.15
702.903	14.15
702.931	-0.85
702.959	-0.85
702.988	2.15
703.016	5.15
703.044	-9.85
703.072	5.15
703.1	2.15
703.128	6.15
703.156	2.15
703.184	-0.85
703.212	2.15
703.241	10.15
703.269	10.15
703.297	27.15
703.325	5.15
703.353	-13.85
703.381	9.15
703.409	8.15
703.437	-11.85
703.465	0.15
703.493	9.15
703.522	-0.85
703.55	8.15
703.578	13.15
703.606	-3.85
703.634	11.15
703.662	6.15
703.69	5.15
703.718	4.15
703.746	21.15
703.774	-4.85
703.802	10.15
703.83	7.15
703.858	6.15
703.886	5.15
703.914	3.15
703.942	4.15
703.97	-1.85
703.998	-3.85
704.027	8.15
704.055	4.15
704.083	8.15
704.111	-4.85
704.139	2.15
704.167	2.15
704.195	12.15
704.223	1.15
704.251	12.15
704.279	14.15
704.307	15.15
704.335	-8.85
704.363	12.15
704.391	2.15
704.419	4.15
704.447	3.15
704.475	-0.85
704.503	-9.85
704.531	5.15
704.558	17.15
704.586	11.15
704.614	5.15
704.642	-2.85
704.67	-1.85
704.698	5.15
704.726	16.15
704.754	9.15
704.782	10.15
704.81	10.15
704.838	15.15
704.866	22.15
704.894	-17.85
704.922	-12.85
704.95	18.15
704.978	19.15
705.006	17.15
705.034	14.15
705.061	3.15
705.089	11.15
705.117	-6.85
705.145	-2.85
705.173	-0.85
705.201	6.15
705.229	16.15
705.257	12.15
705.285	14.15
705.313	8.15
705.34	1.15
705.368	0.15
705.396	11.15
705.424	16.15
705.452	0.15
705.48	2.15
705.508	4.15
705.536	7.15
705.563	13.15
705.591	21.15
705.619	23.15
705.647	13.15
705.675	1.15
705.703	4.15
705.731	6.15
705.758	13.15
705.786	3.15
705.814	4.15
705.842	-8.85
705.87	28.15
705.898	18.15
705.925	5.15
705.953	-8.85
705.981	-16.85
706.009	3.15
706.037	18.15
706.065	5.15
706.092	1.15
706.12	15.15
706.148	1.15
706.176	-2.85
706.204	12.15
706.231	4.15
706.259	4.15
706.287	2.15
706.315	-0.85
706.342	8.15
706.37	22.15
706.398	6.15
706.426	8.15
706.454	-2.85
706.481	-0.85
706.509	6.15
706.537	3.15
706.565	-11.85
706.592	19.15
706.62	-1.85
706.648	12.15
706.676	-1.85
706.703	3.15
706.731	-0.85
706.759	11.15
706.787	16.15
706.814	9.15
706.842	-0.85
706.87	1.15
706.897	14.15
706.925	0.15
706.953	21.15
706.981	26.15
707.008	17.15
707.036	4.15
707.064	9.15
707.091	-26.85
707.119	2.15
707.147	-3.85
707.174	-2.85
707.202	15.15
707.23	-6.85
707.258	11.15
707.285	-6.85
707.313	-1.85
707.341	-24.85
707.368	6.15
707.396	11.15
707.424	12.15
707.451	5.15
707.479	21.15
707.507	-12.85
707.534	-2.85
707.562	14.15
707.59	-12.85
707.617	-18.85
707.645	1.15
707.672	6.15
707.7	9.15
707.728	25.15
707.755	8.15
707.783	-2.85
707.811	-2.85
707.838	-7.85
707.866	-12.85
707.893	-7.85
707.921	-13.85
707.949	-5.85
707.976	8.15
708.004	9.15
708.031	-5.85
708.059	3.15
708.087	3.15
708.114	-4.85
708.142	-2.85
708.169	1.15
708.197	-4.85
708.225	-0.85
708.252	-2.85
708.28	7.15
708.307	1.15
708.335	5.15
708.362	1.15
708.39	-9.85
708.418	-5.85
708.445	-14.85
708.473	-14.85
708.5	-1.85
708.528	17.15
708.555	-11.85
708.583	-1.85
708.61	-1.85
708.638	5.15
708.665	-0.85
708.693	1.15
708.72	-1.85
708.748	1.15
708.776	1.15
708.803	10.15
708.831	17.15
708.858	9.15
708.886	-6.85
708.913	6.15
708.941	5.15
708.968	5.15
708.996	-6.85
709.023	25.15
709.051	-6.85
709.078	-8.85
709.105	5.15
709.133	-1.85
709.16	1.15
709.188	16.15
709.215	11.15
709.243	20.15
709.27	11.15
709.298	-15.85
709.325	-0.85
709.353	-6.85
709.38	12.15
709.408	22.15
709.435	23.15
709.462	15.15
709.49	11.15
709.517	-5.85
709.545	-1.85
709.572	4.15
709.6	14.15
709.627	21.15
709.655	15.15
709.682	4.15
709.709	3.15
709.737	10.15
709.764	-3.85
709.792	16.15
709.819	-5.85
709.846	7.15
709.874	13.15
709.901	3.15
709.929	17.15
709.956	9.15
709.983	-19.85
710.011	0.15
710.038	5.15
710.066	12.15
710.093	17.15
710.12	12.15
710.148	7.15
710.175	5.15
710.202	2.15
710.23	13.15
710.257	3.15
710.284	2.15
710.312	11.15
710.339	4.15
710.366	0.15
710.394	-12.85
710.421	-12.85
710.448	1.15
710.476	5.15
710.503	16.15
710.53	17.15
710.558	21.15
710.585	18.15
710.612	3.15
710.64	-9.85
710.667	8.15
710.694	3.15
710.722	-0.85
710.749	-4.85
710.776	14.15
710.804	16.15
710.831	16.15
710.858	1.15
710.885	-1.85
710.913	13.15
710.94	16.15
710.967	7.15
710.995	4.15
711.022	5.15
711.049	12.15
711.076	7.15
711.104	4.15
711.131	-3.85
711.158	14.15
711.185	25.15
711.213	-4.85
711.24	4.15
711.267	-2.85
711.294	-23.85
711.322	14.15
711.349	5.15
711.376	15.15
711.403	10.15
711.431	10.15
711.458	4.15
711.485	-3.85
711.512	13.15
711.54	4.15
711.567	-2.85
711.594	4.15
711.621	-3.85
711.648	17.15
711.676	16.15
711.703	0.15
711.73	-16.85
711.757	4.15
711.784	6.15
711.812	17.15
711.839	0.15
711.866	-3.85
711.893	-4.85
711.92	12.15
711.947	8.15
711.975	22.15
712.002	-2.85
712.029	7.15
712.056	14.15
712.083	20.15
712.11	-23.85
712.138	7.15
712.165	6.15
712.192	14.15
712.219	8.15
712.246	1.15
712.273	0.15
712.3	-10.85
712.328	2.15
712.355	9.15
712.382	0.15
712.409	19.15
712.436	4.15
712.463	13.15
712.49	14.15
712.517	8.15
712.544	-0.85
712.572	5.15
712.599	2.15
712.626	18.15
712.653	18.15
712.68	0.15
712.707	19.15
712.734	12.15
712.761	11.15
712.788	-0.85
712.815	4.15
712.842	10.15
712.87	8.15
712.897	4.15
712.924	3.15
712.951	6.15
712.978	12.15
713.005	7.15
713.032	16.15
713.059	3.15
713.086	6.15
713.113	-10.85
713.14	-3.85
713.167	8.15
713.194	-0.85
713.221	0.15
713.248	17.15
713.275	-9.85
713.302	-12.85
713.329	2.15
713.356	10.15
713.383	5.15
713.41	16.15
713.437	0.15
713.464	2.15
713.491	16.15
713.518	28.15
713.545	-6.85
713.572	-12.85
713.599	23.15
713.626	5.15
713.653	7.15
713.68	11.15
713.707	15.15
713.734	0.15
713.761	1.15
713.788	4.15
713.815	20.15
713.842	-4.85
713.869	5.15
713.896	-7.85
713.923	3.15
713.95	3.15
713.977	-3.85
714.004	-8.85
714.031	3.15
714.058	9.15
714.085	10.15
714.112	28.15
714.139	-1.85
714.165	-2.85
714.192	-0.85
714.219	1.15
714.246	11.15
714.273	-4.85
714.3	7.15
714.327	2.15
714.354	4.15
714.381	-3.85
714.408	4.15
714.435	12.15
714.461	8.15
714.488	4.15
714.515	-1.85
714.542	-11.85
714.569	-6.85
714.596	-12.85
714.623	3.15
714.65	-1.85
714.677	-6.85
714.703	3.15
714.73	0.15
714.757	9.15
714.784	-1.85
714.811	3.15
714.838	2.15
714.865	-6.85
714.891	17.15
714.918	5.15
714.945	-5.85
714.972	14.15
714.999	14.15
715.026	-7.85
715.052	15.15
715.079	8.15
715.106	6.15
715.133	10.15
715.16	-3.85
715.187	27.15
715.213	22.15
715.24	12.15
715.267	-2.85
715.294	1.15
715.321	0.15
715.347	1.15
715.374	3.15
715.401	-2.85
715.428	-10.85
715.455	11.15
715.481	-3.85
715.508	13.15
715.535	-3.85
715.562	19.15
715.588	0.15
715.615	-0.85
715.642	-10.85
715.669	17.15
715.695	-9.85
715.722	-11.85
715.749	2.15
715.776	19.15
715.802	16.15
715.829	19.15
715.856	-9.85
715.883	-0.85
715.909	-0.85
715.936	4.15
715.963	16.15
715.99	-14.85
716.016	4.15
716.043	12.15
716.07	-0.85
716.096	-14.85
716.123	-0.85
716.15	-4.85
716.177	-0.85
716.203	23.15
716.23	15.15
716.257	0.15
716.283	24.15
716.31	8.15
716.337	11.15
716.363	13.15
716.39	3.15
716.417	10.15
716.443	5.15
716.47	16.15
716.497	12.15
716.523	13.15
716.55	17.15
716.577	7.15
716.603	-0.85
716.63	-5.85
716.657	24.15
716.683	-3.85
716.71	-2.85
716.737	9.15
716.763	1.15
716.79	8.15
716.817	11.15
716.843	5.15
716.87	8.15
716.897	6.15
716.923	7.15
716.95	9.15
716.976	-0.85
717.003	0.15
717.03	-0.85
717.056	4.15
717.083	4.15
717.109	7.15
717.136	17.15
717.163	-6.85
717.189	7.15
717.216	13.15
717.242	9.15
717.269	5.15
717.296	16.15
717.322	4.15
717.349	27.15
717.375	5.15
717.402	4.15
717.428	-0.85
717.455	18.15
717.481	10.15
717.508	8.15
717.535	5.15
717.561	3.15
717.588	10.15
717.614	6.15
717.641	-3.85
717.667	15.15
717.694	11.15
717.72	13.15
717.747	18.15
717.773	-5.85
717.8	18.15
717.826	9.15
717.853	20.15
717.88	19.15
717.906	9.15
717.933	1.15
717.959	9.15
717.986	25.15
718.012	14.15
718.039	27.15
718.065	17.15
718.092	10.15
718.118	-5.85
718.144	-7.85
718.171	17.15
718.197	7.15
718.224	12.15
718.25	0.15
718.277	20.15
718.303	-1.85
718.33	-0.85
718.356	-8.85
718.383	-7.85
718.409	-2.85
718.436	-7.85
718.462	-1.85
718.489	7.15
718.515	1.15
718.541	17.15
718.568	9.15
718.594	-0.85
718.621	13.15
718.647	1.15
718.674	16.15
718.7	8.15
718.726	0.15
718.753	1.15
718.779	-0.85
718.806	-10.85
718.832	4.15
718.858	0.15
718.885	-2.85
718.911	-0.85
718.938	11.15
718.964	4.15
718.99	4.15
719.017	11.15
719.043	10.15
719.07	8.15
719.096	6.15
719.122	15.15
719.149	3.15
719.175	6.15
719.201	3.15
719.228	4.15
719.254	-2.85
719.281	7.15
719.307	3.15
719.333	4.15
719.36	8.15
719.386	3.15
719.412	1.15
719.439	-4.85
719.465	-14.85
719.491	-17.85
719.518	18.15
719.544	-1.85
719.57	4.15
719.597	4.15
719.623	-15.85
719.649	-0.85
719.675	-11.85
719.702	7.15
719.728	16.15
719.754	-11.85
719.781	-11.85
719.807	-10.85
719.833	17.15
719.86	15.15
719.886	-0.85
719.912	10.15
719.938	8.15
719.965	14.15
719.991	8.15
720.017	-1.85
720.044	5.15
720.07	9.15
720.096	4.15
720.122	-7.85
720.149	7.15
720.175	24.15
720.201	3.15
720.227	8.15
720.254	0.15
720.28	-4.85
720.306	-9.85
720.332	-0.85
720.359	8.15
720.385	4.15
720.411	7.15
720.437	2.15
720.463	3.15
720.49	1.15
720.516	0.15
720.542	2.15
720.568	1.15
720.595	6.15
720.621	9.15
720.647	8.15
720.673	13.15
720.699	-7.85
720.725	19.15
720.752	8.15
720.778	6.15
720.804	15.15
720.83	-6.85
720.856	11.15
720.883	-2.85
720.909	7.15
720.935	16.15
720.961	7.15
720.987	-10.85
721.013	0.15
721.04	-4.85
721.066	5.15
721.092	13.15
721.118	2.15
721.144	-3.85
721.17	1.15
721.196	9.15
721.223	-4.85
721.249	1.15
721.275	20.15
721.301	6.15
721.327	12.15
721.353	19.15
721.379	21.15
721.405	15.15
721.432	16.15
721.458	-2.85
721.484	5.15
721.51	-8.85
721.536	5.15
721.562	2.15
721.588	4.15
721.614	5.15
721.64	1.15
721.666	8.15
721.693	0.15
721.719	-23.85
721.745	-16.85
721.771	5.15
721.797	4.15
721.823	13.15
721.849	18.15
721.875	10.15
721.901	13.15
721.927	-1.85
721.953	24.15
721.979	25.15
722.005	12.15
722.031	-2.85
722.057	-11.85
722.083	4.15
722.109	8.15
722.135	9.15
722.161	13.15
722.187	3.15
722.214	-4.85
722.24	0.15
722.266	8.15
722.292	1.15
722.318	-0.85
722.344	13.15
722.37	27.15
722.396	8.15
722.422	-9.85
722.448	5.15
722.474	-6.85
722.5	15.15
722.526	15.15
722.552	19.15
722.578	-7.85
722.603	1.15
722.629	9.15
722.655	-7.85
722.681	6.15
722.707	17.15
722.733	1.15
722.759	-12.85
722.785	6.15
722.811	-1.85
722.837	17.15
722.863	12.15
722.889	22.15
722.915	6.15
722.941	7.15
722.967	-4.85
722.993	15.15
723.019	7.15
723.045	9.15
723.071	2.15
723.097	5.15
723.122	8.15
723.148	2.15
723.174	-11.85
723.2	0.15
723.226	1.15
723.252	13.15
723.278	-1.85
723.304	-2.85
723.33	4.15
723.356	-7.85
723.381	-6.85
723.407	-10.85
723.433	6.15
723.459	-12.85
723.485	-1.85
723.511	4.15
723.537	-3.85
723.563	12.15
723.588	-0.85
723.614	21.15
723.64	3.15
723.666	3.15
723.692	9.15
723.718	6.15
723.744	16.15
723.769	0.15
723.795	4.15
723.821	6.15
723.847	2.15
723.873	3.15
723.899	6.15
723.924	-7.85
723.95	5.15
723.976	-8.85
724.002	3.15
724.028	10.15
724.053	-7.85
724.079	2.15
724.105	8.15
724.131	-2.85
724.157	0.15
724.182	10.15
724.208	-3.85
724.234	5.15
724.26	-2.85
724.286	12.15
724.311	-11.85
724.337	5.15
724.363	-9.85
724.389	9.15
724.415	14.15
724.44	14.15
724.466	9.15
724.492	9.15
724.518	14.15
724.543	4.15
724.569	9.15
724.595	8.15
724.621	1.15
724.646	7.15
724.672	4.15
724.698	-3.85
724.723	5.15
724.749	4.15
724.775	19.15
724.801	9.15
724.826	0.15
724.852	0.15
724.878	6.15
724.904	1.15
724.929	17.15
724.955	-9.85
724.981	-3.85
725.006	7.15
725.032	16.15
725.058	5.15
725.083	0.15
725.109	5.15
725.135	-0.85
725.161	3.15
725.186	11.15
725.212	0.15
725.238	20.15
725.263	6.15
725.289	7.15
725.315	-7.85
725.34	11.15
725.366	6.15
725.392	1.15
725.417	-3.85
725.443	3.15
725.468	6.15
725.494	9.15
725.52	5.15
725.545	-9.85
725.571	0.15
725.597	12.15
725.622	16.15
725.648	10.15
725.674	14.15
725.699	9.15
725.725	4.15
725.75	23.15
725.776	-2.85
725.802	-2.85
725.827	5.15
725.853	0.15
725.878	12.15
725.904	-1.85
725.93	5.15
725.955	2.15
725.981	-3.85
726.006	-4.85
726.032	15.15
726.057	-0.85
726.083	0.15
726.109	-3.85
726.134	3.15
726.16	8.15
726.185	-8.85
726.211	-0.85
726.236	14.15
726.262	13.15
726.288	14.15
726.313	34.15
726.339	23.15
726.364	10.15
726.39	19.15
726.415	5.15
726.441	-3.85
726.466	-2.85
726.492	3.15
726.517	12.15
726.543	-7.85
726.568	-3.85
726.594	11.15
726.619	9.15
726.645	12.15
726.67	4.15
726.696	19.15
726.721	-0.85
726.747	-10.85
726.772	5.15
726.798	3.15
726.823	14.15
726.849	4.15
726.874	9.15
726.9	37.15
726.925	9.15
726.951	-0.85
726.976	22.15
727.002	5.15
727.027	1.15
727.053	13.15
727.078	6.15
727.104	1.15
727.129	-4.85
727.155	-7.85
727.18	10.15
727.205	10.15
727.231	-8.85
727.256	-1.85
727.282	14.15
727.307	10.15
727.333	13.15
727.358	-8.85
727.383	-5.85
727.409	-15.85
727.434	20.15
727.46	3.15
727.485	-3.85
727.511	2.15
727.536	-8.85
727.561	-1.85
727.587	-4.85
727.612	-2.85
727.637	7.15
727.663	2.15
727.688	10.15
727.714	-2.85
727.739	5.15
727.764	12.15
727.79	3.15
727.815	6.15
727.841	13.15
727.866	15.15
727.891	14.15
727.917	1.15
727.942	-11.85
727.967	-3.85
727.993	-9.85
728.018	10.15
728.043	7.15
728.069	20.15
728.094	3.15
728.119	-1.85
728.145	15.15
728.17	3.15
728.195	8.15
728.221	24.15
728.246	14.15
728.271	-13.85
728.297	-7.85
728.322	-0.85
728.347	11.15
728.373	-2.85
728.398	20.15
728.423	1.15
728.448	0.15
728.474	3.15
728.499	9.15
728.524	-4.85
728.55	8.15
728.575	3.15
728.6	12.15
728.625	-4.85
728.651	5.15
728.676	5.15
728.701	-5.85
728.727	-2.85
728.752	5.15
728.777	0.15
728.802	-4.85
728.828	5.15
728.853	3.15
728.878	3.15
728.903	-4.85
728.929	4.15
728.954	-7.85
728.979	21.15
729.004	15.15
729.03	0.15
729.055	6.15
729.08	1.15
729.105	1.15
729.13	24.15
729.156	18.15
729.181	13.15
729.206	-0.85
729.231	4.15
729.256	7.15
729.282	12.15
729.307	-7.85
729.332	-0.85
729.357	-9.85
729.382	-9.85
729.408	4.15
729.433	3.15
729.458	11.15
729.483	20.15
729.508	18.15
729.533	12.15
729.559	12.15
729.584	-2.85
729.609	11.15
729.634	20.15
729.659	-3.85
729.684	-11.85
729.71	15.15
729.735	7.15
729.76	7.15
729.785	-1.85
729.81	15.15
729.835	13.15
729.86	9.15
729.886	24.15
729.911	7.15
729.936	10.15
729.961	17.15
729.986	-11.85
730.011	7.15
730.036	-1.85
730.061	2.15
730.086	0.15
730.112	15.15
730.137	22.15
730.162	3.15
730.187	-21.85
730.212	17.15
730.237	9.15
730.262	19.15
730.287	6.15
730.312	28.15
730.337	-4.85
730.362	5.15
730.387	-0.85
730.413	1.15
730.438	5.15
730.463	18.15
730.488	8.15
730.513	0.15
730.538	-4.85
730.563	24.15
730.588	19.15
730.613	16.15
730.638	1.15
730.663	7.15
730.688	25.15
730.713	-5.85
730.738	-0.85
730.763	-0.85
730.788	-0.85
730.813	4.15
730.838	-0.85
730.863	-4.85
730.888	-0.85
730.913	-11.85
730.938	-10.85
730.963	18.15
730.988	-3.85
731.013	13.15
731.038	4.15
731.063	-6.85
731.088	22.15
731.113	11.15
731.138	-1.85
731.163	-8.85
731.188	-4.85
731.213	1.15
731.238	11.15
731.263	7.15
731.288	-6.85
731.313	10.15
731.338	13.15
731.363	2.15
731.388	11.15
731.413	4.15
731.438	10.15
731.463	17.15
731.487	31.15
731.512	4.15
731.537	19.15
731.562	9.15
731.587	13.15
731.612	-3.85
731.637	2.15
731.662	7.15
731.687	0.15
731.712	-7.85
731.737	8.15
731.762	7.15
731.786	2.15
731.811	26.15
731.836	11.15
731.861	1.15
731.886	12.15
731.911	12.15
731.936	8.15
731.961	1.15
731.986	8.15
732.01	4.15
732.035	8.15
732.06	28.15
732.085	8.15
732.11	10.15
732.135	3.15
732.16	0.15
732.184	5.15
732.209	0.15
732.234	4.15
732.259	-11.85
732.284	14.15
732.309	-3.85
732.334	4.15
732.358	-11.85
732.383	-11.85
732.408	-4.85
732.433	14.15
732.458	4.15
732.482	22.15
732.507	12.15
732.532	7.15
732.557	5.15
732.582	18.15
732.607	3.15
732.631	-8.85
732.656	-13.85
732.681	-9.85
732.706	13.15
732.73	24.15
732.755	12.15
732.78	15.15
732.805	7.15
732.83	4.15
732.854	7.15
732.879	11.15
732.904	11.15
732.929	-3.85
732.953	12.15
732.978	13.15
733.003	-0.85
733.028	5.15
733.052	13.15
733.077	5.15
733.102	15.15
733.127	4.15
733.151	3.15
733.176	17.15
733.201	13.15
733.226	2.15
733.25	21.15
733.275	10.15
733.3	13.15
733.324	19.15
733.349	15.15
733.374	11.15
733.399	-17.85
733.423	-2.85
733.448	-2.85
733.473	1.15
733.497	-6.85
733.522	-15.85
733.547	9.15
733.571	31.15
733.596	7.15
733.621	-0.85
733.646	-4.85
733.67	14.15
733.695	6.15
733.72	8.15
733.744	20.15
733.769	15.15
733.794	18.15
733.818	3.15
733.843	-5.85
733.867	-6.85
733.892	-12.85
733.917	1.15
733.941	16.15
733.966	5.15
733.991	10.15
734.015	20.15
734.04	18.15
734.065	11.15
734.089	14.15
734.114	4.15
734.138	0.15
734.163	-17.85
734.188	4.15
734.212	9.15
734.237	12.15
734.261	11.15
734.286	-2.85
734.311	7.15
734.335	4.15
734.36	5.15
734.384	15.15
734.409	7.15
734.434	4.15
734.458	7.15
734.483	-0.85
734.507	-1.85
734.532	-0.85
734.556	19.15
734.581	11.15
734.606	7.15
734.63	-4.85
734.655	21.15
734.679	11.15
734.704	9.15
734.728	6.15
734.753	24.15
734.777	0.15
734.802	5.15
734.826	9.15
734.851	-9.85
734.876	31.15
734.9	14.15
734.925	1.15
734.949	20.15
734.974	4.15
734.998	20.15
735.023	5.15
735.047	-9.85
735.072	21.15
735.096	7.15
735.121	6.15
735.145	-3.85
735.17	15.15
735.194	19.15
735.219	-1.85
735.243	1.15
735.268	19.15
735.292	10.15
735.317	1.15
735.341	16.15
735.365	-8.85
735.39	12.15
735.414	16.15
735.439	5.15
735.463	-0.85
735.488	16.15
735.512	4.15
735.537	2.15
735.561	-6.85
735.586	4.15
735.61	13.15
735.634	2.15
735.659	-9.85
735.683	21.15
735.708	13.15
735.732	1.15
735.757	-1.85
735.781	0.15
735.805	14.15
735.83	-14.85
735.854	0.15
735.879	5.15
735.903	11.15
735.927	11.15
735.952	8.15
735.976	1.15
736.001	0.15
736.025	-7.85
736.049	9.15
736.074	10.15
736.098	15.15
736.123	-2.85
736.147	1.15
736.171	7.15
736.196	9.15
736.22	-0.85
736.244	7.15
736.269	-5.85
736.293	3.15
736.317	8.15
736.342	7.15
736.366	32.15
736.39	20.15
736.415	9.15
736.439	14.15
736.463	17.15
736.488	0.15
736.512	13.15
736.536	30.15
736.561	15.15
736.585	9.15
736.609	4.15
736.634	-7.85
736.658	0.15
736.682	-3.85
736.707	-5.85
736.731	-7.85
736.755	-0.85
736.78	22.15
736.804	24.15
736.828	15.15
736.852	-12.85
736.877	22.15
736.901	12.15
736.925	9.15
736.949	4.15
736.974	8.15
736.998	3.15
737.022	4.15
737.047	-8.85
737.071	-6.85
737.095	4.15
737.119	24.15
737.144	23.15
737.168	-0.85
737.192	-2.85
737.216	5.15
737.241	8.15
737.265	12.15
737.289	-1.85
737.313	-1.85
737.337	24.15
737.362	5.15
737.386	-12.85
737.41	-0.85
737.434	17.15
737.459	12.15
737.483	9.15
737.507	5.15
737.531	17.15
737.555	5.15
737.58	-15.85
737.604	7.15
737.628	-9.85
737.652	3.15
737.676	-4.85
737.701	13.15
737.725	5.15
737.749	16.15
737.773	3.15
737.797	-13.85
737.821	1.15
737.846	12.15
737.87	29.15
737.894	10.15
737.918	-0.85
737.942	5.15
737.966	12.15
737.99	19.15
738.015	-0.85
738.039	10.15
738.063	9.15
738.087	24.15
738.111	16.15
738.135	26.15
738.159	3.15
738.184	13.15
738.208	6.15
738.232	0.15
738.256	14.15
738.28	9.15
738.304	14.15
738.328	-11.85
738.352	19.15
738.376	8.15
738.4	1.15
738.425	9.15
738.449	6.15
738.473	31.15
738.497	27.15
738.521	5.15
738.545	14.15
738.569	2.15
738.593	8.15
738.617	11.15
738.641	4.15
738.665	-0.85
738.689	13.15
738.713	4.15
738.737	1.15
738.762	8.15
738.786	-4.85
738.81	-12.85
738.834	19.15
738.858	-7.85
738.882	5.15
738.906	-5.85
738.93	22.15
738.954	-3.85
738.978	20.15
739.002	7.15
739.026	5.15
739.05	19.15
739.074	5.15
739.098	9.15
739.122	14.15
739.146	3.15
739.17	15.15
739.194	20.15
739.218	3.15
739.242	-7.85
739.266	-3.85
739.29	16.15
739.314	11.15
739.338	-0.85
739.362	4.15
739.386	4.15
739.41	-8.85
739.434	-3.85
739.458	15.15
739.482	18.15
739.506	15.15
739.53	-7.85
739.554	6.15
739.577	-2.85
739.601	12.15
739.625	-2.85
739.649	-0.85
739.673	-7.85
739.697	3.15
739.721	6.15
739.745	7.15
739.769	20.15
739.793	18.15
739.817	-3.85
739.841	-6.85
739.865	3.15
739.889	-3.85
739.912	13.15
739.936	-6.85
739.96	-1.85
739.984	7.15
740.008	0.15
740.032	3.15
740.056	-3.85
740.08	1.15
740.104	1.15
740.127	18.15
740.151	-0.85
740.175	15.15
740.199	24.15
740.223	69.15
740.247	21.15
740.271	2.15
740.295	-1.85
740.318	9.15
740.342	-5.85
740.366	6.15
740.39	-8.85
740.414	0.15
740.438	-11.85
740.461	17.15
740.485	-6.85
740.509	1.15
740.533	11.15
740.557	-6.85
740.581	-3.85
740.604	-4.85
740.628	4.15
740.652	7.15
740.676	0.15
740.7	7.15
740.723	-3.85
740.747	-9.85
740.771	2.15
740.795	-2.85
740.819	18.15
740.842	12.15
740.866	20.15
740.89	6.15
740.914	20.15
740.938	3.15
740.961	7.15
740.985	19.15
741.009	12.15
741.033	11.15
741.056	11.15
741.08	4.15
741.104	-7.85
741.128	-2.85
741.151	17.15
741.175	5.15
741.199	13.15
741.223	16.15
741.246	5.15
741.27	14.15
741.294	-7.85
741.318	8.15
741.341	7.15
741.365	18.15
741.389	8.15
741.413	16.15
741.436	14.15
741.46	23.15
741.484	22.15
741.507	22.15
741.531	24.15
741.555	27.15
741.579	6.15
741.602	12.15
741.626	22.15
741.65	-0.85
741.673	9.15
741.697	23.15
741.721	7.15
741.744	0.15
741.768	-0.85
741.792	7.15
741.815	12.15
741.839	24.15
741.863	32.15
741.886	11.15
741.91	6.15
741.934	-0.85
741.957	6.15
741.981	21.15
742.005	3.15
742.028	-2.85
742.052	-2.85
742.075	2.15
742.099	27.15
742.123	7.15
742.146	9.15
742.17	-0.85
742.194	-15.85
742.217	-2.85
742.241	-6.85
742.264	-4.85
742.288	12.15
742.312	20.15
742.335	2.15
742.359	5.15
742.382	8.15
742.406	16.15
742.43	-7.85
742.453	8.15
742.477	-16.85
742.5	2.15
742.524	0.15
742.548	-5.85
742.571	15.15
742.595	7.15
742.618	8.15
742.642	-9.85
742.665	15.15
742.689	7.15
742.712	10.15
742.736	-9.85
742.76	6.15
742.783	-10.85
742.807	12.15
742.83	16.15
742.854	2.15
742.877	-1.85
742.901	1.15
742.924	-10.85
742.948	-3.85
742.971	22.15
742.995	12.15
743.018	0.15
743.042	-10.85
743.065	0.15
743.089	0.15
743.112	3.15
743.136	-12.85
743.159	10.15
743.183	5.15
743.206	32.15
743.23	6.15
743.253	13.15
743.277	5.15
743.3	-6.85
743.324	-1.85
743.347	8.15
743.371	28.15
743.394	17.15
743.418	14.15
743.441	11.15
743.465	13.15
743.488	11.15
743.512	-5.85
743.535	-2.85
743.558	-6.85
743.582	-6.85
743.605	1.15
743.629	17.15
743.652	0.15
743.676	-0.85
743.699	23.15
743.723	7.15
743.746	11.15
743.769	3.15
743.793	19.15
743.816	0.15
743.84	17.15
743.863	8.15
743.886	12.15
743.91	17.15
743.933	1.15
743.957	4.15
743.98	6.15
744.003	12.15
744.027	8.15
744.05	3.15
744.074	-8.85
744.097	-2.85
744.12	-1.85
744.144	-1.85
744.167	20.15
744.19	-11.85
744.214	5.15
744.237	-0.85
744.26	25.15
744.284	9.15
744.307	-3.85
744.331	7.15
744.354	-6.85
744.377	6.15
744.401	-5.85
744.424	-0.85
744.447	-10.85
744.471	8.15
