Data from HighRes_H2_15_09_11_07_2024_HR4C61891__107__15-11-07-101.txt Node

Date: Thu Nov 07 15:11:07 EST 2024
User: crc00042
Spectrometer: HR4C6189
Trigger mode: 4
Integration Time (sec): 1.000000E-1
Scans to average: 1
Electric dark correction enabled: true
Nonlinearity correction enabled: false
Boxcar width: 0
XAxis mode: Wavelengths
Number of Pixels in Spectrum: 3648
>>>>>Begin Spectral Data<<<<<
639.567	-58.69
639.602	-58.69
639.636	-58.69
639.67	-50.69
639.704	-21.69
639.738	0.31
639.773	9.31
639.807	-31.69
639.841	10.31
639.875	10.31
639.909	5.31
639.943	-7.69
639.978	4.31
640.012	6.31
640.046	6.31
640.08	7.31
640.114	-8.69
640.148	-11.69
640.182	-1.69
640.217	-5.69
640.251	12.31
640.285	12.31
640.319	-9.69
640.353	1.31
640.387	4.31
640.421	4.31
640.455	-14.69
640.49	-10.69
640.524	-3.69
640.558	3.31
640.592	1.31
640.626	2.31
640.66	7.31
640.694	-7.69
640.728	6.31
640.762	9.31
640.796	18.31
640.83	22.31
640.865	-1.69
640.899	-2.69
640.933	-2.69
640.967	-1.69
641.001	15.31
641.035	0.31
641.069	-10.69
641.103	-8.69
641.137	-4.69
641.171	-15.69
641.205	-6.69
641.239	-13.69
641.273	10.31
641.307	8.31
641.341	7.31
641.375	-4.69
641.409	-9.69
641.443	-1.69
641.477	9.31
641.511	11.31
641.545	7.31
641.579	-17.69
641.614	4.31
641.648	15.31
641.682	0.31
641.716	-6.69
641.75	5.31
641.784	-10.69
641.818	-5.69
641.852	-17.69
641.886	-7.69
641.919	25.31
641.953	2.31
641.987	-2.69
642.021	11.31
642.055	5.31
642.089	-7.69
642.123	-22.69
642.157	-2.69
642.191	-3.69
642.225	4.31
642.259	-2.69
642.293	33.31
642.327	23.31
642.361	12.31
642.395	3.31
642.429	3.31
642.463	3.31
642.497	6.31
642.531	-10.69
642.565	0.31
642.599	10.31
642.633	-5.69
642.666	5.31
642.7	12.31
642.734	9.31
642.768	-0.69
642.802	1.31
642.836	11.31
642.87	5.31
642.904	9.31
642.938	17.31
642.972	6.31
643.005	10.31
643.039	18.31
643.073	3.31
643.107	8.31
643.141	-0.69
643.175	4.31
643.209	-13.69
643.243	-3.69
643.276	-3.69
643.31	-0.69
643.344	-7.69
643.378	-5.69
643.412	6.31
643.446	22.31
643.48	-2.69
643.513	5.31
643.547	3.31
643.581	0.31
643.615	18.31
643.649	8.31
643.683	2.31
643.716	-3.69
643.75	2.31
643.784	-0.69
643.818	0.31
643.852	4.31
643.886	3.31
643.919	3.31
643.953	3.31
643.987	2.31
644.021	1.31
644.055	14.31
644.088	-2.69
644.122	-6.69
644.156	-10.69
644.19	0.31
644.224	-1.69
644.257	9.31
644.291	12.31
644.325	-4.69
644.359	-15.69
644.392	10.31
644.426	-7.69
644.46	4.31
644.494	0.31
644.527	-9.69
644.561	4.31
644.595	-2.69
644.629	-2.69
644.662	0.31
644.696	22.31
644.73	4.31
644.764	6.31
644.797	-2.69
644.831	5.31
644.865	14.31
644.899	-6.69
644.932	20.31
644.966	-8.69
645	4.31
645.033	19.31
645.067	-8.69
645.101	-6.69
645.135	-9.69
645.168	-8.69
645.202	-10.69
645.236	4.31
645.269	-0.69
645.303	-10.69
645.337	-14.69
645.37	-10.69
645.404	-9.69
645.438	1.31
645.471	0.31
645.505	5.31
645.539	14.31
645.572	-9.69
645.606	-4.69
645.64	10.31
645.673	10.31
645.707	15.31
645.741	-1.69
645.774	-7.69
645.808	2.31
645.842	-3.69
645.875	14.31
645.909	-3.69
645.943	-8.69
645.976	5.31
646.01	-1.69
646.043	10.31
646.077	3.31
646.111	13.31
646.144	4.31
646.178	16.31
646.212	-16.69
646.245	-8.69
646.279	-15.69
646.312	-18.69
646.346	1.31
646.38	11.31
646.413	5.31
646.447	8.31
646.48	-6.69
646.514	0.31
646.547	-8.69
646.581	-3.69
646.615	-5.69
646.648	-1.69
646.682	6.31
646.715	11.31
646.749	18.31
646.782	-4.69
646.816	-2.69
646.85	6.31
646.883	-3.69
646.917	11.31
646.95	4.31
646.984	-0.69
647.017	2.31
647.051	1.31
647.084	4.31
647.118	-7.69
647.151	10.31
647.185	10.31
647.218	-12.69
647.252	4.31
647.285	6.31
647.319	3.31
647.353	0.31
647.386	13.31
647.42	2.31
647.453	-1.69
647.487	-4.69
647.52	3.31
647.553	1.31
647.587	13.31
647.62	1.31
647.654	5.31
647.687	-1.69
647.721	16.31
647.754	17.31
647.788	-8.69
647.821	-2.69
647.855	6.31
647.888	10.31
647.922	11.31
647.955	-0.69
647.989	0.31
648.022	17.31
648.055	10.31
648.089	-14.69
648.122	27.31
648.156	-8.69
648.189	-2.69
648.223	5.31
648.256	24.31
648.29	13.31
648.323	3.31
648.356	25.31
648.39	3.31
648.423	6.31
648.457	0.31
648.49	18.31
648.523	10.31
648.557	2.31
648.59	-17.69
648.624	1.31
648.657	-1.69
648.69	10.31
648.724	8.31
648.757	15.31
648.791	25.31
648.824	22.31
648.857	21.31
648.891	-14.69
648.924	-5.69
648.957	16.31
648.991	-10.69
649.024	8.31
649.057	0.31
649.091	-8.69
649.124	2.31
649.158	12.31
649.191	31.31
649.224	6.31
649.258	8.31
649.291	11.31
649.324	6.31
649.358	6.31
649.391	7.31
649.424	-0.69
649.458	-1.69
649.491	-4.69
649.524	-10.69
649.557	-4.69
649.591	-14.69
649.624	17.31
649.657	1.31
649.691	-1.69
649.724	-0.69
649.757	-1.69
649.791	-4.69
649.824	2.31
649.857	22.31
649.89	2.31
649.924	-7.69
649.957	-1.69
649.99	-18.69
650.023	-9.69
650.057	-1.69
650.09	-8.69
650.123	2.31
650.157	8.31
650.19	20.31
650.223	-9.69
650.256	-11.69
650.29	-3.69
650.323	-1.69
650.356	9.31
650.389	-2.69
650.423	1.31
650.456	15.31
650.489	-4.69
650.522	-3.69
650.555	16.31
650.589	17.31
650.622	7.31
650.655	18.31
650.688	-5.69
650.721	-4.69
650.755	3.31
650.788	2.31
650.821	7.31
650.854	13.31
650.887	-5.69
650.921	-0.69
650.954	-2.69
650.987	3.31
651.02	-1.69
651.053	2.31
651.087	-4.69
651.12	10.31
651.153	15.31
651.186	-3.69
651.219	-20.69
651.252	17.31
651.286	-0.69
651.319	2.31
651.352	-0.69
651.385	2.31
651.418	3.31
651.451	21.31
651.484	1.31
651.518	10.31
651.551	32.31
651.584	2.31
651.617	4.31
651.65	17.31
651.683	23.31
651.716	-2.69
651.749	-22.69
651.783	4.31
651.816	3.31
651.849	-4.69
651.882	1.31
651.915	5.31
651.948	11.31
651.981	-1.69
652.014	-27.69
652.047	-3.69
652.08	-10.69
652.114	-3.69
652.147	-7.69
652.18	2.31
652.213	18.31
652.246	-6.69
652.279	-6.69
652.312	-4.69
652.345	-7.69
652.378	9.31
652.411	8.31
652.444	6.31
652.477	-8.69
652.51	5.31
652.543	-18.69
652.576	14.31
652.609	9.31
652.642	-3.69
652.675	10.31
652.709	-7.69
652.742	2.31
652.775	12.31
652.808	7.31
652.841	4.31
652.874	7.31
652.907	1.31
652.94	8.31
652.973	-18.69
653.006	-24.69
653.039	13.31
653.072	2.31
653.105	1.31
653.138	-12.69
653.171	-13.69
653.204	0.31
653.237	9.31
653.27	-7.69
653.303	12.31
653.336	1.31
653.368	-3.69
653.401	-7.69
653.434	-11.69
653.467	6.31
653.5	-18.69
653.533	2.31
653.566	-14.69
653.599	-4.69
653.632	10.31
653.665	1.31
653.698	-21.69
653.731	-6.69
653.764	17.31
653.797	-6.69
653.83	11.31
653.863	2.31
653.896	-0.69
653.929	10.31
653.961	7.31
653.994	-1.69
654.027	-6.69
654.06	14.31
654.093	0.31
654.126	18.31
654.159	10.31
654.192	3.31
654.225	-5.69
654.258	-28.69
654.29	-3.69
654.323	1.31
654.356	-27.69
654.389	6.31
654.422	-5.69
654.455	-10.69
654.488	-1.69
654.521	-4.69
654.553	-7.69
654.586	17.31
654.619	8.31
654.652	1.31
654.685	15.31
654.718	21.31
654.751	12.31
654.783	-3.69
654.816	12.31
654.849	14.31
654.882	-14.69
654.915	-11.69
654.948	8.31
654.98	-7.69
655.013	6.31
655.046	-0.69
655.079	-16.69
655.112	3.31
655.144	-8.69
655.177	21.31
655.21	7.31
655.243	17.31
655.276	12.31
655.308	-8.69
655.341	-16.69
655.374	9.31
655.407	-2.69
655.44	-6.69
655.472	22.31
655.505	4.31
655.538	7.31
655.571	-1.69
655.603	3.31
655.636	7.31
655.669	10.31
655.702	3.31
655.734	2.31
655.767	17.31
655.8	17.31
655.833	27.31
655.865	29.31
655.898	20.31
655.931	20.31
655.964	43.31
655.996	35.31
656.029	71.31
656.062	48.31
656.095	53.31
656.127	52.31
656.16	93.31
656.193	109.31
656.225	167.31
656.258	289.31
656.291	501.31
656.324	1105.31
656.356	3361.31
656.389	7477.31
656.422	5996.31
656.454	2034.31
656.487	671.31
656.52	241.31
656.552	123.31
656.585	74.31
656.618	50.31
656.65	37.31
656.683	16.31
656.716	11.31
656.748	2.31
656.781	12.31
656.814	-7.69
656.846	-10.69
656.879	-10.69
656.912	1.31
656.944	-2.69
656.977	-13.69
657.01	-7.69
657.042	4.31
657.075	15.31
657.108	-9.69
657.14	4.31
657.173	10.31
657.205	15.31
657.238	11.31
657.271	7.31
657.303	3.31
657.336	5.31
657.369	-13.69
657.401	-3.69
657.434	-15.69
657.466	-2.69
657.499	-0.69
657.532	1.31
657.564	11.31
657.597	10.31
657.629	7.31
657.662	6.31
657.694	6.31
657.727	-8.69
657.76	6.31
657.792	-3.69
657.825	-2.69
657.857	0.31
657.89	-4.69
657.922	4.31
657.955	0.31
657.987	-8.69
658.02	17.31
658.053	22.31
658.085	-9.69
658.118	-4.69
658.15	13.31
658.183	26.31
658.215	-8.69
658.248	-14.69
658.28	-10.69
658.313	15.31
658.345	9.31
658.378	-1.69
658.41	-7.69
658.443	14.31
658.475	0.31
658.508	3.31
658.54	5.31
658.573	0.31
658.605	0.31
658.638	-4.69
658.67	-10.69
658.703	1.31
658.735	8.31
658.768	9.31
658.8	-8.69
658.833	7.31
658.865	-2.69
658.898	-16.69
658.93	13.31
658.963	-7.69
658.995	-1.69
659.028	19.31
659.06	-11.69
659.092	-4.69
659.125	-4.69
659.157	0.31
659.19	-8.69
659.222	-6.69
659.255	-1.69
659.287	3.31
659.32	-14.69
659.352	5.31
659.384	8.31
659.417	2.31
659.449	5.31
659.482	4.31
659.514	7.31
659.546	-0.69
659.579	-3.69
659.611	-5.69
659.644	-17.69
659.676	-25.69
659.708	-14.69
659.741	-25.69
659.773	18.31
659.806	6.31
659.838	-1.69
659.87	-3.69
659.903	-17.69
659.935	5.31
659.967	5.31
660	11.31
660.032	-22.69
660.065	2.31
660.097	11.31
660.129	-0.69
660.162	-9.69
660.194	0.31
660.226	8.31
660.259	5.31
660.291	-24.69
660.323	4.31
660.356	9.31
660.388	5.31
660.42	-3.69
660.453	2.31
660.485	19.31
660.517	-2.69
660.55	9.31
660.582	11.31
660.614	9.31
660.647	-5.69
660.679	-15.69
660.711	0.31
660.743	-24.69
660.776	-8.69
660.808	3.31
660.84	-6.69
660.873	-5.69
660.905	-4.69
660.937	-1.69
660.969	1.31
661.002	3.31
661.034	14.31
661.066	6.31
661.099	20.31
661.131	4.31
661.163	11.31
661.195	7.31
661.228	19.31
661.26	-11.69
661.292	-1.69
661.324	16.31
661.357	10.31
661.389	-2.69
661.421	7.31
661.453	-3.69
661.485	7.31
661.518	9.31
661.55	-6.69
661.582	-2.69
661.614	-6.69
661.647	19.31
661.679	0.31
661.711	10.31
661.743	-25.69
661.775	2.31
661.808	4.31
661.84	-15.69
661.872	-2.69
661.904	-3.69
661.936	3.31
661.969	-1.69
662.001	-2.69
662.033	17.31
662.065	-7.69
662.097	16.31
662.129	12.31
662.162	6.31
662.194	2.31
662.226	2.31
662.258	12.31
662.29	-15.69
662.322	-8.69
662.355	-12.69
662.387	31.31
662.419	17.31
662.451	2.31
662.483	13.31
662.515	-10.69
662.547	-17.69
662.58	-13.69
662.612	5.31
662.644	0.31
662.676	9.31
662.708	14.31
662.74	-8.69
662.772	-8.69
662.804	-0.69
662.836	9.31
662.869	-10.69
662.901	1.31
662.933	-2.69
662.965	4.31
662.997	3.31
663.029	-17.69
663.061	2.31
663.093	0.31
663.125	3.31
663.157	7.31
663.189	2.31
663.221	4.31
663.254	-6.69
663.286	-10.69
663.318	0.31
663.35	-12.69
663.382	4.31
663.414	-6.69
663.446	9.31
663.478	-3.69
663.51	17.31
663.542	10.31
663.574	6.31
663.606	10.31
663.638	-10.69
663.67	-8.69
663.702	-11.69
663.734	-3.69
663.766	5.31
663.798	-10.69
663.83	-4.69
663.862	6.31
663.894	22.31
663.926	-1.69
663.958	11.31
663.99	7.31
664.022	11.31
664.054	17.31
664.086	-17.69
664.118	-18.69
664.15	-13.69
664.182	-8.69
664.214	-5.69
664.246	16.31
664.278	10.31
664.31	6.31
664.342	6.31
664.374	0.31
664.406	7.31
664.438	2.31
664.47	8.31
664.502	-8.69
664.534	-4.69
664.566	-15.69
664.598	8.31
664.63	3.31
664.662	1.31
664.693	3.31
664.725	-15.69
664.757	3.31
664.789	-7.69
664.821	-4.69
664.853	-10.69
664.885	2.31
664.917	-3.69
664.949	13.31
664.981	20.31
665.013	-10.69
665.045	-17.69
665.076	-6.69
665.108	-9.69
665.14	20.31
665.172	-0.69
665.204	6.31
665.236	-5.69
665.268	6.31
665.3	-5.69
665.331	-15.69
665.363	-4.69
665.395	-11.69
665.427	-23.69
665.459	-6.69
665.491	6.31
665.523	2.31
665.555	-6.69
665.586	0.31
665.618	1.31
665.65	-9.69
665.682	2.31
665.714	6.31
665.746	-2.69
665.777	-5.69
665.809	3.31
665.841	4.31
665.873	-7.69
665.905	-8.69
665.937	-0.69
665.968	-0.69
666	3.31
666.032	10.31
666.064	2.31
666.096	0.31
666.127	18.31
666.159	2.31
666.191	4.31
666.223	6.31
666.255	-1.69
666.286	1.31
666.318	0.31
666.35	16.31
666.382	0.31
666.413	-6.69
666.445	-3.69
666.477	-3.69
666.509	-1.69
666.54	1.31
666.572	-0.69
666.604	-1.69
666.636	10.31
666.667	27.31
666.699	25.31
666.731	10.31
666.763	0.31
666.794	20.31
666.826	-3.69
666.858	-17.69
666.89	12.31
666.921	14.31
666.953	9.31
666.985	14.31
667.017	13.31
667.048	8.31
667.08	16.31
667.112	-0.69
667.143	8.31
667.175	9.31
667.207	4.31
667.238	17.31
667.27	12.31
667.302	5.31
667.334	14.31
667.365	24.31
667.397	4.31
667.429	-2.69
667.46	-5.69
667.492	3.31
667.524	-16.69
667.555	-15.69
667.587	-1.69
667.619	7.31
667.65	-6.69
667.682	6.31
667.714	2.31
667.745	9.31
667.777	0.31
667.808	-0.69
667.84	0.31
667.872	8.31
667.903	26.31
667.935	-3.69
667.967	7.31
667.998	-2.69
668.03	1.31
668.061	-1.69
668.093	1.31
668.125	10.31
668.156	-5.69
668.188	-21.69
668.22	-16.69
668.251	-5.69
668.283	16.31
668.314	23.31
668.346	2.31
668.377	-0.69
668.409	-5.69
668.441	16.31
668.472	-5.69
668.504	7.31
668.535	17.31
668.567	14.31
668.599	3.31
668.63	-16.69
668.662	1.31
668.693	19.31
668.725	12.31
668.756	26.31
668.788	-0.69
668.819	-4.69
668.851	5.31
668.882	18.31
668.914	3.31
668.946	0.31
668.977	-12.69
669.009	-14.69
669.04	-20.69
669.072	0.31
669.103	1.31
669.135	2.31
669.166	-2.69
669.198	2.31
669.229	-2.69
669.261	-2.69
669.292	-7.69
669.324	-0.69
669.355	9.31
669.387	-3.69
669.418	3.31
669.45	-23.69
669.481	0.31
669.513	6.31
669.544	0.31
669.576	-7.69
669.607	3.31
669.639	13.31
669.67	-24.69
669.701	7.31
669.733	6.31
669.764	3.31
669.796	-11.69
669.827	-13.69
669.859	-11.69
669.89	-5.69
669.922	18.31
669.953	6.31
669.985	-1.69
670.016	4.31
670.047	14.31
670.079	9.31
670.11	8.31
670.142	4.31
670.173	7.31
670.204	-1.69
670.236	11.31
670.267	-0.69
670.299	-0.69
670.33	-9.69
670.362	8.31
670.393	7.31
670.424	-3.69
670.456	-10.69
670.487	5.31
670.518	-1.69
670.55	0.31
670.581	2.31
670.613	0.31
670.644	-2.69
670.675	-7.69
670.707	-11.69
670.738	6.31
670.769	-0.69
670.801	-17.69
670.832	0.31
670.864	-17.69
670.895	7.31
670.926	9.31
670.958	-8.69
670.989	-3.69
671.02	-7.69
671.052	5.31
671.083	1.31
671.114	-15.69
671.146	6.31
671.177	4.31
671.208	1.31
671.24	-9.69
671.271	-13.69
671.302	-10.69
671.333	-10.69
671.365	-11.69
671.396	-5.69
671.427	4.31
671.459	7.31
671.49	-0.69
671.521	-7.69
671.553	-6.69
671.584	1.31
671.615	-9.69
671.646	1.31
671.678	8.31
671.709	-3.69
671.74	0.31
671.771	0.31
671.803	-7.69
671.834	-1.69
671.865	-10.69
671.896	-2.69
671.928	-9.69
671.959	-8.69
671.99	-6.69
672.021	6.31
672.053	0.31
672.084	6.31
672.115	1.31
672.146	-7.69
672.178	-15.69
672.209	-5.69
672.24	6.31
672.271	12.31
672.303	2.31
672.334	2.31
672.365	1.31
672.396	-1.69
672.427	9.31
672.459	3.31
672.49	16.31
672.521	7.31
672.552	2.31
672.583	-6.69
672.615	-6.69
672.646	5.31
672.677	2.31
672.708	-4.69
672.739	-6.69
672.77	1.31
672.802	3.31
672.833	-22.69
672.864	-5.69
672.895	-1.69
672.926	-3.69
672.957	-14.69
672.989	-14.69
673.02	2.31
673.051	-13.69
673.082	16.31
673.113	-3.69
673.144	6.31
673.175	1.31
673.206	-20.69
673.238	-4.69
673.269	9.31
673.3	3.31
673.331	-1.69
673.362	13.31
673.393	0.31
673.424	10.31
673.455	17.31
673.487	4.31
673.518	0.31
673.549	-3.69
673.58	1.31
673.611	-2.69
673.642	-0.69
673.673	-8.69
673.704	-4.69
673.735	-14.69
673.766	-3.69
673.797	-3.69
673.828	10.31
673.86	-0.69
673.891	3.31
673.922	-14.69
673.953	-24.69
673.984	-1.69
674.015	1.31
674.046	18.31
674.077	-7.69
674.108	-19.69
674.139	-7.69
674.17	-26.69
674.201	-10.69
674.232	19.31
674.263	-11.69
674.294	-8.69
674.325	-28.69
674.356	1.31
674.387	-2.69
674.418	-11.69
674.449	-7.69
674.48	-14.69
674.511	-12.69
674.542	-1.69
674.573	-24.69
674.604	2.31
674.635	-0.69
674.666	5.31
674.697	8.31
674.728	-5.69
674.759	2.31
674.79	-2.69
674.821	-16.69
674.852	-10.69
674.883	-8.69
674.914	2.31
674.945	-4.69
674.976	15.31
675.007	-17.69
675.038	-28.69
675.069	-13.69
675.1	-16.69
675.131	-14.69
675.162	-9.69
675.193	-9.69
675.224	-1.69
675.254	2.31
675.285	-7.69
675.316	2.31
675.347	-3.69
675.378	-2.69
675.409	1.31
675.44	0.31
675.471	-1.69
675.502	6.31
675.533	-5.69
675.564	-16.69
675.595	0.31
675.625	31.31
675.656	12.31
675.687	4.31
675.718	-12.69
675.749	4.31
675.78	-6.69
675.811	1.31
675.842	7.31
675.873	1.31
675.903	-4.69
675.934	-15.69
675.965	-17.69
675.996	-16.69
676.027	-0.69
676.058	-4.69
676.089	-15.69
676.119	-12.69
676.15	-9.69
676.181	8.31
676.212	0.31
676.243	5.31
676.274	-4.69
676.304	13.31
676.335	-15.69
676.366	0.31
676.397	-9.69
676.428	2.31
676.459	7.31
676.489	1.31
676.52	13.31
676.551	-3.69
676.582	-20.69
676.613	12.31
676.643	-14.69
676.674	-2.69
676.705	-5.69
676.736	4.31
676.767	22.31
676.797	11.31
676.828	-4.69
676.859	1.31
676.89	-1.69
676.92	-8.69
676.951	9.31
676.982	23.31
677.013	-15.69
677.044	2.31
677.074	-11.69
677.105	-21.69
677.136	7.31
677.167	-6.69
677.197	-12.69
677.228	-12.69
677.259	-1.69
677.289	5.31
677.32	-2.69
677.351	3.31
677.382	-7.69
677.412	2.31
677.443	6.31
677.474	-3.69
677.505	-12.69
677.535	-8.69
677.566	-12.69
677.597	-18.69
677.627	-11.69
677.658	3.31
677.689	-5.69
677.72	1.31
677.75	0.31
677.781	1.31
677.812	-6.69
677.842	10.31
677.873	-2.69
677.904	-8.69
677.934	3.31
677.965	-0.69
677.996	-25.69
678.026	-2.69
678.057	-4.69
678.088	-6.69
678.118	-3.69
678.149	-5.69
678.18	-7.69
678.21	10.31
678.241	-10.69
678.272	-9.69
678.302	-12.69
678.333	5.31
678.363	11.31
678.394	11.31
678.425	-3.69
678.455	2.31
678.486	10.31
678.517	-7.69
678.547	7.31
678.578	-5.69
678.608	-18.69
678.639	1.31
678.67	-0.69
678.7	-5.69
678.731	-12.69
678.761	-5.69
678.792	-0.69
678.823	12.31
678.853	1.31
678.884	-2.69
678.914	1.31
678.945	6.31
678.975	-3.69
679.006	6.31
679.037	0.31
679.067	21.31
679.098	-17.69
679.128	-3.69
679.159	-0.69
679.189	2.31
679.22	-23.69
679.25	-2.69
679.281	8.31
679.312	-9.69
679.342	-6.69
679.373	14.31
679.403	-7.69
679.434	-0.69
679.464	-18.69
679.495	-9.69
679.525	-2.69
679.556	-15.69
679.586	14.31
679.617	10.31
679.647	-6.69
679.678	-8.69
679.708	-5.69
679.739	0.31
679.769	-3.69
679.8	2.31
679.83	-15.69
679.861	1.31
679.891	-5.69
679.922	1.31
679.952	-11.69
679.983	-7.69
680.013	4.31
680.044	-6.69
680.074	6.31
680.105	15.31
680.135	4.31
680.165	8.31
680.196	20.31
680.226	3.31
680.257	-14.69
680.287	-6.69
680.318	3.31
680.348	4.31
680.379	14.31
680.409	3.31
680.439	-0.69
680.47	0.31
680.5	-7.69
680.531	-1.69
680.561	5.31
680.592	7.31
680.622	16.31
680.652	8.31
680.683	14.31
680.713	-0.69
680.744	-11.69
680.774	-11.69
680.804	13.31
680.835	-7.69
680.865	-13.69
680.896	9.31
680.926	9.31
680.956	-0.69
680.987	-7.69
681.017	4.31
681.047	2.31
681.078	-3.69
681.108	6.31
681.139	1.31
681.169	-14.69
681.199	-14.69
681.23	-12.69
681.26	-21.69
681.29	6.31
681.321	-19.69
681.351	-10.69
681.381	-5.69
681.412	-8.69
681.442	8.31
681.472	14.31
681.503	-7.69
681.533	8.31
681.563	-9.69
681.594	3.31
681.624	18.31
681.654	-6.69
681.685	-9.69
681.715	-3.69
681.745	-2.69
681.775	-2.69
681.806	3.31
681.836	6.31
681.866	-8.69
681.897	-1.69
681.927	-6.69
681.957	-16.69
681.987	-4.69
682.018	-1.69
682.048	8.31
682.078	4.31
682.109	17.31
682.139	9.31
682.169	-5.69
682.199	-6.69
682.23	-23.69
682.26	-1.69
682.29	-5.69
682.32	-4.69
682.351	-3.69
682.381	-4.69
682.411	2.31
682.441	-1.69
682.472	-7.69
682.502	-19.69
682.532	-9.69
682.562	-1.69
682.592	11.31
682.623	6.31
682.653	15.31
682.683	-5.69
682.713	10.31
682.743	-17.69
682.774	-9.69
682.804	-5.69
682.834	6.31
682.864	-3.69
682.894	-5.69
682.925	-7.69
682.955	-4.69
682.985	-8.69
683.015	0.31
683.045	18.31
683.076	-7.69
683.106	-4.69
683.136	0.31
683.166	2.31
683.196	-5.69
683.226	0.31
683.257	3.31
683.287	-3.69
683.317	3.31
683.347	-12.69
683.377	5.31
683.407	-1.69
683.437	21.31
683.468	15.31
683.498	-3.69
683.528	1.31
683.558	12.31
683.588	-1.69
683.618	13.31
683.648	5.31
683.678	-3.69
683.708	16.31
683.739	0.31
683.769	2.31
683.799	10.31
683.829	0.31
683.859	4.31
683.889	7.31
683.919	-16.69
683.949	-8.69
683.979	-12.69
684.009	-6.69
684.039	-8.69
684.07	-9.69
684.1	6.31
684.13	-4.69
684.16	-10.69
684.19	-1.69
684.22	-2.69
684.25	10.31
684.28	-2.69
684.31	3.31
684.34	12.31
684.37	-1.69
684.4	-6.69
684.43	0.31
684.46	3.31
684.49	10.31
684.52	7.31
684.55	10.31
684.58	-15.69
684.61	-6.69
684.64	12.31
684.67	8.31
684.7	-3.69
684.73	-2.69
684.76	-8.69
684.79	5.31
684.82	7.31
684.85	1.31
684.88	-0.69
684.91	-18.69
684.94	-7.69
684.97	9.31
685	-11.69
685.03	-1.69
685.06	-9.69
685.09	0.31
685.12	13.31
685.15	-0.69
685.18	0.31
685.21	3.31
685.24	11.31
685.27	19.31
685.3	0.31
685.33	8.31
685.36	-6.69
685.39	-6.69
685.42	8.31
685.45	-16.69
685.48	3.31
685.51	1.31
685.54	6.31
685.569	-1.69
685.599	-3.69
685.629	18.31
685.659	4.31
685.689	-3.69
685.719	-19.69
685.749	-9.69
685.779	3.31
685.809	-6.69
685.839	1.31
685.869	-0.69
685.898	6.31
685.928	-0.69
685.958	-1.69
685.988	7.31
686.018	-7.69
686.048	5.31
686.078	12.31
686.108	19.31
686.137	8.31
686.167	12.31
686.197	-2.69
686.227	-6.69
686.257	22.31
686.287	12.31
686.317	-1.69
686.346	-2.69
686.376	-6.69
686.406	-13.69
686.436	1.31
686.466	-1.69
686.496	-9.69
686.525	8.31
686.555	4.31
686.585	22.31
686.615	13.31
686.645	12.31
686.675	11.31
686.704	-5.69
686.734	13.31
686.764	-16.69
686.794	6.31
686.824	1.31
686.853	-4.69
686.883	-9.69
686.913	4.31
686.943	-1.69
686.973	-2.69
687.002	4.31
687.032	12.31
687.062	-9.69
687.092	22.31
687.121	-1.69
687.151	-9.69
687.181	-10.69
687.211	-7.69
687.24	-0.69
687.27	0.31
687.3	5.31
687.33	-0.69
687.359	-9.69
687.389	31.31
687.419	-3.69
687.449	-14.69
687.478	7.31
687.508	-2.69
687.538	8.31
687.568	9.31
687.597	-9.69
687.627	-15.69
687.657	-10.69
687.686	-6.69
687.716	5.31
687.746	-18.69
687.776	-1.69
687.805	7.31
687.835	5.31
687.865	5.31
687.894	-0.69
687.924	-9.69
687.954	0.31
687.983	3.31
688.013	6.31
688.043	1.31
688.072	29.31
688.102	8.31
688.132	-2.69
688.161	-15.69
688.191	-11.69
688.221	1.31
688.25	-7.69
688.28	8.31
688.31	8.31
688.339	-13.69
688.369	-15.69
688.399	-12.69
688.428	-8.69
688.458	-1.69
688.488	6.31
688.517	7.31
688.547	-6.69
688.576	13.31
688.606	5.31
688.636	-9.69
688.665	3.31
688.695	4.31
688.725	9.31
688.754	9.31
688.784	9.31
688.813	5.31
688.843	7.31
688.873	-4.69
688.902	-13.69
688.932	-11.69
688.961	0.31
688.991	7.31
689.02	24.31
689.05	-2.69
689.08	1.31
689.109	9.31
689.139	8.31
689.168	1.31
689.198	-0.69
689.227	-7.69
689.257	-0.69
689.287	18.31
689.316	-10.69
689.346	-8.69
689.375	-0.69
689.405	5.31
689.434	15.31
689.464	4.31
689.493	-5.69
689.523	-18.69
689.552	-7.69
689.582	-0.69
689.611	-8.69
689.641	1.31
689.67	-6.69
689.7	6.31
689.73	4.31
689.759	14.31
689.789	6.31
689.818	10.31
689.848	-10.69
689.877	19.31
689.906	-11.69
689.936	2.31
689.965	6.31
689.995	9.31
690.024	8.31
690.054	8.31
690.083	-11.69
690.113	-2.69
690.142	2.31
690.172	17.31
690.201	4.31
690.231	-4.69
690.26	1.31
690.29	-10.69
690.319	-0.69
690.348	-9.69
690.378	11.31
690.407	-0.69
690.437	-6.69
690.466	-0.69
690.496	-8.69
690.525	1.31
690.555	-1.69
690.584	-0.69
690.613	-8.69
690.643	12.31
690.672	-2.69
690.702	0.31
690.731	-13.69
690.76	-8.69
690.79	-3.69
690.819	3.31
690.849	4.31
690.878	-0.69
690.907	-11.69
690.937	-2.69
690.966	9.31
690.996	-7.69
691.025	-0.69
691.054	-13.69
691.084	-4.69
691.113	5.31
691.142	16.31
691.172	0.31
691.201	11.31
691.23	-6.69
691.26	12.31
691.289	7.31
691.319	-17.69
691.348	4.31
691.377	18.31
691.407	9.31
691.436	17.31
691.465	1.31
691.495	-4.69
691.524	-22.69
691.553	-5.69
691.583	-11.69
691.612	0.31
691.641	5.31
691.67	-6.69
691.7	1.31
691.729	-27.69
691.758	-4.69
691.788	2.31
691.817	-2.69
691.846	-18.69
691.876	5.31
691.905	-6.69
691.934	-13.69
691.963	5.31
691.993	-0.69
692.022	-9.69
692.051	4.31
692.081	6.31
692.11	22.31
692.139	9.31
692.168	16.31
692.198	18.31
692.227	8.31
692.256	17.31
692.285	-5.69
692.315	2.31
692.344	10.31
692.373	8.31
692.402	-23.69
692.432	-22.69
692.461	6.31
692.49	1.31
692.519	-12.69
692.548	13.31
692.578	16.31
692.607	-24.69
692.636	-11.69
692.665	6.31
692.694	3.31
692.724	-12.69
692.753	6.31
692.782	-2.69
692.811	-8.69
692.84	-6.69
692.87	-2.69
692.899	7.31
692.928	-7.69
692.957	5.31
692.986	0.31
693.016	16.31
693.045	0.31
693.074	6.31
693.103	-2.69
693.132	11.31
693.161	8.31
693.191	9.31
693.22	-11.69
693.249	-8.69
693.278	12.31
693.307	10.31
693.336	-5.69
693.365	-17.69
693.395	-0.69
693.424	-0.69
693.453	7.31
693.482	7.31
693.511	10.31
693.54	1.31
693.569	23.31
693.598	6.31
693.628	9.31
693.657	-0.69
693.686	13.31
693.715	8.31
693.744	18.31
693.773	9.31
693.802	0.31
693.831	-4.69
693.86	23.31
693.889	-5.69
693.919	3.31
693.948	4.31
693.977	-1.69
694.006	11.31
694.035	-1.69
694.064	-16.69
694.093	-6.69
694.122	3.31
694.151	14.31
694.18	27.31
694.209	22.31
694.238	8.31
694.267	20.31
694.296	2.31
694.325	2.31
694.354	17.31
694.383	23.31
694.412	-3.69
694.441	-18.69
694.471	-3.69
694.5	-15.69
694.529	10.31
694.558	6.31
694.587	27.31
694.616	-0.69
694.645	-1.69
694.674	16.31
694.703	12.31
694.732	0.31
694.761	25.31
694.79	18.31
694.819	-5.69
694.848	-1.69
694.877	7.31
694.906	15.31
694.935	-3.69
694.963	7.31
694.992	2.31
695.021	8.31
695.05	3.31
695.079	-2.69
695.108	-1.69
695.137	13.31
695.166	8.31
695.195	-13.69
695.224	1.31
695.253	4.31
695.282	7.31
695.311	6.31
695.34	3.31
695.369	2.31
695.398	-0.69
695.427	26.31
695.456	9.31
695.485	7.31
695.513	-11.69
695.542	11.31
695.571	3.31
695.6	-1.69
695.629	-17.69
695.658	21.31
695.687	15.31
695.716	0.31
695.745	9.31
695.774	-2.69
695.802	-12.69
695.831	1.31
695.86	-2.69
695.889	10.31
695.918	3.31
695.947	-5.69
695.976	-2.69
696.005	11.31
696.033	13.31
696.062	9.31
696.091	9.31
696.12	9.31
696.149	16.31
696.178	-8.69
696.207	9.31
696.235	2.31
696.264	11.31
696.293	2.31
696.322	0.31
696.351	11.31
696.38	5.31
696.408	-14.69
696.437	-10.69
696.466	9.31
696.495	14.31
696.524	16.31
696.553	0.31
696.581	2.31
696.61	-9.69
696.639	0.31
696.668	1.31
696.697	-17.69
696.725	13.31
696.754	-6.69
696.783	-1.69
696.812	4.31
696.84	9.31
696.869	8.31
696.898	5.31
696.927	-4.69
696.956	15.31
696.984	2.31
697.013	12.31
697.042	14.31
697.071	5.31
697.099	-3.69
697.128	16.31
697.157	5.31
697.186	-9.69
697.214	10.31
697.243	1.31
697.272	4.31
697.301	-4.69
697.329	-3.69
697.358	-4.69
697.387	15.31
697.415	11.31
697.444	-4.69
697.473	-1.69
697.502	-9.69
697.53	11.31
697.559	4.31
697.588	-7.69
697.616	-9.69
697.645	-8.69
697.674	11.31
697.703	-6.69
697.731	7.31
697.76	18.31
697.789	-10.69
697.817	10.31
697.846	24.31
697.875	0.31
697.903	17.31
697.932	34.31
697.961	6.31
697.989	19.31
698.018	5.31
698.047	7.31
698.075	12.31
698.104	4.31
698.133	-1.69
698.161	-13.69
698.19	-1.69
698.218	15.31
698.247	10.31
698.276	-4.69
698.304	-2.69
698.333	15.31
698.362	9.31
698.39	0.31
698.419	1.31
698.447	-10.69
698.476	-6.69
698.505	4.31
698.533	5.31
698.562	6.31
698.591	-8.69
698.619	-9.69
698.648	-5.69
698.676	0.31
698.705	-9.69
698.733	-14.69
698.762	-8.69
698.791	-3.69
698.819	8.31
698.848	16.31
698.876	4.31
698.905	-4.69
698.933	6.31
698.962	9.31
698.991	-2.69
699.019	11.31
699.048	9.31
699.076	12.31
699.105	-0.69
699.133	-15.69
699.162	12.31
699.19	7.31
699.219	-3.69
699.248	-11.69
699.276	-16.69
699.305	-10.69
699.333	-0.69
699.362	-4.69
699.39	13.31
699.419	-6.69
699.447	1.31
699.476	7.31
699.504	-9.69
699.533	1.31
699.561	-16.69
699.59	6.31
699.618	-0.69
699.647	10.31
699.675	10.31
699.704	9.31
699.732	-5.69
699.761	-2.69
699.789	6.31
699.818	16.31
699.846	2.31
699.874	2.31
699.903	-5.69
699.931	1.31
699.96	10.31
699.988	-2.69
700.017	5.31
700.045	7.31
700.074	-2.69
700.102	-1.69
700.13	-10.69
700.159	2.31
700.187	13.31
700.216	4.31
700.244	7.31
700.273	12.31
700.301	-2.69
700.329	15.31
700.358	14.31
700.386	5.31
700.415	-3.69
700.443	4.31
700.472	0.31
700.5	6.31
700.528	10.31
700.557	-1.69
700.585	-1.69
700.614	4.31
700.642	1.31
700.67	17.31
700.699	-2.69
700.727	1.31
700.755	-1.69
700.784	-2.69
700.812	2.31
700.841	1.31
700.869	-2.69
700.897	-2.69
700.926	-6.69
700.954	16.31
700.982	9.31
701.011	0.31
701.039	5.31
701.067	3.31
701.096	1.31
701.124	-20.69
701.152	2.31
701.181	-1.69
701.209	-13.69
701.237	-2.69
701.266	-2.69
701.294	-21.69
701.322	8.31
701.351	17.31
701.379	-0.69
701.407	-8.69
701.435	11.31
701.464	12.31
701.492	20.31
701.52	-3.69
701.549	-7.69
701.577	5.31
701.605	-0.69
701.634	-1.69
701.662	24.31
701.69	6.31
701.718	-11.69
701.747	4.31
701.775	5.31
701.803	1.31
701.831	7.31
701.86	-16.69
701.888	6.31
701.916	-6.69
701.944	2.31
701.973	-17.69
702.001	4.31
702.029	-2.69
702.057	1.31
702.086	-14.69
702.114	-8.69
702.142	-7.69
702.17	-3.69
702.199	-1.69
702.227	1.31
702.255	-17.69
702.283	7.31
702.311	23.31
702.34	9.31
702.368	-5.69
702.396	7.31
702.424	-4.69
702.452	-8.69
702.481	-4.69
702.509	-2.69
702.537	3.31
702.565	2.31
702.593	-5.69
702.621	-15.69
702.65	-2.69
702.678	2.31
702.706	-4.69
702.734	-11.69
702.762	13.31
702.79	-8.69
702.819	1.31
702.847	-4.69
702.875	8.31
702.903	7.31
702.931	-1.69
702.959	-1.69
702.988	-0.69
703.016	-13.69
703.044	-3.69
703.072	-0.69
703.1	-2.69
703.128	10.31
703.156	5.31
703.184	0.31
703.212	21.31
703.241	18.31
703.269	-13.69
703.297	4.31
703.325	-7.69
703.353	-6.69
703.381	-14.69
703.409	-6.69
703.437	-17.69
703.465	-0.69
703.493	-6.69
703.522	-1.69
703.55	-14.69
703.578	1.31
703.606	16.31
703.634	0.31
703.662	-5.69
703.69	-0.69
703.718	-2.69
703.746	24.31
703.774	11.31
703.802	7.31
703.83	-10.69
703.858	0.31
703.886	-11.69
703.914	-19.69
703.942	-0.69
703.97	-9.69
703.998	-0.69
704.027	16.31
704.055	-1.69
704.083	-4.69
704.111	-5.69
704.139	-9.69
704.167	-16.69
704.195	-11.69
704.223	-6.69
704.251	-10.69
704.279	0.31
704.307	8.31
704.335	-1.69
704.363	16.31
704.391	-2.69
704.419	1.31
704.447	-22.69
704.475	-0.69
704.503	-0.69
704.531	14.31
704.558	7.31
704.586	6.31
704.614	-1.69
704.642	3.31
704.67	-16.69
704.698	-9.69
704.726	-2.69
704.754	-12.69
704.782	2.31
704.81	0.31
704.838	18.31
704.866	0.31
704.894	-14.69
704.922	-17.69
704.95	9.31
704.978	6.31
705.006	-1.69
705.034	9.31
705.061	-8.69
705.089	2.31
705.117	0.31
705.145	2.31
705.173	-2.69
705.201	1.31
705.229	6.31
705.257	-4.69
705.285	5.31
705.313	15.31
705.34	19.31
705.368	5.31
705.396	11.31
705.424	-8.69
705.452	-1.69
705.48	1.31
705.508	-4.69
705.536	-10.69
705.563	3.31
705.591	1.31
705.619	10.31
705.647	5.31
705.675	-15.69
705.703	0.31
705.731	-1.69
705.758	4.31
705.786	-6.69
705.814	9.31
705.842	8.31
705.87	11.31
705.898	12.31
705.925	-12.69
705.953	-8.69
705.981	-12.69
706.009	9.31
706.037	20.31
706.065	3.31
706.092	-9.69
706.12	2.31
706.148	11.31
706.176	-15.69
706.204	9.31
706.231	32.31
706.259	-1.69
706.287	-6.69
706.315	9.31
706.342	-0.69
706.37	-0.69
706.398	-2.69
706.426	11.31
706.454	-2.69
706.481	8.31
706.509	-0.69
706.537	-8.69
706.565	-11.69
706.592	-5.69
706.62	-1.69
706.648	-1.69
706.676	-2.69
706.703	-0.69
706.731	-2.69
706.759	1.31
706.787	1.31
706.814	6.31
706.842	-8.69
706.87	1.31
706.897	15.31
706.925	2.31
706.953	21.31
706.981	7.31
707.008	-1.69
707.036	-3.69
707.064	-2.69
707.091	-12.69
707.119	13.31
707.147	-0.69
707.174	-26.69
707.202	7.31
707.23	-4.69
707.258	-0.69
707.285	-16.69
707.313	-4.69
707.341	-15.69
707.368	-0.69
707.396	-2.69
707.424	20.31
707.451	6.31
707.479	-4.69
707.507	0.31
707.534	-8.69
707.562	4.31
707.59	-11.69
707.617	-7.69
707.645	-7.69
707.672	-4.69
707.7	-2.69
707.728	11.31
707.755	13.31
707.783	3.31
707.811	3.31
707.838	-8.69
707.866	-7.69
707.893	-0.69
707.921	-9.69
707.949	-22.69
707.976	-3.69
708.004	7.31
708.031	-5.69
708.059	-8.69
708.087	0.31
708.114	1.31
708.142	-0.69
708.169	-4.69
708.197	-8.69
708.225	2.31
708.252	-7.69
708.28	10.31
708.307	-10.69
708.335	-2.69
708.362	-8.69
708.39	-9.69
708.418	-11.69
708.445	-11.69
708.473	-17.69
708.5	-21.69
708.528	2.31
708.555	2.31
708.583	1.31
708.61	3.31
708.638	2.31
708.665	-13.69
708.693	11.31
708.72	-3.69
708.748	-4.69
708.776	3.31
708.803	2.31
708.831	25.31
708.858	18.31
708.886	3.31
708.913	-8.69
708.941	-4.69
708.968	13.31
708.996	-2.69
709.023	22.31
709.051	-2.69
709.078	-14.69
709.105	6.31
709.133	-0.69
709.16	9.31
709.188	-10.69
709.215	-0.69
709.243	6.31
709.27	1.31
709.298	4.31
709.325	-8.69
709.353	-0.69
709.38	3.31
709.408	-1.69
709.435	0.31
709.462	8.31
709.49	9.31
709.517	-9.69
709.545	-5.69
709.572	-2.69
709.6	-4.69
709.627	3.31
709.655	-8.69
709.682	-24.69
709.709	-6.69
709.737	4.31
709.764	-2.69
709.792	11.31
709.819	10.31
709.846	1.31
709.874	-1.69
709.901	5.31
709.929	6.31
709.956	3.31
709.983	-16.69
710.011	-17.69
710.038	0.31
710.066	21.31
710.093	29.31
710.12	4.31
710.148	2.31
710.175	-1.69
710.202	-10.69
710.23	-6.69
710.257	4.31
710.284	4.31
710.312	9.31
710.339	-1.69
710.366	1.31
710.394	2.31
710.421	-8.69
710.448	5.31
710.476	-8.69
710.503	4.31
710.53	5.31
710.558	22.31
710.585	11.31
710.612	-12.69
710.64	-9.69
710.667	-6.69
710.694	2.31
710.722	-11.69
710.749	2.31
710.776	11.31
710.804	5.31
710.831	-21.69
710.858	-5.69
710.885	1.31
710.913	-15.69
710.94	8.31
710.967	-2.69
710.995	-2.69
711.022	-7.69
711.049	-4.69
711.076	-0.69
711.104	3.31
711.131	-6.69
711.158	5.31
711.185	10.31
711.213	-22.69
711.24	-12.69
711.267	-7.69
711.294	4.31
711.322	2.31
711.349	-5.69
711.376	-0.69
711.403	-0.69
711.431	-1.69
711.458	-11.69
711.485	-5.69
711.512	2.31
711.54	-1.69
711.567	-4.69
711.594	-6.69
711.621	3.31
711.648	-1.69
711.676	3.31
711.703	14.31
711.73	1.31
711.757	10.31
711.784	0.31
711.812	-5.69
711.839	-7.69
711.866	-12.69
711.893	-3.69
711.92	3.31
711.947	-8.69
711.975	2.31
712.002	-2.69
712.029	7.31
712.056	-4.69
712.083	-7.69
712.11	0.31
712.138	2.31
712.165	2.31
712.192	-6.69
712.219	-9.69
712.246	-19.69
712.273	-22.69
712.3	-18.69
712.328	-9.69
712.355	15.31
712.382	8.31
712.409	11.31
712.436	-17.69
712.463	0.31
712.49	5.31
712.517	11.31
712.544	-7.69
712.572	-2.69
712.599	4.31
712.626	-17.69
712.653	-2.69
712.68	1.31
712.707	-2.69
712.734	10.31
712.761	1.31
712.788	-8.69
712.815	-2.69
712.842	6.31
712.87	-5.69
712.897	-18.69
712.924	-12.69
712.951	4.31
712.978	6.31
713.005	11.31
713.032	-1.69
713.059	-5.69
713.086	-6.69
713.113	-5.69
713.14	-13.69
713.167	2.31
713.194	-2.69
713.221	-18.69
713.248	12.31
713.275	-5.69
713.302	-7.69
713.329	16.31
713.356	-12.69
713.383	1.31
713.41	6.31
713.437	-17.69
713.464	10.31
713.491	10.31
713.518	-7.69
713.545	-8.69
713.572	-8.69
713.599	21.31
713.626	11.31
713.653	0.31
713.68	0.31
713.707	-7.69
713.734	4.31
713.761	5.31
713.788	-7.69
713.815	3.31
713.842	7.31
713.869	-2.69
713.896	-1.69
713.923	-1.69
713.95	-5.69
713.977	-1.69
714.004	-10.69
714.031	-10.69
714.058	-13.69
714.085	-8.69
714.112	2.31
714.139	-5.69
714.165	-8.69
714.192	-14.69
714.219	-7.69
714.246	-3.69
714.273	-1.69
714.3	-10.69
714.327	1.31
714.354	15.31
714.381	-4.69
714.408	7.31
714.435	1.31
714.461	7.31
714.488	2.31
714.515	2.31
714.542	-2.69
714.569	-26.69
714.596	-9.69
714.623	4.31
714.65	-7.69
714.677	-3.69
714.703	-6.69
714.73	7.31
714.757	10.31
714.784	4.31
714.811	-7.69
714.838	-2.69
714.865	-10.69
714.891	13.31
714.918	-0.69
714.945	-13.69
714.972	6.31
714.999	7.31
715.026	-9.69
715.052	4.31
715.079	-4.69
715.106	-12.69
715.133	-6.69
715.16	-5.69
715.187	-1.69
715.213	10.31
715.24	-14.69
715.267	-6.69
715.294	-0.69
715.321	-5.69
715.347	3.31
715.374	-4.69
715.401	-10.69
715.428	-0.69
715.455	12.31
715.481	-4.69
715.508	6.31
715.535	-16.69
715.562	9.31
715.588	-7.69
715.615	-6.69
715.642	-1.69
715.669	14.31
715.695	-13.69
715.722	-2.69
715.749	5.31
715.776	12.31
715.802	-10.69
715.829	1.31
715.856	-7.69
715.883	9.31
715.909	2.31
715.936	-5.69
715.963	-1.69
715.99	-1.69
716.016	4.31
716.043	13.31
716.07	-0.69
716.096	-3.69
716.123	-19.69
716.15	-0.69
716.177	4.31
716.203	2.31
716.23	-4.69
716.257	-1.69
716.283	10.31
716.31	5.31
716.337	10.31
716.363	7.31
716.39	1.31
716.417	14.31
716.443	-10.69
716.47	15.31
716.497	3.31
716.523	18.31
716.55	-1.69
716.577	6.31
716.603	-1.69
716.63	9.31
716.657	18.31
716.683	2.31
716.71	2.31
716.737	0.31
716.763	5.31
716.79	15.31
716.817	6.31
716.843	5.31
716.87	-3.69
716.897	-0.69
716.923	23.31
716.95	3.31
716.976	-5.69
717.003	-6.69
717.03	5.31
717.056	3.31
717.083	-2.69
717.109	10.31
717.136	21.31
717.163	-4.69
717.189	-2.69
717.216	1.31
717.242	4.31
717.269	10.31
717.296	3.31
717.322	-1.69
717.349	-5.69
717.375	18.31
717.402	10.31
717.428	3.31
717.455	16.31
717.481	4.31
717.508	13.31
717.535	14.31
717.561	1.31
717.588	-24.69
717.614	-6.69
717.641	-0.69
717.667	1.31
717.694	1.31
717.72	-12.69
717.747	-4.69
717.773	-9.69
717.8	9.31
717.826	14.31
717.853	2.31
717.88	8.31
717.906	5.31
717.933	1.31
717.959	0.31
717.986	7.31
718.012	-2.69
718.039	23.31
718.065	13.31
718.092	11.31
718.118	1.31
718.144	-13.69
718.171	20.31
718.197	19.31
718.224	-6.69
718.25	-1.69
718.277	4.31
718.303	0.31
718.33	2.31
718.356	-15.69
718.383	-5.69
718.409	14.31
718.436	-2.69
718.462	-6.69
718.489	-1.69
718.515	3.31
718.541	13.31
718.568	2.31
718.594	-2.69
718.621	-6.69
718.647	-9.69
718.674	15.31
718.7	6.31
718.726	-1.69
718.753	2.31
718.779	-3.69
718.806	-7.69
718.832	-5.69
718.858	-6.69
718.885	-4.69
718.911	-4.69
718.938	7.31
718.964	-12.69
718.99	3.31
719.017	23.31
719.043	10.31
719.07	14.31
719.096	6.31
719.122	1.31
719.149	-2.69
719.175	1.31
719.201	14.31
719.228	-2.69
719.254	1.31
719.281	7.31
719.307	-5.69
719.333	-4.69
719.36	17.31
719.386	-10.69
719.412	-4.69
719.439	-9.69
719.465	1.31
719.491	1.31
719.518	3.31
719.544	1.31
719.57	-0.69
719.597	5.31
719.623	-3.69
719.649	6.31
719.675	1.31
719.702	11.31
719.728	15.31
719.754	-20.69
719.781	2.31
719.807	-0.69
719.833	-5.69
719.86	-1.69
719.886	-2.69
719.912	15.31
719.938	-0.69
719.965	0.31
719.991	-4.69
720.017	15.31
720.044	1.31
720.07	17.31
720.096	9.31
720.122	-9.69
720.149	-1.69
720.175	17.31
720.201	14.31
720.227	1.31
720.254	4.31
720.28	5.31
720.306	-0.69
720.332	-1.69
720.359	11.31
720.385	8.31
720.411	6.31
720.437	6.31
720.463	4.31
720.49	22.31
720.516	11.31
720.542	-6.69
720.568	3.31
720.595	11.31
720.621	11.31
720.647	6.31
720.673	7.31
720.699	-2.69
720.725	-1.69
720.752	3.31
720.778	11.31
720.804	6.31
720.83	14.31
720.856	-0.69
720.883	-3.69
720.909	7.31
720.935	4.31
720.961	15.31
720.987	-5.69
721.013	-5.69
721.04	-6.69
721.066	4.31
721.092	-10.69
721.118	10.31
721.144	-2.69
721.17	-13.69
721.196	-1.69
721.223	10.31
721.249	3.31
721.275	1.31
721.301	-10.69
721.327	9.31
721.353	-0.69
721.379	4.31
721.405	2.31
721.432	5.31
721.458	-5.69
721.484	10.31
721.51	-20.69
721.536	-2.69
721.562	13.31
721.588	3.31
721.614	2.31
721.64	-6.69
721.666	-8.69
721.693	-3.69
721.719	-6.69
721.745	-13.69
721.771	-10.69
721.797	1.31
721.823	-2.69
721.849	16.31
721.875	10.31
721.901	11.31
721.927	-9.69
721.953	-4.69
721.979	-1.69
722.005	-1.69
722.031	-8.69
722.057	13.31
722.083	1.31
722.109	3.31
722.135	13.31
722.161	18.31
722.187	6.31
722.214	-3.69
722.24	4.31
722.266	-7.69
722.292	-7.69
722.318	1.31
722.344	-12.69
722.37	-2.69
722.396	10.31
722.422	2.31
722.448	7.31
722.474	3.31
722.5	7.31
722.526	-11.69
722.552	-6.69
722.578	-2.69
722.603	6.31
722.629	-2.69
722.655	-6.69
722.681	-8.69
722.707	-6.69
722.733	-10.69
722.759	-16.69
722.785	-1.69
722.811	-4.69
722.837	-22.69
722.863	-0.69
722.889	5.31
722.915	-8.69
722.941	-5.69
722.967	-7.69
722.993	10.31
723.019	9.31
723.045	12.31
723.071	19.31
723.097	0.31
723.122	9.31
723.148	-13.69
723.174	-8.69
723.2	7.31
723.226	2.31
723.252	9.31
723.278	0.31
723.304	-2.69
723.33	0.31
723.356	6.31
723.381	-1.69
723.407	-13.69
723.433	0.31
723.459	-7.69
723.485	-3.69
723.511	1.31
723.537	-10.69
723.563	-14.69
723.588	1.31
723.614	0.31
723.64	-1.69
723.666	15.31
723.692	14.31
723.718	-5.69
723.744	7.31
723.769	-10.69
723.795	-6.69
723.821	-4.69
723.847	2.31
723.873	-12.69
723.899	-4.69
723.924	8.31
723.95	-1.69
723.976	-14.69
724.002	-7.69
724.028	-1.69
724.053	-6.69
724.079	1.31
724.105	-2.69
724.131	-17.69
724.157	-1.69
724.182	4.31
724.208	0.31
724.234	3.31
724.26	-7.69
724.286	14.31
724.311	-0.69
724.337	-15.69
724.363	-6.69
724.389	-5.69
724.415	2.31
724.44	9.31
724.466	0.31
724.492	-12.69
724.518	-4.69
724.543	17.31
724.569	8.31
724.595	19.31
724.621	3.31
724.646	-8.69
724.672	-11.69
724.698	-10.69
724.723	10.31
724.749	-1.69
724.775	9.31
724.801	-1.69
724.826	1.31
724.852	11.31
724.878	9.31
724.904	-12.69
724.929	0.31
724.955	-13.69
724.981	-8.69
725.006	4.31
725.032	5.31
725.058	15.31
725.083	-8.69
725.109	-11.69
725.135	-15.69
725.161	-1.69
725.186	-14.69
725.212	-14.69
725.238	-1.69
725.263	-11.69
725.289	-18.69
725.315	-9.69
725.34	-8.69
725.366	10.31
725.392	-14.69
725.417	-7.69
725.443	1.31
725.468	-0.69
725.494	19.31
725.52	-0.69
725.545	1.31
725.571	2.31
725.597	-6.69
725.622	-8.69
725.648	-19.69
725.674	1.31
725.699	1.31
725.725	-4.69
725.75	6.31
725.776	-9.69
725.802	4.31
725.827	2.31
725.853	-2.69
725.878	-2.69
725.904	2.31
725.93	-2.69
725.955	-2.69
725.981	-8.69
726.006	-2.69
726.032	2.31
726.057	-5.69
726.083	-3.69
726.109	2.31
726.134	7.31
726.16	-8.69
726.185	5.31
726.211	4.31
726.236	6.31
726.262	0.31
726.288	-5.69
726.313	13.31
726.339	-5.69
726.364	5.31
726.39	3.31
726.415	-0.69
726.441	-13.69
726.466	2.31
726.492	19.31
726.517	15.31
726.543	-1.69
726.568	-23.69
726.594	-10.69
726.619	-8.69
726.645	0.31
726.67	2.31
726.696	3.31
726.721	-17.69
726.747	-13.69
726.772	-6.69
726.798	0.31
726.823	-2.69
726.849	-3.69
726.874	-5.69
726.9	27.31
726.925	9.31
726.951	6.31
726.976	20.31
727.002	-6.69
727.027	9.31
727.053	6.31
727.078	-2.69
727.104	-0.69
727.129	-22.69
727.155	-5.69
727.18	2.31
727.205	-2.69
727.231	-14.69
727.256	-1.69
727.282	2.31
727.307	35.31
727.333	15.31
727.358	-5.69
727.383	-25.69
727.409	-17.69
727.434	3.31
727.46	-9.69
727.485	-11.69
727.511	-2.69
727.536	-6.69
727.561	-2.69
727.587	-6.69
727.612	-10.69
727.637	0.31
727.663	-7.69
727.688	12.31
727.714	-8.69
727.739	-13.69
727.764	-2.69
727.79	2.31
727.815	-10.69
727.841	-1.69
727.866	9.31
727.891	-1.69
727.917	-13.69
727.942	-14.69
727.967	-10.69
727.993	-23.69
728.018	0.31
728.043	-6.69
728.069	10.31
728.094	10.31
728.119	11.31
728.145	8.31
728.17	11.31
728.195	4.31
728.221	4.31
728.246	-6.69
728.271	-11.69
728.297	-6.69
728.322	16.31
728.347	6.31
728.373	9.31
728.398	7.31
728.423	-5.69
728.448	-6.69
728.474	15.31
728.499	17.31
728.524	-1.69
728.55	16.31
728.575	-1.69
728.6	5.31
728.625	-6.69
728.651	-5.69
728.676	-14.69
728.701	0.31
728.727	1.31
728.752	-17.69
728.777	-10.69
728.802	3.31
728.828	10.31
728.853	0.31
728.878	-4.69
728.903	2.31
728.929	-21.69
728.954	-9.69
728.979	-2.69
729.004	-6.69
729.03	-10.69
729.055	9.31
729.08	-9.69
729.105	-4.69
729.13	12.31
729.156	4.31
729.181	-3.69
729.206	-30.69
729.231	-21.69
729.256	14.31
729.282	-0.69
729.307	-8.69
729.332	-8.69
729.357	-12.69
729.382	2.31
729.408	-0.69
729.433	5.31
729.458	1.31
729.483	5.31
729.508	8.31
729.533	-1.69
729.559	4.31
729.584	-18.69
729.609	11.31
729.634	-2.69
729.659	-12.69
729.684	2.31
729.71	6.31
729.735	9.31
729.76	11.31
729.785	3.31
729.81	7.31
729.835	-14.69
729.86	-18.69
729.886	2.31
729.911	11.31
729.936	-2.69
729.961	-11.69
729.986	-13.69
730.011	-0.69
730.036	-2.69
730.061	5.31
730.086	7.31
730.112	0.31
730.137	18.31
730.162	12.31
730.187	-10.69
730.212	9.31
730.237	-2.69
730.262	-2.69
730.287	-16.69
730.312	14.31
730.337	-8.69
730.362	5.31
730.387	2.31
730.413	-4.69
730.438	-14.69
730.463	-9.69
730.488	-6.69
730.513	-17.69
730.538	-17.69
730.563	-1.69
730.588	11.31
730.613	11.31
730.638	-7.69
730.663	3.31
730.688	15.31
730.713	10.31
730.738	2.31
730.763	-2.69
730.788	-2.69
730.813	19.31
730.838	5.31
730.863	-10.69
730.888	-1.69
730.913	-10.69
730.938	-32.69
730.963	0.31
730.988	-7.69
731.013	10.31
731.038	-7.69
731.063	1.31
731.088	-1.69
731.113	-5.69
731.138	-14.69
731.163	-13.69
731.188	-9.69
731.213	-4.69
731.238	10.31
731.263	3.31
731.288	-21.69
731.313	2.31
731.338	7.31
731.363	-12.69
731.388	-9.69
731.413	0.31
731.438	6.31
731.463	13.31
731.487	6.31
731.512	-16.69
731.537	-17.69
731.562	1.31
731.587	-9.69
731.612	-15.69
731.637	4.31
731.662	3.31
731.687	-17.69
731.712	-2.69
731.737	9.31
731.762	-5.69
731.786	15.31
731.811	12.31
731.836	-2.69
731.861	-13.69
731.886	-9.69
731.911	-1.69
731.936	1.31
731.961	-8.69
731.986	-16.69
732.01	-1.69
732.035	-4.69
732.06	-2.69
732.085	-4.69
732.11	1.31
732.135	-24.69
732.16	-1.69
732.184	12.31
732.209	-1.69
732.234	1.31
732.259	4.31
732.284	9.31
732.309	-12.69
732.334	-14.69
732.358	-12.69
732.383	-9.69
732.408	0.31
732.433	-6.69
732.458	-3.69
732.482	10.31
732.507	1.31
732.532	13.31
732.557	13.31
732.582	6.31
732.607	-1.69
732.631	-4.69
732.656	-0.69
732.681	-5.69
732.706	4.31
732.73	-5.69
732.755	-12.69
732.78	1.31
732.805	-1.69
732.83	-6.69
732.854	-2.69
732.879	9.31
732.904	3.31
732.929	7.31
732.953	9.31
732.978	-0.69
733.003	-13.69
733.028	-5.69
733.052	-6.69
733.077	4.31
733.102	-6.69
733.127	0.31
733.151	0.31
733.176	-4.69
733.201	-9.69
733.226	-8.69
733.25	1.31
733.275	-7.69
733.3	-3.69
733.324	24.31
733.349	4.31
733.374	11.31
733.399	9.31
733.423	-7.69
733.448	-9.69
733.473	-2.69
733.497	-2.69
733.522	-2.69
733.547	3.31
733.571	9.31
733.596	3.31
733.621	11.31
733.646	-3.69
733.67	-9.69
733.695	8.31
733.72	19.31
733.744	7.31
733.769	14.31
733.794	21.31
733.818	2.31
733.843	0.31
733.867	-6.69
733.892	-1.69
733.917	-5.69
733.941	-0.69
733.966	-4.69
733.991	-5.69
734.015	7.31
734.04	-1.69
734.065	11.31
734.089	10.31
734.114	-8.69
734.138	4.31
734.163	-1.69
734.188	3.31
734.212	0.31
734.237	10.31
734.261	7.31
734.286	-2.69
734.311	0.31
734.335	1.31
734.36	3.31
734.384	-6.69
734.409	5.31
734.434	0.31
734.458	9.31
734.483	6.31
734.507	-5.69
734.532	-11.69
734.556	-7.69
734.581	-6.69
734.606	-0.69
734.63	-8.69
734.655	7.31
734.679	3.31
734.704	-4.69
734.728	0.31
734.753	-3.69
734.777	-1.69
734.802	-6.69
734.826	1.31
734.851	-8.69
734.876	4.31
734.9	14.31
734.925	-3.69
734.949	9.31
734.974	-13.69
734.998	7.31
735.023	-4.69
735.047	-24.69
735.072	-0.69
735.096	-7.69
735.121	-0.69
735.145	2.31
735.17	6.31
735.194	-0.69
735.219	-2.69
735.243	-1.69
735.268	5.31
735.292	-8.69
735.317	5.31
735.341	6.31
735.365	-5.69
735.39	7.31
735.414	-2.69
735.439	-6.69
735.463	0.31
735.488	-8.69
735.512	-2.69
735.537	9.31
735.561	-2.69
735.586	-1.69
735.61	7.31
735.634	-4.69
735.659	10.31
735.683	7.31
735.708	-5.69
735.732	-4.69
735.757	-7.69
735.781	-4.69
735.805	4.31
735.83	-1.69
735.854	-24.69
735.879	-12.69
735.903	8.31
735.927	-7.69
735.952	-8.69
735.976	-1.69
736.001	-11.69
736.025	-8.69
736.049	-0.69
736.074	-8.69
736.098	-9.69
736.123	6.31
736.147	12.31
736.171	-2.69
736.196	1.31
736.22	-10.69
736.244	8.31
736.269	4.31
736.293	2.31
736.317	5.31
736.342	-3.69
736.366	15.31
736.39	9.31
736.415	6.31
736.439	-6.69
736.463	6.31
736.488	-4.69
736.512	8.31
736.536	13.31
736.561	11.31
736.585	-3.69
736.609	11.31
736.634	-1.69
736.658	-0.69
736.682	-14.69
736.707	-23.69
736.731	-22.69
736.755	-9.69
736.78	13.31
736.804	21.31
736.828	12.31
736.852	-2.69
736.877	-0.69
736.901	11.31
736.925	-2.69
736.949	-7.69
736.974	-2.69
736.998	0.31
737.022	4.31
737.047	-2.69
737.071	-11.69
737.095	21.31
737.119	16.31
737.144	6.31
737.168	-1.69
737.192	6.31
737.216	8.31
737.241	-5.69
737.265	-4.69
737.289	4.31
737.313	-5.69
737.337	13.31
737.362	1.31
737.386	0.31
737.41	-15.69
737.434	-2.69
737.459	10.31
737.483	2.31
737.507	1.31
737.531	-4.69
737.555	8.31
737.58	15.31
737.604	3.31
737.628	-10.69
737.652	-9.69
737.676	-2.69
737.701	-8.69
737.725	-6.69
737.749	0.31
737.773	-2.69
737.797	-24.69
737.821	12.31
737.846	3.31
737.87	21.31
737.894	-12.69
737.918	-1.69
737.942	-0.69
737.966	9.31
737.99	14.31
738.015	5.31
738.039	-5.69
738.063	0.31
738.087	22.31
738.111	-6.69
738.135	18.31
738.159	-8.69
738.184	0.31
738.208	-4.69
738.232	2.31
738.256	15.31
738.28	3.31
738.304	-5.69
738.328	-9.69
738.352	1.31
738.376	0.31
738.4	3.31
738.425	9.31
738.449	-0.69
738.473	21.31
738.497	-1.69
738.521	15.31
738.545	13.31
738.569	1.31
738.593	11.31
738.617	-2.69
738.641	5.31
738.665	3.31
738.689	5.31
738.713	-9.69
738.737	7.31
738.762	22.31
738.786	9.31
738.81	10.31
738.834	6.31
738.858	1.31
738.882	5.31
738.906	-9.69
738.93	7.31
738.954	14.31
738.978	4.31
739.002	-13.69
739.026	18.31
739.05	-0.69
739.074	-4.69
739.098	23.31
739.122	18.31
739.146	-1.69
739.17	17.31
739.194	1.31
739.218	-9.69
739.242	9.31
739.266	-1.69
739.29	22.31
739.314	14.31
739.338	-13.69
739.362	0.31
739.386	6.31
739.41	-5.69
739.434	2.31
739.458	-2.69
739.482	2.31
739.506	4.31
739.53	-0.69
739.554	9.31
739.577	-6.69
739.601	0.31
739.625	3.31
739.649	-5.69
739.673	-7.69
739.697	-2.69
739.721	-0.69
739.745	9.31
739.769	14.31
739.793	6.31
739.817	5.31
739.841	-8.69
739.865	7.31
739.889	-13.69
739.912	-4.69
739.936	-5.69
739.96	11.31
739.984	17.31
740.008	-7.69
740.032	-11.69
740.056	7.31
740.08	-9.69
740.104	24.31
740.127	12.31
740.151	9.31
740.175	10.31
740.199	-3.69
740.223	49.31
740.247	4.31
740.271	9.31
740.295	-9.69
740.318	1.31
740.342	0.31
740.366	7.31
740.39	9.31
740.414	2.31
740.438	-11.69
740.461	10.31
740.485	9.31
740.509	-8.69
740.533	8.31
740.557	-13.69
740.581	1.31
740.604	-6.69
740.628	-6.69
740.652	15.31
740.676	6.31
740.7	8.31
740.723	1.31
740.747	-2.69
740.771	-11.69
740.795	-1.69
740.819	23.31
740.842	9.31
740.866	0.31
740.89	3.31
740.914	-2.69
740.938	-5.69
740.961	8.31
740.985	-0.69
741.009	4.31
741.033	11.31
741.056	13.31
741.08	3.31
741.104	-1.69
741.128	-0.69
741.151	-3.69
741.175	7.31
741.199	4.31
741.223	17.31
741.246	-15.69
741.27	-6.69
741.294	6.31
741.318	-18.69
741.341	-15.69
741.365	-5.69
741.389	0.31
741.413	12.31
741.436	3.31
741.46	14.31
741.484	0.31
741.507	9.31
741.531	20.31
741.555	6.31
741.579	5.31
741.602	6.31
741.626	5.31
741.65	1.31
741.673	-0.69
741.697	11.31
741.721	6.31
741.744	-16.69
741.768	0.31
741.792	1.31
741.815	-5.69
741.839	21.31
741.863	12.31
741.886	2.31
741.91	9.31
741.934	0.31
741.957	-8.69
741.981	8.31
742.005	2.31
742.028	-16.69
742.052	-30.69
742.075	-4.69
742.099	7.31
742.123	-4.69
742.146	5.31
742.17	12.31
742.194	5.31
742.217	-1.69
742.241	2.31
742.264	7.31
742.288	15.31
742.312	0.31
742.335	3.31
742.359	13.31
742.382	23.31
742.406	10.31
742.43	-6.69
742.453	0.31
742.477	-8.69
742.5	2.31
742.524	-5.69
742.548	-14.69
742.571	-10.69
742.595	4.31
742.618	-7.69
742.642	-10.69
742.665	20.31
742.689	3.31
742.712	18.31
742.736	7.31
742.76	9.31
742.783	7.31
742.807	9.31
742.83	9.31
742.854	-7.69
742.877	1.31
742.901	10.31
742.924	2.31
742.948	1.31
742.971	13.31
742.995	15.31
743.018	-3.69
743.042	-12.69
743.065	-18.69
743.089	-4.69
743.112	-5.69
743.136	-3.69
743.159	0.31
743.183	-5.69
743.206	2.31
743.23	10.31
743.253	-0.69
743.277	9.31
743.3	3.31
743.324	2.31
743.347	-10.69
743.371	19.31
743.394	2.31
743.418	2.31
743.441	13.31
743.465	-1.69
743.488	-1.69
743.512	-6.69
743.535	5.31
743.558	-2.69
743.582	2.31
743.605	-2.69
743.629	-0.69
743.652	21.31
743.676	-16.69
743.699	0.31
743.723	4.31
743.746	5.31
743.769	-4.69
743.793	5.31
743.816	-2.69
743.84	10.31
743.863	-10.69
743.886	5.31
743.91	18.31
743.933	8.31
743.957	-1.69
743.98	-2.69
744.003	-5.69
744.027	14.31
744.05	-3.69
744.074	2.31
744.097	-13.69
744.12	9.31
744.144	-3.69
744.167	4.31
744.19	-13.69
744.214	-4.69
744.237	1.31
744.26	24.31
744.284	-2.69
744.307	-14.69
744.331	-2.69
744.354	-6.69
744.377	-11.69
744.401	-2.69
744.424	-5.69
744.447	-7.69
744.471	-4.69
