Data from HighRes_H2_15_09_11_07_2024_HR4C61891__92__15-11-05-602.txt Node

Date: Thu Nov 07 15:11:05 EST 2024
User: crc00042
Spectrometer: HR4C6189
Trigger mode: 4
Integration Time (sec): 1.000000E-1
Scans to average: 1
Electric dark correction enabled: true
Nonlinearity correction enabled: false
Boxcar width: 0
XAxis mode: Wavelengths
Number of Pixels in Spectrum: 3648
>>>>>Begin Spectral Data<<<<<
639.567	-26.54
639.602	-26.54
639.636	-26.54
639.67	-36.54
639.704	-26.54
639.738	-15.54
639.773	-3.54
639.807	-19.54
639.841	2.46
639.875	1.46
639.909	-5.54
639.943	0.46
639.978	1.46
640.012	-1.54
640.046	19.46
640.08	17.46
640.114	7.46
640.148	-4.54
640.182	-15.54
640.217	-7.54
640.251	12.46
640.285	24.46
640.319	-0.54
640.353	19.46
640.387	-4.54
640.421	-6.54
640.455	-20.54
640.49	2.46
640.524	14.46
640.558	8.46
640.592	1.46
640.626	-3.54
640.66	10.46
640.694	4.46
640.728	-2.54
640.762	1.46
640.796	20.46
640.83	25.46
640.865	6.46
640.899	3.46
640.933	10.46
640.967	-12.54
641.001	1.46
641.035	-8.54
641.069	3.46
641.103	-3.54
641.137	-5.54
641.171	-18.54
641.205	-10.54
641.239	-5.54
641.273	20.46
641.307	11.46
641.341	-4.54
641.375	9.46
641.409	13.46
641.443	12.46
641.477	9.46
641.511	9.46
641.545	3.46
641.579	15.46
641.614	0.46
641.648	7.46
641.682	-12.54
641.716	8.46
641.75	21.46
641.784	14.46
641.818	-10.54
641.852	8.46
641.886	11.46
641.919	19.46
641.953	0.46
641.987	-8.54
642.021	-3.54
642.055	-5.54
642.089	10.46
642.123	-1.54
642.157	-11.54
642.191	-7.54
642.225	24.46
642.259	1.46
642.293	15.46
642.327	2.46
642.361	0.46
642.395	16.46
642.429	2.46
642.463	2.46
642.497	13.46
642.531	-0.54
642.565	-6.54
642.599	13.46
642.633	-18.54
642.666	7.46
642.7	17.46
642.734	26.46
642.768	-8.54
642.802	-2.54
642.836	3.46
642.87	0.46
642.904	8.46
642.938	11.46
642.972	-2.54
643.005	-13.54
643.039	26.46
643.073	5.46
643.107	0.46
643.141	-4.54
643.175	11.46
643.209	7.46
643.243	8.46
643.276	1.46
643.31	-1.54
643.344	-14.54
643.378	9.46
643.412	3.46
643.446	18.46
643.48	10.46
643.513	15.46
643.547	29.46
643.581	3.46
643.615	22.46
643.649	-9.54
643.683	-5.54
643.716	8.46
643.75	-6.54
643.784	-11.54
643.818	12.46
643.852	5.46
643.886	-0.54
643.919	11.46
643.953	7.46
643.987	0.46
644.021	15.46
644.055	3.46
644.088	3.46
644.122	-10.54
644.156	-11.54
644.19	-3.54
644.224	-0.54
644.257	5.46
644.291	12.46
644.325	4.46
644.359	-2.54
644.392	4.46
644.426	11.46
644.46	-3.54
644.494	8.46
644.527	-1.54
644.561	15.46
644.595	10.46
644.629	-9.54
644.662	-18.54
644.696	21.46
644.73	13.46
644.764	10.46
644.797	3.46
644.831	9.46
644.865	21.46
644.899	-2.54
644.932	34.46
644.966	0.46
645	9.46
645.033	16.46
645.067	-2.54
645.101	12.46
645.135	-3.54
645.168	8.46
645.202	3.46
645.236	2.46
645.269	-1.54
645.303	5.46
645.337	-9.54
645.37	-7.54
645.404	9.46
645.438	14.46
645.471	0.46
645.505	5.46
645.539	10.46
645.572	-6.54
645.606	-0.54
645.64	13.46
645.673	9.46
645.707	34.46
645.741	5.46
645.774	-9.54
645.808	-0.54
645.842	-4.54
645.875	3.46
645.909	-0.54
645.943	2.46
645.976	-5.54
646.01	-0.54
646.043	14.46
646.077	10.46
646.111	5.46
646.144	14.46
646.178	23.46
646.212	-3.54
646.245	-2.54
646.279	3.46
646.312	4.46
646.346	8.46
646.38	-7.54
646.413	22.46
646.447	5.46
646.48	11.46
646.514	8.46
646.547	2.46
646.581	-11.54
646.615	10.46
646.648	-0.54
646.682	11.46
646.715	1.46
646.749	24.46
646.782	-2.54
646.816	-8.54
646.85	6.46
646.883	-3.54
646.917	-3.54
646.95	-1.54
646.984	-7.54
647.017	-0.54
647.051	2.46
647.084	21.46
647.118	1.46
647.151	-2.54
647.185	-3.54
647.218	-18.54
647.252	-15.54
647.285	-19.54
647.319	7.46
647.353	11.46
647.386	32.46
647.42	10.46
647.453	1.46
647.487	1.46
647.52	0.46
647.553	2.46
647.587	13.46
647.62	-2.54
647.654	-0.54
647.687	0.46
647.721	4.46
647.754	4.46
647.788	3.46
647.821	-20.54
647.855	9.46
647.888	22.46
647.922	27.46
647.955	13.46
647.989	10.46
648.022	2.46
648.055	9.46
648.089	-5.54
648.122	25.46
648.156	-1.54
648.189	3.46
648.223	-1.54
648.256	16.46
648.29	11.46
648.323	13.46
648.356	-0.54
648.39	0.46
648.423	-2.54
648.457	9.46
648.49	25.46
648.523	22.46
648.557	9.46
648.59	-8.54
648.624	10.46
648.657	7.46
648.69	13.46
648.724	15.46
648.757	14.46
648.791	14.46
648.824	9.46
648.857	8.46
648.891	2.46
648.924	-1.54
648.957	37.46
648.991	1.46
649.024	6.46
649.057	7.46
649.091	9.46
649.124	16.46
649.158	24.46
649.191	38.46
649.224	1.46
649.258	8.46
649.291	10.46
649.324	1.46
649.358	-5.54
649.391	14.46
649.424	-10.54
649.458	3.46
649.491	27.46
649.524	2.46
649.557	-1.54
649.591	-10.54
649.624	17.46
649.657	-17.54
649.691	6.46
649.724	7.46
649.757	3.46
649.791	8.46
649.824	21.46
649.857	15.46
649.89	2.46
649.924	-3.54
649.957	-1.54
649.99	0.46
650.023	-5.54
650.057	-1.54
650.09	6.46
650.123	5.46
650.157	12.46
650.19	23.46
650.223	3.46
650.256	-23.54
650.29	5.46
650.323	2.46
650.356	1.46
650.389	-12.54
650.423	-18.54
650.456	-3.54
650.489	6.46
650.522	3.46
650.555	5.46
650.589	12.46
650.622	21.46
650.655	6.46
650.688	-5.54
650.721	17.46
650.755	14.46
650.788	11.46
650.821	16.46
650.854	5.46
650.887	4.46
650.921	3.46
650.954	-5.54
650.987	2.46
651.02	1.46
651.053	-0.54
651.087	-13.54
651.12	9.46
651.153	15.46
651.186	8.46
651.219	0.46
651.252	6.46
651.286	1.46
651.319	5.46
651.352	2.46
651.385	12.46
651.418	10.46
651.451	15.46
651.484	9.46
651.518	-14.54
651.551	22.46
651.584	-4.54
651.617	22.46
651.65	-3.54
651.683	17.46
651.716	-4.54
651.749	-7.54
651.783	-5.54
651.816	-15.54
651.849	5.46
651.882	8.46
651.915	-12.54
651.948	9.46
651.981	6.46
652.014	-8.54
652.047	-8.54
652.08	-10.54
652.114	8.46
652.147	6.46
652.18	13.46
652.213	25.46
652.246	0.46
652.279	-1.54
652.312	8.46
652.345	-5.54
652.378	11.46
652.411	21.46
652.444	-6.54
652.477	10.46
652.51	0.46
652.543	-7.54
652.576	20.46
652.609	8.46
652.642	8.46
652.675	-0.54
652.709	2.46
652.742	4.46
652.775	10.46
652.808	17.46
652.841	8.46
652.874	18.46
652.907	-0.54
652.94	-3.54
652.973	-12.54
653.006	-14.54
653.039	-2.54
653.072	4.46
653.105	4.46
653.138	-1.54
653.171	-8.54
653.204	-3.54
653.237	-0.54
653.27	-5.54
653.303	1.46
653.336	8.46
653.368	-1.54
653.401	1.46
653.434	-2.54
653.467	10.46
653.5	-0.54
653.533	2.46
653.566	-7.54
653.599	1.46
653.632	5.46
653.665	-1.54
653.698	-9.54
653.731	-25.54
653.764	0.46
653.797	5.46
653.83	24.46
653.863	-0.54
653.896	12.46
653.929	4.46
653.961	15.46
653.994	-10.54
654.027	-6.54
654.06	8.46
654.093	15.46
654.126	14.46
654.159	-7.54
654.192	1.46
654.225	-2.54
654.258	3.46
654.29	6.46
654.323	2.46
654.356	-6.54
654.389	9.46
654.422	-2.54
654.455	6.46
654.488	-4.54
654.521	-5.54
654.553	-9.54
654.586	9.46
654.619	-2.54
654.652	6.46
654.685	10.46
654.718	10.46
654.751	7.46
654.783	6.46
654.816	33.46
654.849	9.46
654.882	-1.54
654.915	-8.54
654.948	7.46
654.98	4.46
655.013	5.46
655.046	-8.54
655.079	-1.54
655.112	27.46
655.144	5.46
655.177	25.46
655.21	23.46
655.243	41.46
655.276	17.46
655.308	0.46
655.341	-4.54
655.374	15.46
655.407	5.46
655.44	-7.54
655.472	5.46
655.505	12.46
655.538	8.46
655.571	2.46
655.603	9.46
655.636	15.46
655.669	25.46
655.702	14.46
655.734	23.46
655.767	18.46
655.8	25.46
655.833	27.46
655.865	35.46
655.898	36.46
655.931	36.46
655.964	56.46
655.996	49.46
656.029	73.46
656.062	51.46
656.095	66.46
656.127	65.46
656.16	101.46
656.193	126.46
656.225	177.46
656.258	285.46
656.291	483.46
656.324	1100.46
656.356	3374.46
656.389	7506.46
656.422	5911.46
656.454	2029.46
656.487	705.46
656.52	262.46
656.552	118.46
656.585	87.46
656.618	70.46
656.65	27.46
656.683	41.46
656.716	28.46
656.748	28.46
656.781	-9.54
656.814	-9.54
656.846	-0.54
656.879	-5.54
656.912	17.46
656.944	3.46
656.977	-10.54
657.01	-1.54
657.042	2.46
657.075	6.46
657.108	3.46
657.14	-0.54
657.173	34.46
657.205	29.46
657.238	3.46
657.271	6.46
657.303	11.46
657.336	-3.54
657.369	-7.54
657.401	6.46
657.434	10.46
657.466	8.46
657.499	-7.54
657.532	3.46
657.564	13.46
657.597	4.46
657.629	6.46
657.662	20.46
657.694	9.46
657.727	-8.54
657.76	2.46
657.792	-13.54
657.825	-3.54
657.857	-13.54
657.89	1.46
657.922	8.46
657.955	-1.54
657.987	8.46
658.02	17.46
658.053	8.46
658.085	5.46
658.118	7.46
658.15	21.46
658.183	10.46
658.215	0.46
658.248	-7.54
658.28	-2.54
658.313	18.46
658.345	2.46
658.378	8.46
658.41	0.46
658.443	3.46
658.475	-2.54
658.508	-5.54
658.54	14.46
658.573	-5.54
658.605	-2.54
658.638	3.46
658.67	0.46
658.703	6.46
658.735	13.46
658.768	10.46
658.8	-9.54
658.833	34.46
658.865	10.46
658.898	0.46
658.93	7.46
658.963	-2.54
658.995	-13.54
659.028	-1.54
659.06	-9.54
659.092	10.46
659.125	0.46
659.157	8.46
659.19	5.46
659.222	-3.54
659.255	-7.54
659.287	1.46
659.32	-14.54
659.352	4.46
659.384	9.46
659.417	6.46
659.449	10.46
659.482	9.46
659.514	-20.54
659.546	-6.54
659.579	-11.54
659.611	-4.54
659.644	-10.54
659.676	0.46
659.708	-21.54
659.741	5.46
659.773	13.46
659.806	6.46
659.838	5.46
659.87	-4.54
659.903	-6.54
659.935	19.46
659.967	18.46
660	9.46
660.032	-26.54
660.065	17.46
660.097	-6.54
660.129	-7.54
660.162	-1.54
660.194	19.46
660.226	5.46
660.259	-3.54
660.291	-0.54
660.323	-11.54
660.356	-1.54
660.388	3.46
660.42	6.46
660.453	-1.54
660.485	17.46
660.517	17.46
660.55	29.46
660.582	-10.54
660.614	-0.54
660.647	0.46
660.679	-31.54
660.711	-1.54
660.743	-23.54
660.776	3.46
660.808	-5.54
660.84	3.46
660.873	3.46
660.905	-9.54
660.937	0.46
660.969	-2.54
661.002	1.46
661.034	18.46
661.066	11.46
661.099	8.46
661.131	15.46
661.163	17.46
661.195	4.46
661.228	8.46
661.26	-4.54
661.292	-2.54
661.324	2.46
661.357	-2.54
661.389	-20.54
661.421	-13.54
661.453	-0.54
661.485	6.46
661.518	-10.54
661.55	-19.54
661.582	-27.54
661.614	5.46
661.647	7.46
661.679	-1.54
661.711	-7.54
661.743	-7.54
661.775	-5.54
661.808	6.46
661.84	5.46
661.872	5.46
661.904	-1.54
661.936	-6.54
661.969	-6.54
662.001	-1.54
662.033	-3.54
662.065	12.46
662.097	14.46
662.129	6.46
662.162	7.46
662.194	13.46
662.226	7.46
662.258	10.46
662.29	7.46
662.322	-19.54
662.355	-23.54
662.387	2.46
662.419	10.46
662.451	6.46
662.483	17.46
662.515	-1.54
662.547	-1.54
662.58	-7.54
662.612	4.46
662.644	-20.54
662.676	5.46
662.708	15.46
662.74	1.46
662.772	-13.54
662.804	5.46
662.836	7.46
662.869	-17.54
662.901	-17.54
662.933	6.46
662.965	20.46
662.997	17.46
663.029	-3.54
663.061	16.46
663.093	-2.54
663.125	5.46
663.157	4.46
663.189	2.46
663.221	10.46
663.254	6.46
663.286	-4.54
663.318	0.46
663.35	3.46
663.382	1.46
663.414	-4.54
663.446	-3.54
663.478	-17.54
663.51	20.46
663.542	-5.54
663.574	-6.54
663.606	4.46
663.638	-21.54
663.67	-2.54
663.702	-12.54
663.734	1.46
663.766	-4.54
663.798	-10.54
663.83	-0.54
663.862	9.46
663.894	13.46
663.926	-2.54
663.958	11.46
663.99	-7.54
664.022	3.46
664.054	-5.54
664.086	-7.54
664.118	-7.54
664.15	-10.54
664.182	6.46
664.214	-4.54
664.246	25.46
664.278	12.46
664.31	6.46
664.342	8.46
664.374	-3.54
664.406	-0.54
664.438	10.46
664.47	22.46
664.502	-0.54
664.534	2.46
664.566	1.46
664.598	5.46
664.63	-14.54
664.662	-2.54
664.693	-7.54
664.725	-4.54
664.757	8.46
664.789	1.46
664.821	27.46
664.853	20.46
664.885	8.46
664.917	7.46
664.949	19.46
664.981	24.46
665.013	8.46
665.045	-19.54
665.076	-0.54
665.108	2.46
665.14	-3.54
665.172	-4.54
665.204	6.46
665.236	-2.54
665.268	-1.54
665.3	-10.54
665.331	-6.54
665.363	17.46
665.395	-6.54
665.427	-10.54
665.459	4.46
665.491	-7.54
665.523	3.46
665.555	3.46
665.586	-2.54
665.618	1.46
665.65	-14.54
665.682	21.46
665.714	6.46
665.746	-7.54
665.777	9.46
665.809	5.46
665.841	25.46
665.873	7.46
665.905	-7.54
665.937	-1.54
665.968	10.46
666	-1.54
666.032	-1.54
666.064	4.46
666.096	11.46
666.127	4.46
666.159	13.46
666.191	8.46
666.223	-3.54
666.255	12.46
666.286	3.46
666.318	-1.54
666.35	19.46
666.382	13.46
666.413	-0.54
666.445	6.46
666.477	-17.54
666.509	-9.54
666.54	-3.54
666.572	4.46
666.604	6.46
666.636	-4.54
666.667	16.46
666.699	21.46
666.731	4.46
666.763	1.46
666.794	1.46
666.826	-15.54
666.858	-2.54
666.89	17.46
666.921	12.46
666.953	2.46
666.985	18.46
667.017	7.46
667.048	7.46
667.08	-3.54
667.112	-12.54
667.143	-2.54
667.175	9.46
667.207	10.46
667.238	5.46
667.27	0.46
667.302	6.46
667.334	7.46
667.365	24.46
667.397	-3.54
667.429	-12.54
667.46	11.46
667.492	3.46
667.524	0.46
667.555	-3.54
667.587	12.46
667.619	-1.54
667.65	-10.54
667.682	-2.54
667.714	5.46
667.745	7.46
667.777	6.46
667.808	6.46
667.84	4.46
667.872	-1.54
667.903	25.46
667.935	-2.54
667.967	9.46
667.998	3.46
668.03	6.46
668.061	4.46
668.093	-2.54
668.125	8.46
668.156	8.46
668.188	-16.54
668.22	-8.54
668.251	2.46
668.283	17.46
668.314	28.46
668.346	-4.54
668.377	-8.54
668.409	-20.54
668.441	-1.54
668.472	7.46
668.504	21.46
668.535	29.46
668.567	28.46
668.599	0.46
668.63	-7.54
668.662	-3.54
668.693	24.46
668.725	19.46
668.756	17.46
668.788	14.46
668.819	1.46
668.851	-2.54
668.882	9.46
668.914	2.46
668.946	-13.54
668.977	-7.54
669.009	-12.54
669.04	12.46
669.072	-4.54
669.103	-8.54
669.135	-10.54
669.166	2.46
669.198	-1.54
669.229	-1.54
669.261	-1.54
669.292	-1.54
669.324	16.46
669.355	14.46
669.387	8.46
669.418	10.46
669.45	-9.54
669.481	15.46
669.513	7.46
669.544	13.46
669.576	21.46
669.607	9.46
669.639	16.46
669.67	1.46
669.701	2.46
669.733	7.46
669.764	6.46
669.796	-11.54
669.827	16.46
669.859	13.46
669.89	17.46
669.922	9.46
669.953	14.46
669.985	14.46
670.016	-3.54
670.047	2.46
670.079	-8.54
670.11	1.46
670.142	-11.54
670.173	9.46
670.204	9.46
670.236	1.46
670.267	-7.54
670.299	7.46
670.33	5.46
670.362	6.46
670.393	-0.54
670.424	21.46
670.456	1.46
670.487	-5.54
670.518	6.46
670.55	-3.54
670.581	-2.54
670.613	6.46
670.644	-18.54
670.675	-15.54
670.707	-1.54
670.738	7.46
670.769	9.46
670.801	-4.54
670.832	0.46
670.864	1.46
670.895	23.46
670.926	-7.54
670.958	-7.54
670.989	-11.54
671.02	-4.54
671.052	7.46
671.083	17.46
671.114	4.46
671.146	6.46
671.177	5.46
671.208	10.46
671.24	7.46
671.271	-11.54
671.302	9.46
671.333	1.46
671.365	-1.54
671.396	-1.54
671.427	-4.54
671.459	5.46
671.49	0.46
671.521	-17.54
671.553	-5.54
671.584	3.46
671.615	-5.54
671.646	21.46
671.678	0.46
671.709	-24.54
671.74	-25.54
671.771	-12.54
671.803	2.46
671.834	-3.54
671.865	2.46
671.896	11.46
671.928	-1.54
671.959	-4.54
671.99	0.46
672.021	-4.54
672.053	1.46
672.084	7.46
672.115	6.46
672.146	0.46
672.178	-14.54
672.209	-3.54
672.24	-5.54
672.271	6.46
672.303	6.46
672.334	10.46
672.365	2.46
672.396	4.46
672.427	2.46
672.459	21.46
672.49	20.46
672.521	6.46
672.552	12.46
672.583	-8.54
672.615	15.46
672.646	23.46
672.677	11.46
672.708	-8.54
672.739	-6.54
672.77	15.46
672.802	8.46
672.833	10.46
672.864	5.46
672.895	-14.54
672.926	1.46
672.957	-5.54
672.989	0.46
673.02	21.46
673.051	0.46
673.082	6.46
673.113	-1.54
673.144	16.46
673.175	12.46
673.206	-5.54
673.238	-24.54
673.269	-3.54
673.3	-9.54
673.331	4.46
673.362	-5.54
673.393	5.46
673.424	-3.54
673.455	12.46
673.487	4.46
673.518	16.46
673.549	-0.54
673.58	-1.54
673.611	3.46
673.642	2.46
673.673	-12.54
673.704	-3.54
673.735	3.46
673.766	10.46
673.797	6.46
673.828	2.46
673.86	-4.54
673.891	-6.54
673.922	-5.54
673.953	-25.54
673.984	0.46
674.015	8.46
674.046	1.46
674.077	14.46
674.108	-0.54
674.139	-5.54
674.17	5.46
674.201	-14.54
674.232	0.46
674.263	-2.54
674.294	-14.54
674.325	-1.54
674.356	7.46
674.387	18.46
674.418	11.46
674.449	6.46
674.48	-2.54
674.511	5.46
674.542	7.46
674.573	-7.54
674.604	12.46
674.635	-3.54
674.666	9.46
674.697	1.46
674.728	0.46
674.759	10.46
674.79	-1.54
674.821	-5.54
674.852	-0.54
674.883	-13.54
674.914	-8.54
674.945	4.46
674.976	-1.54
675.007	-6.54
675.038	-17.54
675.069	-29.54
675.1	-14.54
675.131	1.46
675.162	-2.54
675.193	4.46
675.224	3.46
675.254	8.46
675.285	18.46
675.316	6.46
675.347	10.46
675.378	-5.54
675.409	-6.54
675.44	15.46
675.471	12.46
675.502	-12.54
675.533	17.46
675.564	7.46
675.595	14.46
675.625	28.46
675.656	-3.54
675.687	-7.54
675.718	-7.54
675.749	9.46
675.78	9.46
675.811	-3.54
675.842	-5.54
675.873	8.46
675.903	-2.54
675.934	3.46
675.965	-7.54
675.996	0.46
676.027	4.46
676.058	2.46
676.089	-6.54
676.119	7.46
676.15	6.46
676.181	11.46
676.212	4.46
676.243	5.46
676.274	-6.54
676.304	24.46
676.335	-7.54
676.366	-4.54
676.397	-10.54
676.428	6.46
676.459	4.46
676.489	8.46
676.52	13.46
676.551	-4.54
676.582	-0.54
676.613	27.46
676.643	-12.54
676.674	1.46
676.705	8.46
676.736	3.46
676.767	19.46
676.797	24.46
676.828	10.46
676.859	5.46
676.89	-2.54
676.92	12.46
676.951	-9.54
676.982	-5.54
677.013	-9.54
677.044	11.46
677.074	7.46
677.105	-3.54
677.136	17.46
677.167	-4.54
677.197	9.46
677.228	-12.54
677.259	-7.54
677.289	11.46
677.32	-14.54
677.351	-8.54
677.382	8.46
677.412	3.46
677.443	2.46
677.474	-10.54
677.505	11.46
677.535	7.46
677.566	5.46
677.597	-13.54
677.627	-7.54
677.658	12.46
677.689	7.46
677.72	-0.54
677.75	-7.54
677.781	0.46
677.812	-10.54
677.842	3.46
677.873	-4.54
677.904	1.46
677.934	10.46
677.965	0.46
677.996	-14.54
678.026	-7.54
678.057	3.46
678.088	-16.54
678.118	9.46
678.149	-4.54
678.18	1.46
678.21	-14.54
678.241	-12.54
678.272	-1.54
678.302	-18.54
678.333	-7.54
678.363	7.46
678.394	1.46
678.425	1.46
678.455	-2.54
678.486	13.46
678.517	1.46
678.547	-3.54
678.578	8.46
678.608	-29.54
678.639	2.46
678.67	5.46
678.7	-8.54
678.731	-7.54
678.761	4.46
678.792	7.46
678.823	16.46
678.853	3.46
678.884	-6.54
678.914	7.46
678.945	6.46
678.975	1.46
679.006	9.46
679.037	5.46
679.067	13.46
679.098	0.46
679.128	-3.54
679.159	4.46
679.189	9.46
679.22	-21.54
679.25	14.46
679.281	0.46
679.312	20.46
679.342	7.46
679.373	18.46
679.403	1.46
679.434	5.46
679.464	-4.54
679.495	3.46
679.525	7.46
679.556	-2.54
679.586	6.46
679.617	9.46
679.647	8.46
679.678	-3.54
679.708	12.46
679.739	7.46
679.769	4.46
679.8	1.46
679.83	-0.54
679.861	8.46
679.891	13.46
679.922	-14.54
679.952	-3.54
679.983	1.46
680.013	-10.54
680.044	-14.54
680.074	9.46
680.105	16.46
680.135	1.46
680.165	3.46
680.196	8.46
680.226	5.46
680.257	7.46
680.287	-3.54
680.318	2.46
680.348	-12.54
680.379	13.46
680.409	13.46
680.439	1.46
680.47	-14.54
680.5	7.46
680.531	4.46
680.561	2.46
680.592	2.46
680.622	4.46
680.652	-3.54
680.683	8.46
680.713	-10.54
680.744	-0.54
680.774	-8.54
680.804	20.46
680.835	4.46
680.865	-10.54
680.896	13.46
680.926	9.46
680.956	13.46
680.987	-6.54
681.017	4.46
681.047	10.46
681.078	-7.54
681.108	-4.54
681.139	0.46
681.169	-3.54
681.199	-5.54
681.23	-13.54
681.26	-5.54
681.29	29.46
681.321	-2.54
681.351	3.46
681.381	6.46
681.412	1.46
681.442	14.46
681.472	15.46
681.503	-2.54
681.533	-6.54
681.563	2.46
681.594	-3.54
681.624	1.46
681.654	6.46
681.685	-1.54
681.715	1.46
681.745	-3.54
681.775	-6.54
681.806	21.46
681.836	2.46
681.866	0.46
681.897	2.46
681.927	-12.54
681.957	-4.54
681.987	9.46
682.018	2.46
682.048	-4.54
682.078	0.46
682.109	17.46
682.139	4.46
682.169	-12.54
682.199	-9.54
682.23	1.46
682.26	-1.54
682.29	-2.54
682.32	3.46
682.351	5.46
682.381	7.46
682.411	10.46
682.441	-8.54
682.472	4.46
682.502	4.46
682.532	-0.54
682.562	-13.54
682.592	8.46
682.623	17.46
682.653	6.46
682.683	-8.54
682.713	0.46
682.743	3.46
682.774	3.46
682.804	0.46
682.834	10.46
682.864	-5.54
682.894	-8.54
682.925	-11.54
682.955	-6.54
682.985	-6.54
683.015	-2.54
683.045	10.46
683.076	1.46
683.106	-12.54
683.136	-13.54
683.166	2.46
683.196	5.46
683.226	-5.54
683.257	-12.54
683.287	-5.54
683.317	6.46
683.347	9.46
683.377	8.46
683.407	2.46
683.437	7.46
683.468	5.46
683.498	-17.54
683.528	11.46
683.558	8.46
683.588	4.46
683.618	5.46
683.648	-9.54
683.678	-3.54
683.708	14.46
683.739	9.46
683.769	21.46
683.799	6.46
683.829	4.46
683.859	3.46
683.889	7.46
683.919	1.46
683.949	-8.54
683.979	-3.54
684.009	2.46
684.039	0.46
684.07	-12.54
684.1	9.46
684.13	0.46
684.16	8.46
684.19	3.46
684.22	-2.54
684.25	-1.54
684.28	-9.54
684.31	13.46
684.34	2.46
684.37	6.46
684.4	-10.54
684.43	6.46
684.46	0.46
684.49	-1.54
684.52	5.46
684.55	12.46
684.58	-0.54
684.61	11.46
684.64	4.46
684.67	15.46
684.7	10.46
684.73	29.46
684.76	4.46
684.79	21.46
684.82	9.46
684.85	1.46
684.88	11.46
684.91	10.46
684.94	6.46
684.97	-7.54
685	-1.54
685.03	9.46
685.06	-9.54
685.09	-4.54
685.12	7.46
685.15	-12.54
685.18	4.46
685.21	8.46
685.24	16.46
685.27	4.46
685.3	-10.54
685.33	9.46
685.36	4.46
685.39	5.46
685.42	-18.54
685.45	-3.54
685.48	11.46
685.51	5.46
685.54	21.46
685.569	19.46
685.599	13.46
685.629	1.46
685.659	3.46
685.689	-5.54
685.719	2.46
685.749	-16.54
685.779	18.46
685.809	22.46
685.839	-7.54
685.869	6.46
685.898	13.46
685.928	21.46
685.958	6.46
685.988	12.46
686.018	3.46
686.048	12.46
686.078	26.46
686.108	15.46
686.137	6.46
686.167	11.46
686.197	-9.54
686.227	-4.54
686.257	18.46
686.287	17.46
686.317	0.46
686.346	0.46
686.376	6.46
686.406	-11.54
686.436	4.46
686.466	-6.54
686.496	11.46
686.525	5.46
686.555	14.46
686.585	18.46
686.615	17.46
686.645	13.46
686.675	5.46
686.704	6.46
686.734	7.46
686.764	1.46
686.794	-13.54
686.824	9.46
686.853	12.46
686.883	3.46
686.913	5.46
686.943	0.46
686.973	0.46
687.002	12.46
687.032	9.46
687.062	-3.54
687.092	12.46
687.121	3.46
687.151	9.46
687.181	-2.54
687.211	20.46
687.24	-2.54
687.27	0.46
687.3	2.46
687.33	12.46
687.359	-10.54
687.389	8.46
687.419	-1.54
687.449	-2.54
687.478	3.46
687.508	9.46
687.538	13.46
687.568	8.46
687.597	4.46
687.627	15.46
687.657	14.46
687.686	1.46
687.716	15.46
687.746	-12.54
687.776	-10.54
687.805	5.46
687.835	3.46
687.865	35.46
687.894	8.46
687.924	-1.54
687.954	8.46
687.983	5.46
688.013	9.46
688.043	1.46
688.072	4.46
688.102	5.46
688.132	-1.54
688.161	-2.54
688.191	-9.54
688.221	26.46
688.25	-10.54
688.28	13.46
688.31	14.46
688.339	6.46
688.369	-3.54
688.399	0.46
688.428	-5.54
688.458	16.46
688.488	1.46
688.517	16.46
688.547	4.46
688.576	24.46
688.606	13.46
688.636	-8.54
688.665	15.46
688.695	11.46
688.725	4.46
688.754	14.46
688.784	8.46
688.813	-6.54
688.843	-0.54
688.873	-4.54
688.902	-3.54
688.932	-8.54
688.961	-7.54
688.991	27.46
689.02	13.46
689.05	7.46
689.08	15.46
689.109	2.46
689.139	-2.54
689.168	4.46
689.198	-1.54
689.227	-5.54
689.257	13.46
689.287	8.46
689.316	3.46
689.346	-2.54
689.375	-5.54
689.405	10.46
689.434	-3.54
689.464	25.46
689.493	-4.54
689.523	1.46
689.552	-4.54
689.582	3.46
689.611	11.46
689.641	11.46
689.67	-12.54
689.7	5.46
689.73	7.46
689.759	7.46
689.789	7.46
689.818	0.46
689.848	-3.54
689.877	0.46
689.906	-7.54
689.936	-3.54
689.965	-3.54
689.995	6.46
690.024	4.46
690.054	8.46
690.083	20.46
690.113	4.46
690.142	1.46
690.172	6.46
690.201	2.46
690.231	3.46
690.26	-2.54
690.29	10.46
690.319	15.46
690.348	-4.54
690.378	6.46
690.407	-4.54
690.437	-1.54
690.466	9.46
690.496	0.46
690.525	7.46
690.555	-12.54
690.584	5.46
690.613	-4.54
690.643	-0.54
690.672	-8.54
690.702	3.46
690.731	18.46
690.76	2.46
690.79	-1.54
690.819	-4.54
690.849	1.46
690.878	-10.54
690.907	5.46
690.937	13.46
690.966	25.46
690.996	3.46
691.025	-6.54
691.054	-8.54
691.084	21.46
691.113	1.46
691.142	7.46
691.172	16.46
691.201	20.46
691.23	7.46
691.26	15.46
691.289	4.46
691.319	-9.54
691.348	-10.54
691.377	25.46
691.407	11.46
691.436	6.46
691.465	-2.54
691.495	-11.54
691.524	-4.54
691.553	9.46
691.583	4.46
691.612	5.46
691.641	2.46
691.67	-7.54
691.7	-1.54
691.729	-2.54
691.758	18.46
691.788	12.46
691.817	-10.54
691.846	1.46
691.876	-4.54
691.905	4.46
691.934	9.46
691.963	17.46
691.993	13.46
692.022	0.46
692.051	-10.54
692.081	8.46
692.11	13.46
692.139	4.46
692.168	20.46
692.198	19.46
692.227	7.46
692.256	-0.54
692.285	7.46
692.315	2.46
692.344	2.46
692.373	1.46
692.402	-25.54
692.432	-5.54
692.461	-6.54
692.49	-4.54
692.519	-12.54
692.548	31.46
692.578	10.46
692.607	-6.54
692.636	-13.54
692.665	4.46
692.694	11.46
692.724	-5.54
692.753	10.46
692.782	14.46
692.811	1.46
692.84	2.46
692.87	-2.54
692.899	11.46
692.928	18.46
692.957	-6.54
692.986	6.46
693.016	9.46
693.045	12.46
693.074	4.46
693.103	-17.54
693.132	3.46
693.161	1.46
693.191	-3.54
693.22	-10.54
693.249	7.46
693.278	2.46
693.307	31.46
693.336	0.46
693.365	-9.54
693.395	5.46
693.424	5.46
693.453	9.46
693.482	5.46
693.511	6.46
693.54	-5.54
693.569	12.46
693.598	4.46
693.628	10.46
693.657	3.46
693.686	21.46
693.715	11.46
693.744	20.46
693.773	9.46
693.802	6.46
693.831	5.46
693.86	20.46
693.889	0.46
693.919	9.46
693.948	5.46
693.977	4.46
694.006	3.46
694.035	6.46
694.064	4.46
694.093	4.46
694.122	-4.54
694.151	-0.54
694.18	-4.54
694.209	13.46
694.238	16.46
694.267	20.46
694.296	12.46
694.325	2.46
694.354	19.46
694.383	8.46
694.412	5.46
694.441	-5.54
694.471	14.46
694.5	0.46
694.529	11.46
694.558	31.46
694.587	24.46
694.616	17.46
694.645	24.46
694.674	8.46
694.703	3.46
694.732	-2.54
694.761	17.46
694.79	9.46
694.819	-12.54
694.848	0.46
694.877	19.46
694.906	19.46
694.935	19.46
694.963	13.46
694.992	-0.54
695.021	12.46
695.05	22.46
695.079	5.46
695.108	-12.54
695.137	20.46
695.166	-1.54
695.195	-2.54
695.224	19.46
695.253	8.46
695.282	10.46
695.311	-2.54
695.34	-1.54
695.369	-3.54
695.398	6.46
695.427	35.46
695.456	30.46
695.485	9.46
695.513	4.46
695.542	2.46
695.571	-2.54
695.6	24.46
695.629	5.46
695.658	0.46
695.687	-6.54
695.716	0.46
695.745	10.46
695.774	-5.54
695.802	-14.54
695.831	9.46
695.86	38.46
695.889	15.46
695.918	16.46
695.947	5.46
695.976	6.46
696.005	11.46
696.033	11.46
696.062	7.46
696.091	-6.54
696.12	4.46
696.149	17.46
696.178	2.46
696.207	18.46
696.235	-11.54
696.264	9.46
696.293	11.46
696.322	4.46
696.351	17.46
696.38	1.46
696.408	21.46
696.437	3.46
696.466	5.46
696.495	-1.54
696.524	9.46
696.553	11.46
696.581	23.46
696.61	9.46
696.639	4.46
696.668	11.46
696.697	-2.54
696.725	-14.54
696.754	8.46
696.783	2.46
696.812	3.46
696.84	-7.54
696.869	6.46
696.898	-8.54
696.927	14.46
696.956	22.46
696.984	-4.54
697.013	7.46
697.042	0.46
697.071	7.46
697.099	15.46
697.128	5.46
697.157	11.46
697.186	7.46
697.214	3.46
697.243	-3.54
697.272	4.46
697.301	20.46
697.329	1.46
697.358	15.46
697.387	22.46
697.415	0.46
697.444	-1.54
697.473	5.46
697.502	1.46
697.53	17.46
697.559	5.46
697.588	6.46
697.616	4.46
697.645	-9.54
697.674	11.46
697.703	12.46
697.731	18.46
697.76	15.46
697.789	8.46
697.817	19.46
697.846	18.46
697.875	1.46
697.903	18.46
697.932	22.46
697.961	8.46
697.989	4.46
698.018	1.46
698.047	21.46
698.075	16.46
698.104	7.46
698.133	-1.54
698.161	20.46
698.19	2.46
698.218	-13.54
698.247	5.46
698.276	-2.54
698.304	5.46
698.333	3.46
698.362	2.46
698.39	17.46
698.419	18.46
698.447	-2.54
698.476	2.46
698.505	-1.54
698.533	2.46
698.562	4.46
698.591	-6.54
698.619	-8.54
698.648	-1.54
698.676	-10.54
698.705	0.46
698.733	-4.54
698.762	3.46
698.791	1.46
698.819	3.46
698.848	5.46
698.876	11.46
698.905	19.46
698.933	-6.54
698.962	16.46
698.991	11.46
699.019	28.46
699.048	3.46
699.076	14.46
699.105	1.46
699.133	3.46
699.162	22.46
699.19	1.46
699.219	8.46
699.248	-5.54
699.276	18.46
699.305	-14.54
699.333	-3.54
699.362	1.46
699.39	9.46
699.419	4.46
699.447	0.46
699.476	24.46
699.504	4.46
699.533	13.46
699.561	-0.54
699.59	-9.54
699.618	14.46
699.647	-11.54
699.675	9.46
699.704	13.46
699.732	3.46
699.761	-3.54
699.789	2.46
699.818	6.46
699.846	-1.54
699.874	1.46
699.903	-2.54
699.931	7.46
699.96	8.46
699.988	10.46
700.017	3.46
700.045	4.46
700.074	1.46
700.102	10.46
700.13	6.46
700.159	11.46
700.187	6.46
700.216	2.46
700.244	-1.54
700.273	5.46
700.301	12.46
700.329	4.46
700.358	18.46
700.386	-5.54
700.415	-2.54
700.443	-5.54
700.472	2.46
700.5	14.46
700.528	2.46
700.557	2.46
700.585	1.46
700.614	-10.54
700.642	7.46
700.67	21.46
700.699	22.46
700.727	7.46
700.755	-10.54
700.784	22.46
700.812	9.46
700.841	14.46
700.869	-0.54
700.897	1.46
700.926	0.46
700.954	5.46
700.982	10.46
701.011	16.46
701.039	1.46
701.067	-3.54
701.096	5.46
701.124	-6.54
701.152	8.46
701.181	12.46
701.209	-13.54
701.237	4.46
701.266	2.46
701.294	1.46
701.322	14.46
701.351	15.46
701.379	3.46
701.407	0.46
701.435	7.46
701.464	13.46
701.492	16.46
701.52	1.46
701.549	6.46
701.577	-15.54
701.605	-9.54
701.634	4.46
701.662	3.46
701.69	-7.54
701.718	-1.54
701.747	4.46
701.775	2.46
701.803	-3.54
701.831	5.46
701.86	6.46
701.888	10.46
701.916	-6.54
701.944	6.46
701.973	-7.54
702.001	-7.54
702.029	2.46
702.057	0.46
702.086	-13.54
702.114	-21.54
702.142	-6.54
702.17	-12.54
702.199	-0.54
702.227	1.46
702.255	-5.54
702.283	-8.54
702.311	4.46
702.34	-6.54
702.368	-0.54
702.396	0.46
702.424	8.46
702.452	1.46
702.481	-7.54
702.509	-6.54
702.537	3.46
702.565	14.46
702.593	-5.54
702.621	-1.54
702.65	8.46
702.678	3.46
702.706	3.46
702.734	-13.54
702.762	9.46
702.79	1.46
702.819	1.46
702.847	11.46
702.875	0.46
702.903	12.46
702.931	5.46
702.959	7.46
702.988	10.46
703.016	-13.54
703.044	-1.54
703.072	-10.54
703.1	1.46
703.128	1.46
703.156	11.46
703.184	3.46
703.212	10.46
703.241	1.46
703.269	-0.54
703.297	6.46
703.325	2.46
703.353	8.46
703.381	-3.54
703.409	8.46
703.437	-5.54
703.465	2.46
703.493	-11.54
703.522	7.46
703.55	10.46
703.578	4.46
703.606	-26.54
703.634	-3.54
703.662	8.46
703.69	4.46
703.718	1.46
703.746	-2.54
703.774	5.46
703.802	24.46
703.83	13.46
703.858	6.46
703.886	-8.54
703.914	-6.54
703.942	0.46
703.97	-7.54
703.998	-2.54
704.027	20.46
704.055	17.46
704.083	-2.54
704.111	-8.54
704.139	3.46
704.167	-0.54
704.195	4.46
704.223	5.46
704.251	0.46
704.279	9.46
704.307	-0.54
704.335	-16.54
704.363	12.46
704.391	0.46
704.419	-6.54
704.447	-7.54
704.475	5.46
704.503	-1.54
704.531	1.46
704.558	11.46
704.586	11.46
704.614	-10.54
704.642	-5.54
704.67	-17.54
704.698	-14.54
704.726	-10.54
704.754	3.46
704.782	-5.54
704.81	-0.54
704.838	14.46
704.866	0.46
704.894	-14.54
704.922	-14.54
704.95	14.46
704.978	-2.54
705.006	5.46
705.034	8.46
705.061	-0.54
705.089	11.46
705.117	-2.54
705.145	-14.54
705.173	4.46
705.201	4.46
705.229	10.46
705.257	4.46
705.285	14.46
705.313	2.46
705.34	4.46
705.368	-3.54
705.396	-2.54
705.424	-1.54
705.452	2.46
705.48	3.46
705.508	1.46
705.536	5.46
705.563	4.46
705.591	17.46
705.619	9.46
705.647	-11.54
705.675	-10.54
705.703	2.46
705.731	1.46
705.758	0.46
705.786	-1.54
705.814	20.46
705.842	-4.54
705.87	1.46
705.898	16.46
705.925	1.46
705.953	9.46
705.981	5.46
706.009	-3.54
706.037	11.46
706.065	-14.54
706.092	-3.54
706.12	2.46
706.148	1.46
706.176	-4.54
706.204	14.46
706.231	20.46
706.259	8.46
706.287	1.46
706.315	3.46
706.342	2.46
706.37	15.46
706.398	-6.54
706.426	-9.54
706.454	2.46
706.481	8.46
706.509	-2.54
706.537	-1.54
706.565	1.46
706.592	4.46
706.62	1.46
706.648	-1.54
706.676	-9.54
706.703	-13.54
706.731	0.46
706.759	-9.54
706.787	-2.54
706.814	11.46
706.842	4.46
706.87	-5.54
706.897	-2.54
706.925	-1.54
706.953	12.46
706.981	12.46
707.008	7.46
707.036	4.46
707.064	-6.54
707.091	-12.54
707.119	9.46
707.147	1.46
707.174	-1.54
707.202	23.46
707.23	-3.54
707.258	-9.54
707.285	5.46
707.313	3.46
707.341	-7.54
707.368	-4.54
707.396	-2.54
707.424	24.46
707.451	7.46
707.479	-1.54
707.507	-5.54
707.534	-6.54
707.562	3.46
707.59	-8.54
707.617	-10.54
707.645	-1.54
707.672	21.46
707.7	9.46
707.728	20.46
707.755	11.46
707.783	-2.54
707.811	10.46
707.838	-18.54
707.866	4.46
707.893	-2.54
707.921	3.46
707.949	-0.54
707.976	-2.54
708.004	1.46
708.031	-4.54
708.059	-3.54
708.087	-1.54
708.114	8.46
708.142	8.46
708.169	-4.54
708.197	-12.54
708.225	-5.54
708.252	-6.54
708.28	27.46
708.307	-3.54
708.335	-3.54
708.362	-21.54
708.39	-9.54
708.418	-10.54
708.445	-13.54
708.473	-13.54
708.5	-13.54
708.528	2.46
708.555	3.46
708.583	-0.54
708.61	-3.54
708.638	8.46
708.665	-2.54
708.693	-1.54
708.72	-21.54
708.748	-27.54
708.776	2.46
708.803	15.46
708.831	14.46
708.858	12.46
708.886	-8.54
708.913	0.46
708.941	1.46
708.968	-2.54
708.996	3.46
709.023	52.46
709.051	8.46
709.078	1.46
709.105	3.46
709.133	9.46
709.16	-1.54
709.188	17.46
709.215	11.46
709.243	-2.54
709.27	-18.54
709.298	-7.54
709.325	-4.54
709.353	-6.54
709.38	-3.54
709.408	-3.54
709.435	3.46
709.462	3.46
709.49	-2.54
709.517	2.46
709.545	-8.54
709.572	4.46
709.6	4.46
709.627	-4.54
709.655	-5.54
709.682	1.46
709.709	-2.54
709.737	1.46
709.764	-9.54
709.792	9.46
709.819	-2.54
709.846	-0.54
709.874	14.46
709.901	8.46
709.929	12.46
709.956	13.46
709.983	3.46
710.011	6.46
710.038	6.46
710.066	13.46
710.093	25.46
710.12	10.46
710.148	2.46
710.175	-1.54
710.202	-5.54
710.23	12.46
710.257	-0.54
710.284	23.46
710.312	7.46
710.339	-2.54
710.366	-1.54
710.394	4.46
710.421	9.46
710.448	5.46
710.476	2.46
710.503	13.46
710.53	4.46
710.558	21.46
710.585	21.46
710.612	-5.54
710.64	-15.54
710.667	1.46
710.694	-3.54
710.722	2.46
710.749	-4.54
710.776	7.46
710.804	19.46
710.831	-2.54
710.858	-8.54
710.885	-8.54
710.913	0.46
710.94	21.46
710.967	2.46
710.995	-2.54
711.022	1.46
711.049	16.46
711.076	3.46
711.104	0.46
711.131	-23.54
711.158	14.46
711.185	4.46
711.213	-20.54
711.24	-5.54
711.267	-5.54
711.294	11.46
711.322	17.46
711.349	-10.54
711.376	-2.54
711.403	14.46
711.431	-7.54
711.458	12.46
711.485	-3.54
711.512	5.46
711.54	2.46
711.567	9.46
711.594	-1.54
711.621	-12.54
711.648	-2.54
711.676	-9.54
711.703	3.46
711.73	-14.54
711.757	-7.54
711.784	-10.54
711.812	-4.54
711.839	-5.54
711.866	-1.54
711.893	-3.54
711.92	-7.54
711.947	-6.54
711.975	-3.54
712.002	14.46
712.029	19.46
712.056	14.46
712.083	4.46
712.11	0.46
712.138	11.46
712.165	16.46
712.192	10.46
712.219	-9.54
712.246	0.46
712.273	-11.54
712.3	-5.54
712.328	10.46
712.355	2.46
712.382	-3.54
712.409	-0.54
712.436	-5.54
712.463	14.46
712.49	7.46
712.517	5.46
712.544	-5.54
712.572	5.46
712.599	-6.54
712.626	8.46
712.653	-6.54
712.68	-5.54
712.707	17.46
712.734	8.46
712.761	-12.54
712.788	5.46
712.815	5.46
712.842	13.46
712.87	5.46
712.897	5.46
712.924	-13.54
712.951	9.46
712.978	19.46
713.005	24.46
713.032	2.46
713.059	3.46
713.086	6.46
713.113	-13.54
713.14	-7.54
713.167	-2.54
713.194	5.46
713.221	7.46
713.248	1.46
713.275	-12.54
713.302	-17.54
713.329	-14.54
713.356	8.46
713.383	3.46
713.41	5.46
713.437	-5.54
713.464	6.46
713.491	8.46
713.518	1.46
713.545	4.46
713.572	0.46
713.599	8.46
713.626	1.46
713.653	30.46
713.68	-8.54
713.707	9.46
713.734	8.46
713.761	-4.54
713.788	-3.54
713.815	21.46
713.842	4.46
713.869	-0.54
713.896	0.46
713.923	-7.54
713.95	-7.54
713.977	0.46
714.004	6.46
714.031	-1.54
714.058	6.46
714.085	-5.54
714.112	6.46
714.139	-3.54
714.165	0.46
714.192	-5.54
714.219	8.46
714.246	0.46
714.273	-4.54
714.3	-11.54
714.327	-9.54
714.354	9.46
714.381	12.46
714.408	21.46
714.435	9.46
714.461	17.46
714.488	14.46
714.515	-14.54
714.542	-11.54
714.569	-14.54
714.596	-6.54
714.623	-9.54
714.65	-7.54
714.677	-11.54
714.703	-4.54
714.73	9.46
714.757	4.46
714.784	1.46
714.811	-3.54
714.838	-6.54
714.865	0.46
714.891	19.46
714.918	5.46
714.945	-13.54
714.972	-3.54
714.999	-5.54
715.026	-15.54
715.052	25.46
715.079	7.46
715.106	-2.54
715.133	0.46
715.16	0.46
715.187	7.46
715.213	5.46
715.24	-1.54
715.267	-2.54
715.294	1.46
715.321	9.46
715.347	3.46
715.374	-13.54
715.401	-5.54
715.428	-4.54
715.455	-7.54
715.481	-0.54
715.508	7.46
715.535	-11.54
715.562	4.46
715.588	2.46
715.615	-12.54
715.642	-5.54
715.669	5.46
715.695	-4.54
715.722	-6.54
715.749	7.46
715.776	9.46
715.802	9.46
715.829	-3.54
715.856	-2.54
715.883	2.46
715.909	-5.54
715.936	9.46
715.963	0.46
715.99	-2.54
716.016	-1.54
716.043	4.46
716.07	-7.54
716.096	-15.54
716.123	0.46
716.15	-2.54
716.177	5.46
716.203	26.46
716.23	27.46
716.257	9.46
716.283	2.46
716.31	0.46
716.337	-6.54
716.363	-2.54
716.39	4.46
716.417	8.46
716.443	2.46
716.47	27.46
716.497	26.46
716.523	16.46
716.55	18.46
716.577	5.46
716.603	9.46
716.63	3.46
716.657	10.46
716.683	1.46
716.71	3.46
716.737	0.46
716.763	18.46
716.79	24.46
716.817	5.46
716.843	13.46
716.87	-4.54
716.897	-3.54
716.923	11.46
716.95	-3.54
716.976	-21.54
717.003	-20.54
717.03	6.46
717.056	5.46
717.083	7.46
717.109	-2.54
717.136	10.46
717.163	1.46
717.189	-1.54
717.216	-4.54
717.242	4.46
717.269	6.46
717.296	-2.54
717.322	15.46
717.349	6.46
717.375	13.46
717.402	0.46
717.428	1.46
717.455	2.46
717.481	5.46
717.508	14.46
717.535	12.46
717.561	-2.54
717.588	0.46
717.614	-3.54
717.641	-5.54
717.667	6.46
717.694	2.46
717.72	-3.54
717.747	13.46
717.773	3.46
717.8	11.46
717.826	12.46
717.853	17.46
717.88	7.46
717.906	-1.54
717.933	22.46
717.959	12.46
717.986	11.46
718.012	2.46
718.039	9.46
718.065	18.46
718.092	5.46
718.118	-19.54
718.144	-14.54
718.171	9.46
718.197	29.46
718.224	0.46
718.25	-7.54
718.277	14.46
718.303	17.46
718.33	0.46
718.356	-10.54
718.383	-11.54
718.409	0.46
718.436	-5.54
718.462	-5.54
718.489	-2.54
718.515	20.46
718.541	12.46
718.568	9.46
718.594	11.46
718.621	5.46
718.647	-5.54
718.674	13.46
718.7	2.46
718.726	-3.54
718.753	6.46
718.779	10.46
718.806	0.46
718.832	0.46
718.858	12.46
718.885	-2.54
718.911	2.46
718.938	13.46
718.964	2.46
718.99	3.46
719.017	13.46
719.043	8.46
719.07	19.46
719.096	-13.54
719.122	10.46
719.149	6.46
719.175	14.46
719.201	7.46
719.228	-1.54
719.254	-7.54
719.281	2.46
719.307	8.46
719.333	5.46
719.36	9.46
719.386	-3.54
719.412	-0.54
719.439	-14.54
719.465	14.46
719.491	11.46
719.518	6.46
719.544	1.46
719.57	9.46
719.597	15.46
719.623	-6.54
719.649	-6.54
719.675	-2.54
719.702	7.46
719.728	15.46
719.754	-17.54
719.781	-7.54
719.807	8.46
719.833	17.46
719.86	10.46
719.886	2.46
719.912	3.46
719.938	-8.54
719.965	-2.54
719.991	13.46
720.017	4.46
720.044	-8.54
720.07	1.46
720.096	6.46
720.122	-2.54
720.149	-0.54
720.175	22.46
720.201	7.46
720.227	15.46
720.254	5.46
720.28	18.46
720.306	0.46
720.332	9.46
720.359	14.46
720.385	4.46
720.411	5.46
720.437	10.46
720.463	4.46
720.49	14.46
720.516	6.46
720.542	-9.54
720.568	-7.54
720.595	11.46
720.621	1.46
720.647	9.46
720.673	0.46
720.699	-5.54
720.725	1.46
720.752	0.46
720.778	31.46
720.804	28.46
720.83	13.46
720.856	-5.54
720.883	-1.54
720.909	-1.54
720.935	4.46
720.961	16.46
720.987	-3.54
721.013	8.46
721.04	1.46
721.066	-2.54
721.092	1.46
721.118	0.46
721.144	5.46
721.17	1.46
721.196	13.46
721.223	-1.54
721.249	-2.54
721.275	14.46
721.301	8.46
721.327	22.46
721.353	19.46
721.379	10.46
721.405	21.46
721.432	21.46
721.458	-13.54
721.484	7.46
721.51	0.46
721.536	11.46
721.562	14.46
721.588	-2.54
721.614	-6.54
721.64	-9.54
721.666	7.46
721.693	-2.54
721.719	-2.54
721.745	-1.54
721.771	-3.54
721.797	-8.54
721.823	10.46
721.849	12.46
721.875	20.46
721.901	0.46
721.927	2.46
721.953	13.46
721.979	10.46
722.005	16.46
722.031	-2.54
722.057	-1.54
722.083	3.46
722.109	6.46
722.135	-0.54
722.161	-4.54
722.187	-4.54
722.214	-7.54
722.24	-4.54
722.266	-1.54
722.292	9.46
722.318	-2.54
722.344	12.46
722.37	13.46
722.396	11.46
722.422	-5.54
722.448	14.46
722.474	4.46
722.5	14.46
722.526	4.46
722.552	-3.54
722.578	11.46
722.603	7.46
722.629	-11.54
722.655	0.46
722.681	0.46
722.707	4.46
722.733	6.46
722.759	1.46
722.785	-1.54
722.811	2.46
722.837	13.46
722.863	13.46
722.889	9.46
722.915	-0.54
722.941	10.46
722.967	8.46
722.993	5.46
723.019	6.46
723.045	15.46
723.071	8.46
723.097	9.46
723.122	-1.54
723.148	-8.54
723.174	1.46
723.2	3.46
723.226	-2.54
723.252	-7.54
723.278	-14.54
723.304	-7.54
723.33	10.46
723.356	6.46
723.381	8.46
723.407	-18.54
723.433	26.46
723.459	-4.54
723.485	-0.54
723.511	10.46
723.537	6.46
723.563	7.46
723.588	5.46
723.614	17.46
723.64	7.46
723.666	-10.54
723.692	11.46
723.718	9.46
723.744	2.46
723.769	-1.54
723.795	-2.54
723.821	12.46
723.847	6.46
723.873	19.46
723.899	6.46
723.924	6.46
723.95	5.46
723.976	-5.54
724.002	-2.54
724.028	3.46
724.053	-4.54
724.079	-12.54
724.105	-12.54
724.131	1.46
724.157	7.46
724.182	11.46
724.208	-1.54
724.234	-9.54
724.26	-1.54
724.286	4.46
724.311	20.46
724.337	-6.54
724.363	-10.54
724.389	2.46
724.415	5.46
724.44	28.46
724.466	-15.54
724.492	-11.54
724.518	4.46
724.543	11.46
724.569	1.46
724.595	13.46
724.621	-11.54
724.646	-10.54
724.672	-3.54
724.698	-0.54
724.723	4.46
724.749	8.46
724.775	6.46
724.801	2.46
724.826	-13.54
724.852	-14.54
724.878	-9.54
724.904	-23.54
724.929	0.46
724.955	-13.54
724.981	12.46
725.006	5.46
725.032	6.46
725.058	11.46
725.083	3.46
725.109	-6.54
725.135	6.46
725.161	5.46
725.186	7.46
725.212	1.46
725.238	5.46
725.263	2.46
725.289	-3.54
725.315	-11.54
725.34	-4.54
725.366	7.46
725.392	-6.54
725.417	1.46
725.443	12.46
725.468	-0.54
725.494	19.46
725.52	13.46
725.545	0.46
725.571	-2.54
725.597	10.46
725.622	16.46
725.648	9.46
725.674	19.46
725.699	-3.54
725.725	12.46
725.75	21.46
725.776	3.46
725.802	8.46
725.827	11.46
725.853	13.46
725.878	7.46
725.904	1.46
725.93	-1.54
725.955	-9.54
725.981	4.46
726.006	-6.54
726.032	14.46
726.057	9.46
726.083	1.46
726.109	1.46
726.134	5.46
726.16	-3.54
726.185	0.46
726.211	-6.54
726.236	-0.54
726.262	8.46
726.288	9.46
726.313	0.46
726.339	8.46
726.364	13.46
726.39	13.46
726.415	10.46
726.441	2.46
726.466	-4.54
726.492	-3.54
726.517	14.46
726.543	-4.54
726.568	-5.54
726.594	-6.54
726.619	8.46
726.645	17.46
726.67	6.46
726.696	8.46
726.721	-3.54
726.747	-20.54
726.772	-1.54
726.798	-2.54
726.823	4.46
726.849	1.46
726.874	5.46
726.9	25.46
726.925	11.46
726.951	-10.54
726.976	5.46
727.002	2.46
727.027	9.46
727.053	18.46
727.078	0.46
727.104	4.46
727.129	-13.54
727.155	-9.54
727.18	11.46
727.205	3.46
727.231	-4.54
727.256	0.46
727.282	9.46
727.307	11.46
727.333	6.46
727.358	-2.54
727.383	-14.54
727.409	-6.54
727.434	16.46
727.46	3.46
727.485	0.46
727.511	3.46
727.536	-19.54
727.561	3.46
727.587	-3.54
727.612	-17.54
727.637	-9.54
727.663	-10.54
727.688	23.46
727.714	2.46
727.739	-13.54
727.764	-12.54
727.79	4.46
727.815	6.46
727.841	11.46
727.866	1.46
727.891	7.46
727.917	-32.54
727.942	-9.54
727.967	-0.54
727.993	-11.54
728.018	12.46
728.043	25.46
728.069	0.46
728.094	2.46
728.119	-10.54
728.145	12.46
728.17	-3.54
728.195	-2.54
728.221	4.46
728.246	-11.54
728.271	-17.54
728.297	0.46
728.322	0.46
728.347	2.46
728.373	1.46
728.398	5.46
728.423	-4.54
728.448	-4.54
728.474	8.46
728.499	5.46
728.524	4.46
728.55	-4.54
728.575	-10.54
728.6	1.46
728.625	-6.54
728.651	0.46
728.676	0.46
728.701	1.46
728.727	10.46
728.752	2.46
728.777	-17.54
728.802	-2.54
728.828	5.46
728.853	14.46
728.878	-3.54
728.903	-9.54
728.929	-13.54
728.954	-6.54
728.979	6.46
729.004	-2.54
729.03	-15.54
729.055	2.46
729.08	-4.54
729.105	-3.54
729.13	26.46
729.156	13.46
729.181	0.46
729.206	-13.54
729.231	-11.54
729.256	2.46
729.282	13.46
729.307	-7.54
729.332	-2.54
729.357	-18.54
729.382	1.46
729.408	5.46
729.433	8.46
729.458	6.46
729.483	11.46
729.508	22.46
729.533	5.46
729.559	0.46
729.584	-13.54
729.609	9.46
729.634	13.46
729.659	-6.54
729.684	-6.54
729.71	29.46
729.735	17.46
729.76	-1.54
729.785	-4.54
729.81	9.46
729.835	1.46
729.86	-19.54
729.886	3.46
729.911	-7.54
729.936	-29.54
729.961	3.46
729.986	-12.54
730.011	-7.54
730.036	-1.54
730.061	-4.54
730.086	-2.54
730.112	2.46
730.137	20.46
730.162	0.46
730.187	-7.54
730.212	1.46
730.237	2.46
730.262	-10.54
730.287	1.46
730.312	39.46
730.337	3.46
730.362	24.46
730.387	-3.54
730.413	-7.54
730.438	-7.54
730.463	-6.54
730.488	2.46
730.513	-4.54
730.538	8.46
730.563	23.46
730.588	7.46
730.613	14.46
730.638	-5.54
730.663	2.46
730.688	18.46
730.713	4.46
730.738	-3.54
730.763	-3.54
730.788	-19.54
730.813	13.46
730.838	-3.54
730.863	-5.54
730.888	3.46
730.913	-2.54
730.938	-8.54
730.963	9.46
730.988	6.46
731.013	10.46
731.038	-1.54
731.063	-5.54
731.088	2.46
731.113	-3.54
731.138	2.46
731.163	-6.54
731.188	0.46
731.213	1.46
731.238	5.46
731.263	-5.54
731.288	2.46
731.313	10.46
731.338	-1.54
731.363	22.46
731.388	14.46
731.413	1.46
731.438	9.46
731.463	5.46
731.487	14.46
731.512	-12.54
731.537	3.46
731.562	-5.54
731.587	-6.54
731.612	-15.54
731.637	-19.54
731.662	-6.54
731.687	-18.54
731.712	-11.54
731.737	19.46
731.762	-7.54
731.786	-14.54
731.811	8.46
731.836	-7.54
731.861	-3.54
731.886	-7.54
731.911	3.46
731.936	9.46
731.961	5.46
731.986	-7.54
732.01	8.46
732.035	-4.54
732.06	9.46
732.085	8.46
732.11	5.46
732.135	-8.54
732.16	9.46
732.184	0.46
732.209	-12.54
732.234	0.46
732.259	-12.54
732.284	17.46
732.309	3.46
732.334	5.46
732.358	-12.54
732.383	-30.54
732.408	-12.54
732.433	7.46
732.458	5.46
732.482	6.46
732.507	-6.54
732.532	4.46
732.557	7.46
732.582	-10.54
732.607	1.46
732.631	-8.54
732.656	0.46
732.681	-13.54
732.706	12.46
732.73	2.46
732.755	-14.54
732.78	2.46
732.805	9.46
732.83	1.46
732.854	-2.54
732.879	9.46
732.904	2.46
732.929	-4.54
732.953	13.46
732.978	-1.54
733.003	-15.54
733.028	-14.54
733.052	-3.54
733.077	-4.54
733.102	13.46
733.127	5.46
733.151	4.46
733.176	2.46
733.201	-4.54
733.226	-6.54
733.25	-3.54
733.275	1.46
733.3	-2.54
733.324	6.46
733.349	-2.54
733.374	7.46
733.399	6.46
733.423	9.46
733.448	-11.54
733.473	-18.54
733.497	0.46
733.522	-19.54
733.547	20.46
733.571	9.46
733.596	-5.54
733.621	10.46
733.646	1.46
733.67	4.46
733.695	-3.54
733.72	2.46
733.744	3.46
733.769	0.46
733.794	12.46
733.818	10.46
733.843	-2.54
733.867	-17.54
733.892	2.46
733.917	-12.54
733.941	-5.54
733.966	-10.54
733.991	-19.54
734.015	8.46
734.04	-3.54
734.065	2.46
734.089	12.46
734.114	0.46
734.138	-7.54
734.163	2.46
734.188	-1.54
734.212	9.46
734.237	23.46
734.261	-5.54
734.286	-6.54
734.311	1.46
734.335	-0.54
734.36	4.46
734.384	8.46
734.409	-2.54
734.434	-7.54
734.458	-1.54
734.483	-5.54
734.507	-7.54
734.532	-2.54
734.556	-3.54
734.581	-6.54
734.606	-18.54
734.63	-21.54
734.655	-5.54
734.679	-4.54
734.704	-0.54
734.728	2.46
734.753	1.46
734.777	1.46
734.802	2.46
734.826	-2.54
734.851	-1.54
734.876	30.46
734.9	16.46
734.925	6.46
734.949	8.46
734.974	-5.54
734.998	14.46
735.023	-4.54
735.047	-3.54
735.072	17.46
735.096	1.46
735.121	5.46
735.145	-3.54
735.17	8.46
735.194	14.46
735.219	-2.54
735.243	-2.54
735.268	9.46
735.292	11.46
735.317	10.46
735.341	11.46
735.365	-13.54
735.39	17.46
735.414	0.46
735.439	-9.54
735.463	4.46
735.488	-5.54
735.512	0.46
735.537	0.46
735.561	2.46
735.586	0.46
735.61	5.46
735.634	-8.54
735.659	1.46
735.683	8.46
735.708	1.46
735.732	-7.54
735.757	-12.54
735.781	6.46
735.805	-1.54
735.83	-2.54
735.854	-5.54
735.879	-5.54
735.903	11.46
735.927	-12.54
735.952	1.46
735.976	2.46
736.001	6.46
736.025	10.46
736.049	2.46
736.074	-3.54
736.098	-11.54
736.123	5.46
736.147	-12.54
736.171	-1.54
736.196	11.46
736.22	-1.54
736.244	1.46
736.269	5.46
736.293	-5.54
736.317	0.46
736.342	8.46
736.366	2.46
736.39	18.46
736.415	6.46
736.439	-0.54
736.463	8.46
736.488	11.46
736.512	2.46
736.536	4.46
736.561	19.46
736.585	-6.54
736.609	2.46
736.634	12.46
736.658	-6.54
736.682	-15.54
736.707	-12.54
736.731	3.46
736.755	-1.54
736.78	32.46
736.804	13.46
736.828	2.46
736.852	-7.54
736.877	-0.54
736.901	16.46
736.925	-1.54
736.949	10.46
736.974	3.46
736.998	-14.54
737.022	7.46
737.047	-4.54
737.071	-6.54
737.095	15.46
737.119	22.46
737.144	13.46
737.168	-6.54
737.192	5.46
737.216	-6.54
737.241	-19.54
737.265	-6.54
737.289	-8.54
737.313	-1.54
737.337	15.46
737.362	10.46
737.386	-0.54
737.41	2.46
737.434	5.46
737.459	-1.54
737.483	22.46
737.507	12.46
737.531	3.46
737.555	1.46
737.58	6.46
737.604	-3.54
737.628	-9.54
737.652	-7.54
737.676	7.46
737.701	-1.54
737.725	1.46
737.749	0.46
737.773	-15.54
737.797	-2.54
737.821	8.46
737.846	0.46
737.87	25.46
737.894	8.46
737.918	-5.54
737.942	-14.54
737.966	11.46
737.99	11.46
738.015	20.46
738.039	14.46
738.063	0.46
738.087	15.46
738.111	11.46
738.135	6.46
738.159	1.46
738.184	6.46
738.208	12.46
738.232	-3.54
738.256	20.46
738.28	15.46
738.304	9.46
738.328	10.46
738.352	12.46
738.376	-3.54
738.4	17.46
738.425	9.46
738.449	-3.54
738.473	12.46
738.497	9.46
738.521	10.46
738.545	4.46
738.569	13.46
738.593	17.46
738.617	6.46
738.641	6.46
738.665	20.46
738.689	7.46
738.713	9.46
738.737	6.46
738.762	3.46
738.786	5.46
738.81	-5.54
738.834	9.46
738.858	-2.54
738.882	14.46
738.906	2.46
738.93	6.46
738.954	17.46
738.978	15.46
739.002	5.46
739.026	14.46
739.05	4.46
739.074	8.46
739.098	33.46
739.122	11.46
739.146	15.46
739.17	1.46
739.194	5.46
739.218	-2.54
739.242	1.46
739.266	-11.54
739.29	13.46
739.314	18.46
739.338	0.46
739.362	3.46
739.386	-1.54
739.41	-4.54
739.434	-5.54
739.458	19.46
739.482	21.46
739.506	5.46
739.53	4.46
739.554	11.46
739.577	-2.54
739.601	4.46
739.625	-1.54
739.649	0.46
739.673	-13.54
739.697	0.46
739.721	-4.54
739.745	2.46
739.769	0.46
739.793	-6.54
739.817	4.46
739.841	-3.54
739.865	3.46
739.889	13.46
739.912	8.46
739.936	10.46
739.96	6.46
739.984	7.46
740.008	-0.54
740.032	-13.54
740.056	-10.54
740.08	1.46
740.104	-2.54
740.127	20.46
740.151	18.46
740.175	10.46
740.199	9.46
740.223	40.46
740.247	20.46
740.271	10.46
740.295	10.46
740.318	-14.54
740.342	2.46
740.366	16.46
740.39	9.46
740.414	8.46
740.438	-2.54
740.461	16.46
740.485	6.46
740.509	0.46
740.533	10.46
740.557	1.46
740.581	1.46
740.604	-9.54
740.628	1.46
740.652	13.46
740.676	-7.54
740.7	9.46
740.723	-8.54
740.747	4.46
740.771	8.46
740.795	-4.54
740.819	8.46
740.842	14.46
740.866	6.46
740.89	11.46
740.914	16.46
740.938	-4.54
740.961	-3.54
740.985	7.46
741.009	4.46
741.033	11.46
741.056	-2.54
741.08	-8.54
741.104	-6.54
741.128	-9.54
741.151	2.46
741.175	9.46
741.199	5.46
741.223	5.46
741.246	0.46
741.27	4.46
741.294	-2.54
741.318	-10.54
741.341	-4.54
741.365	-4.54
741.389	-3.54
741.413	16.46
741.436	23.46
741.46	6.46
741.484	5.46
741.507	6.46
741.531	23.46
741.555	15.46
741.579	-0.54
741.602	9.46
741.626	9.46
741.65	2.46
741.673	-3.54
741.697	13.46
741.721	6.46
741.744	-9.54
741.768	12.46
741.792	3.46
741.815	-3.54
741.839	11.46
741.863	14.46
741.886	5.46
741.91	12.46
741.934	15.46
741.957	-19.54
741.981	7.46
742.005	19.46
742.028	1.46
742.052	-1.54
742.075	13.46
742.099	13.46
742.123	11.46
742.146	7.46
742.17	17.46
742.194	-7.54
742.217	-7.54
742.241	1.46
742.264	-1.54
742.288	19.46
742.312	16.46
742.335	3.46
742.359	-2.54
742.382	23.46
742.406	20.46
742.43	7.46
742.453	1.46
742.477	6.46
742.5	21.46
742.524	-11.54
742.548	-6.54
742.571	0.46
742.595	-9.54
742.618	-18.54
742.642	-3.54
742.665	3.46
742.689	2.46
742.712	9.46
742.736	3.46
742.76	9.46
742.783	-0.54
742.807	4.46
742.83	8.46
742.854	-3.54
742.877	-1.54
742.901	-2.54
742.924	-5.54
742.948	0.46
742.971	3.46
742.995	7.46
743.018	-12.54
743.042	-9.54
743.065	9.46
743.089	8.46
743.112	6.46
743.136	-11.54
743.159	-5.54
743.183	6.46
743.206	5.46
743.23	-12.54
743.253	10.46
743.277	4.46
743.3	0.46
743.324	14.46
743.347	-0.54
743.371	13.46
743.394	11.46
743.418	15.46
743.441	14.46
743.465	6.46
743.488	8.46
743.512	-7.54
743.535	-2.54
743.558	4.46
743.582	1.46
743.605	2.46
743.629	17.46
743.652	32.46
743.676	12.46
743.699	11.46
743.723	15.46
743.746	15.46
743.769	-4.54
743.793	14.46
743.816	-8.54
743.84	2.46
743.863	7.46
743.886	23.46
743.91	3.46
743.933	21.46
743.957	17.46
743.98	-4.54
744.003	8.46
744.027	-4.54
744.05	-13.54
744.074	4.46
744.097	-5.54
744.12	-5.54
744.144	-14.54
744.167	3.46
744.19	-2.54
744.214	-0.54
744.237	8.46
744.26	24.46
744.284	-11.54
744.307	-6.54
744.331	4.46
744.354	-2.54
744.377	0.46
744.401	6.46
744.424	-11.54
744.447	-8.54
744.471	-17.54
