Data from HighRes_H2_15_09_11_07_2024_HR4C61891__83__15-11-04-702.txt Node

Date: Thu Nov 07 15:11:04 EST 2024
User: crc00042
Spectrometer: HR4C6189
Trigger mode: 4
Integration Time (sec): 1.000000E-1
Scans to average: 1
Electric dark correction enabled: true
Nonlinearity correction enabled: false
Boxcar width: 0
XAxis mode: Wavelengths
Number of Pixels in Spectrum: 3648
>>>>>Begin Spectral Data<<<<<
639.567	-39.23
639.602	-39.23
639.636	-39.23
639.67	-43.23
639.704	-18.23
639.738	-11.23
639.773	6.77
639.807	-22.23
639.841	-8.23
639.875	16.77
639.909	7.77
639.943	-9.23
639.978	-7.23
640.012	10.77
640.046	7.77
640.08	8.77
640.114	2.77
640.148	-3.23
640.182	-11.23
640.217	-2.23
640.251	20.77
640.285	22.77
640.319	-3.23
640.353	2.77
640.387	-0.23
640.421	-0.23
640.455	2.77
640.49	-0.23
640.524	0.77
640.558	15.77
640.592	4.77
640.626	1.77
640.66	15.77
640.694	9.77
640.728	13.77
640.762	12.77
640.796	9.77
640.83	12.77
640.865	-8.23
640.899	-2.23
640.933	4.77
640.967	3.77
641.001	11.77
641.035	12.77
641.069	-0.23
641.103	-18.23
641.137	-4.23
641.171	-3.23
641.205	9.77
641.239	12.77
641.273	14.77
641.307	8.77
641.341	14.77
641.375	-2.23
641.409	7.77
641.443	0.77
641.477	-4.23
641.511	-1.23
641.545	3.77
641.579	3.77
641.614	6.77
641.648	16.77
641.682	8.77
641.716	16.77
641.75	22.77
641.784	15.77
641.818	7.77
641.852	8.77
641.886	7.77
641.919	17.77
641.953	2.77
641.987	-16.23
642.021	-3.23
642.055	8.77
642.089	-2.23
642.123	-7.23
642.157	9.77
642.191	6.77
642.225	8.77
642.259	8.77
642.293	8.77
642.327	10.77
642.361	-5.23
642.395	13.77
642.429	15.77
642.463	16.77
642.497	19.77
642.531	1.77
642.565	6.77
642.599	28.77
642.633	-4.23
642.666	10.77
642.7	-1.23
642.734	10.77
642.768	-7.23
642.802	9.77
642.836	9.77
642.87	-4.23
642.904	6.77
642.938	22.77
642.972	2.77
643.005	19.77
643.039	22.77
643.073	2.77
643.107	21.77
643.141	17.77
643.175	8.77
643.209	12.77
643.243	22.77
643.276	9.77
643.31	-3.23
643.344	9.77
643.378	23.77
643.412	8.77
643.446	6.77
643.48	10.77
643.513	5.77
643.547	10.77
643.581	-1.23
643.615	17.77
643.649	0.77
643.683	3.77
643.716	6.77
643.75	17.77
643.784	-7.23
643.818	9.77
643.852	1.77
643.886	3.77
643.919	21.77
643.953	3.77
643.987	2.77
644.021	24.77
644.055	14.77
644.088	-0.23
644.122	8.77
644.156	2.77
644.19	14.77
644.224	6.77
644.257	22.77
644.291	31.77
644.325	10.77
644.359	2.77
644.392	27.77
644.426	21.77
644.46	5.77
644.494	29.77
644.527	4.77
644.561	16.77
644.595	13.77
644.629	-3.23
644.662	-2.23
644.696	19.77
644.73	-1.23
644.764	6.77
644.797	-4.23
644.831	9.77
644.865	6.77
644.899	15.77
644.932	35.77
644.966	-1.23
645	-4.23
645.033	18.77
645.067	-18.23
645.101	6.77
645.135	-1.23
645.168	1.77
645.202	2.77
645.236	5.77
645.269	13.77
645.303	6.77
645.337	1.77
645.37	12.77
645.404	11.77
645.438	9.77
645.471	3.77
645.505	5.77
645.539	6.77
645.572	-0.23
645.606	8.77
645.64	18.77
645.673	16.77
645.707	26.77
645.741	5.77
645.774	-8.23
645.808	-10.23
645.842	-7.23
645.875	19.77
645.909	-9.23
645.943	0.77
645.976	8.77
646.01	9.77
646.043	26.77
646.077	10.77
646.111	14.77
646.144	9.77
646.178	30.77
646.212	-7.23
646.245	13.77
646.279	3.77
646.312	16.77
646.346	14.77
646.38	3.77
646.413	-9.23
646.447	18.77
646.48	11.77
646.514	6.77
646.547	-13.23
646.581	-0.23
646.615	9.77
646.648	9.77
646.682	-3.23
646.715	10.77
646.749	20.77
646.782	2.77
646.816	16.77
646.85	9.77
646.883	-1.23
646.917	4.77
646.95	-2.23
646.984	8.77
647.017	7.77
647.051	4.77
647.084	4.77
647.118	-4.23
647.151	5.77
647.185	-5.23
647.218	-8.23
647.252	18.77
647.285	-5.23
647.319	-15.23
647.353	9.77
647.386	34.77
647.42	0.77
647.453	3.77
647.487	11.77
647.52	9.77
647.553	16.77
647.587	1.77
647.62	15.77
647.654	18.77
647.687	30.77
647.721	12.77
647.754	13.77
647.788	11.77
647.821	7.77
647.855	13.77
647.888	10.77
647.922	24.77
647.955	7.77
647.989	16.77
648.022	4.77
648.055	17.77
648.089	-13.23
648.122	15.77
648.156	6.77
648.189	12.77
648.223	23.77
648.256	20.77
648.29	15.77
648.323	-1.23
648.356	7.77
648.39	7.77
648.423	2.77
648.457	4.77
648.49	3.77
648.523	9.77
648.557	10.77
648.59	5.77
648.624	8.77
648.657	10.77
648.69	26.77
648.724	18.77
648.757	16.77
648.791	5.77
648.824	22.77
648.857	29.77
648.891	4.77
648.924	17.77
648.957	20.77
648.991	8.77
649.024	7.77
649.057	-2.23
649.091	-0.23
649.124	10.77
649.158	29.77
649.191	26.77
649.224	10.77
649.258	18.77
649.291	28.77
649.324	5.77
649.358	10.77
649.391	21.77
649.424	6.77
649.458	-2.23
649.491	11.77
649.524	-4.23
649.557	-9.23
649.591	-11.23
649.624	3.77
649.657	-7.23
649.691	15.77
649.724	17.77
649.757	-2.23
649.791	4.77
649.824	10.77
649.857	1.77
649.89	10.77
649.924	0.77
649.957	11.77
649.99	-3.23
650.023	11.77
650.057	4.77
650.09	1.77
650.123	19.77
650.157	31.77
650.19	34.77
650.223	15.77
650.256	-7.23
650.29	13.77
650.323	-2.23
650.356	10.77
650.389	0.77
650.423	13.77
650.456	14.77
650.489	20.77
650.522	16.77
650.555	24.77
650.589	13.77
650.622	5.77
650.655	-0.23
650.688	13.77
650.721	13.77
650.755	12.77
650.788	16.77
650.821	6.77
650.854	2.77
650.887	11.77
650.921	0.77
650.954	-7.23
650.987	-3.23
651.02	-5.23
651.053	5.77
651.087	-10.23
651.12	9.77
651.153	7.77
651.186	16.77
651.219	6.77
651.252	4.77
651.286	2.77
651.319	5.77
651.352	0.77
651.385	20.77
651.418	9.77
651.451	33.77
651.484	9.77
651.518	-1.23
651.551	6.77
651.584	1.77
651.617	24.77
651.65	4.77
651.683	13.77
651.716	6.77
651.749	-10.23
651.783	-4.23
651.816	10.77
651.849	11.77
651.882	24.77
651.915	8.77
651.948	12.77
651.981	1.77
652.014	-2.23
652.047	-4.23
652.08	4.77
652.114	2.77
652.147	-3.23
652.18	4.77
652.213	37.77
652.246	-2.23
652.279	10.77
652.312	10.77
652.345	17.77
652.378	12.77
652.411	25.77
652.444	8.77
652.477	-0.23
652.51	13.77
652.543	-9.23
652.576	9.77
652.609	-1.23
652.642	15.77
652.675	16.77
652.709	10.77
652.742	18.77
652.775	2.77
652.808	4.77
652.841	2.77
652.874	-8.23
652.907	6.77
652.94	7.77
652.973	-17.23
653.006	5.77
653.039	0.77
653.072	9.77
653.105	-5.23
653.138	-16.23
653.171	-4.23
653.204	-3.23
653.237	-4.23
653.27	-1.23
653.303	19.77
653.336	7.77
653.368	6.77
653.401	8.77
653.434	6.77
653.467	-3.23
653.5	-10.23
653.533	-2.23
653.566	-13.23
653.599	12.77
653.632	13.77
653.665	15.77
653.698	1.77
653.731	3.77
653.764	9.77
653.797	17.77
653.83	15.77
653.863	11.77
653.896	0.77
653.929	-7.23
653.961	5.77
653.994	6.77
654.027	-0.23
654.06	8.77
654.093	20.77
654.126	1.77
654.159	-10.23
654.192	6.77
654.225	-1.23
654.258	-10.23
654.29	0.77
654.323	-16.23
654.356	-6.23
654.389	9.77
654.422	11.77
654.455	8.77
654.488	10.77
654.521	-8.23
654.553	-10.23
654.586	12.77
654.619	15.77
654.652	23.77
654.685	10.77
654.718	33.77
654.751	23.77
654.783	-16.23
654.816	11.77
654.849	9.77
654.882	-1.23
654.915	-9.23
654.948	8.77
654.98	0.77
655.013	8.77
655.046	-0.23
655.079	-4.23
655.112	0.77
655.144	-4.23
655.177	-0.23
655.21	16.77
655.243	11.77
655.276	16.77
655.308	8.77
655.341	1.77
655.374	3.77
655.407	12.77
655.44	6.77
655.472	22.77
655.505	29.77
655.538	15.77
655.571	25.77
655.603	6.77
655.636	13.77
655.669	30.77
655.702	19.77
655.734	2.77
655.767	11.77
655.8	29.77
655.833	23.77
655.865	28.77
655.898	25.77
655.931	22.77
655.964	24.77
655.996	68.77
656.029	67.77
656.062	56.77
656.095	65.77
656.127	76.77
656.16	105.77
656.193	129.77
656.225	165.77
656.258	278.77
656.291	491.77
656.324	1121.77
656.356	3356.77
656.389	7543.77
656.422	6006.77
656.454	2064.77
656.487	688.77
656.52	264.77
656.552	102.77
656.585	74.77
656.618	66.77
656.65	54.77
656.683	22.77
656.716	48.77
656.748	12.77
656.781	-2.23
656.814	23.77
656.846	24.77
656.879	13.77
656.912	18.77
656.944	-11.23
656.977	-7.23
657.01	-7.23
657.042	28.77
657.075	19.77
657.108	9.77
657.14	7.77
657.173	26.77
657.205	29.77
657.238	13.77
657.271	20.77
657.303	0.77
657.336	5.77
657.369	4.77
657.401	2.77
657.434	1.77
657.466	20.77
657.499	21.77
657.532	6.77
657.564	13.77
657.597	-1.23
657.629	18.77
657.662	0.77
657.694	12.77
657.727	7.77
657.76	7.77
657.792	-23.23
657.825	-3.23
657.857	0.77
657.89	0.77
657.922	13.77
657.955	3.77
657.987	19.77
658.02	14.77
658.053	13.77
658.085	11.77
658.118	11.77
658.15	9.77
658.183	22.77
658.215	3.77
658.248	4.77
658.28	7.77
658.313	13.77
658.345	17.77
658.378	-5.23
658.41	11.77
658.443	20.77
658.475	13.77
658.508	0.77
658.54	5.77
658.573	-0.23
658.605	22.77
658.638	4.77
658.67	10.77
658.703	10.77
658.735	-6.23
658.768	5.77
658.8	0.77
658.833	30.77
658.865	17.77
658.898	19.77
658.93	-2.23
658.963	-18.23
658.995	-7.23
659.028	-4.23
659.06	4.77
659.092	-3.23
659.125	9.77
659.157	20.77
659.19	10.77
659.222	0.77
659.255	7.77
659.287	6.77
659.32	1.77
659.352	16.77
659.384	18.77
659.417	22.77
659.449	20.77
659.482	12.77
659.514	6.77
659.546	9.77
659.579	-6.23
659.611	-0.23
659.644	-1.23
659.676	-0.23
659.708	-11.23
659.741	11.77
659.773	11.77
659.806	9.77
659.838	3.77
659.87	6.77
659.903	7.77
659.935	18.77
659.967	11.77
660	14.77
660.032	-10.23
660.065	16.77
660.097	-1.23
660.129	8.77
660.162	-6.23
660.194	8.77
660.226	23.77
660.259	-0.23
660.291	-1.23
660.323	4.77
660.356	-13.23
660.388	-11.23
660.42	-3.23
660.453	17.77
660.485	18.77
660.517	16.77
660.55	19.77
660.582	8.77
660.614	18.77
660.647	-6.23
660.679	-14.23
660.711	16.77
660.743	-7.23
660.776	3.77
660.808	8.77
660.84	3.77
660.873	6.77
660.905	3.77
660.937	-3.23
660.969	16.77
661.002	7.77
661.034	4.77
661.066	10.77
661.099	13.77
661.131	15.77
661.163	27.77
661.195	26.77
661.228	3.77
661.26	-15.23
661.292	5.77
661.324	5.77
661.357	8.77
661.389	1.77
661.421	12.77
661.453	18.77
661.485	4.77
661.518	11.77
661.55	-0.23
661.582	15.77
661.614	-1.23
661.647	15.77
661.679	9.77
661.711	18.77
661.743	7.77
661.775	2.77
661.808	21.77
661.84	-16.23
661.872	11.77
661.904	6.77
661.936	1.77
661.969	-5.23
662.001	-8.23
662.033	10.77
662.065	13.77
662.097	22.77
662.129	3.77
662.162	10.77
662.194	8.77
662.226	7.77
662.258	21.77
662.29	6.77
662.322	-8.23
662.355	0.77
662.387	8.77
662.419	7.77
662.451	12.77
662.483	20.77
662.515	-0.23
662.547	-1.23
662.58	3.77
662.612	11.77
662.644	-6.23
662.676	5.77
662.708	16.77
662.74	-4.23
662.772	-1.23
662.804	9.77
662.836	28.77
662.869	8.77
662.901	10.77
662.933	4.77
662.965	12.77
662.997	1.77
663.029	-3.23
663.061	12.77
663.093	9.77
663.125	10.77
663.157	13.77
663.189	10.77
663.221	11.77
663.254	4.77
663.286	8.77
663.318	11.77
663.35	3.77
663.382	-0.23
663.414	39.77
663.446	5.77
663.478	-14.23
663.51	25.77
663.542	-12.23
663.574	6.77
663.606	16.77
663.638	2.77
663.67	-3.23
663.702	7.77
663.734	6.77
663.766	4.77
663.798	-6.23
663.83	13.77
663.862	23.77
663.894	12.77
663.926	7.77
663.958	2.77
663.99	21.77
664.022	8.77
664.054	25.77
664.086	-1.23
664.118	-16.23
664.15	1.77
664.182	0.77
664.214	0.77
664.246	13.77
664.278	9.77
664.31	13.77
664.342	4.77
664.374	-16.23
664.406	0.77
664.438	-0.23
664.47	28.77
664.502	11.77
664.534	-5.23
664.566	-1.23
664.598	8.77
664.63	14.77
664.662	20.77
664.693	-0.23
664.725	-9.23
664.757	15.77
664.789	-16.23
664.821	2.77
664.853	20.77
664.885	6.77
664.917	-4.23
664.949	6.77
664.981	2.77
665.013	12.77
665.045	-3.23
665.076	-5.23
665.108	2.77
665.14	7.77
665.172	5.77
665.204	6.77
665.236	5.77
665.268	29.77
665.3	10.77
665.331	-5.23
665.363	-4.23
665.395	-9.23
665.427	2.77
665.459	6.77
665.491	6.77
665.523	4.77
665.555	8.77
665.586	18.77
665.618	-2.23
665.65	-3.23
665.682	-0.23
665.714	6.77
665.746	-12.23
665.777	9.77
665.809	9.77
665.841	11.77
665.873	1.77
665.905	12.77
665.937	20.77
665.968	5.77
666	8.77
666.032	7.77
666.064	-0.23
666.096	8.77
666.127	10.77
666.159	21.77
666.191	9.77
666.223	-4.23
666.255	7.77
666.286	6.77
666.318	6.77
666.35	30.77
666.382	23.77
666.413	-0.23
666.445	1.77
666.477	-8.23
666.509	-6.23
666.54	24.77
666.572	15.77
666.604	5.77
666.636	11.77
666.667	14.77
666.699	21.77
666.731	16.77
666.763	4.77
666.794	-2.23
666.826	3.77
666.858	-0.23
666.89	22.77
666.921	20.77
666.953	8.77
666.985	16.77
667.017	26.77
667.048	22.77
667.08	8.77
667.112	-14.23
667.143	-8.23
667.175	7.77
667.207	8.77
667.238	7.77
667.27	-0.23
667.302	-8.23
667.334	-2.23
667.365	12.77
667.397	8.77
667.429	7.77
667.46	5.77
667.492	11.77
667.524	-5.23
667.555	-1.23
667.587	11.77
667.619	-11.23
667.65	4.77
667.682	0.77
667.714	15.77
667.745	20.77
667.777	13.77
667.808	4.77
667.84	18.77
667.872	-7.23
667.903	17.77
667.935	-0.23
667.967	-8.23
667.998	1.77
668.03	-7.23
668.061	15.77
668.093	7.77
668.125	22.77
668.156	15.77
668.188	4.77
668.22	0.77
668.251	3.77
668.283	0.77
668.314	20.77
668.346	-16.23
668.377	14.77
668.409	-7.23
668.441	25.77
668.472	8.77
668.504	-12.23
668.535	7.77
668.567	29.77
668.599	2.77
668.63	2.77
668.662	-9.23
668.693	26.77
668.725	8.77
668.756	15.77
668.788	10.77
668.819	13.77
668.851	3.77
668.882	6.77
668.914	15.77
668.946	4.77
668.977	-9.23
669.009	-11.23
669.04	-30.23
669.072	10.77
669.103	18.77
669.135	4.77
669.166	1.77
669.198	7.77
669.229	0.77
669.261	5.77
669.292	-17.23
669.324	6.77
669.355	11.77
669.387	-7.23
669.418	16.77
669.45	-0.23
669.481	-3.23
669.513	0.77
669.544	17.77
669.576	5.77
669.607	11.77
669.639	26.77
669.67	3.77
669.701	14.77
669.733	-6.23
669.764	-6.23
669.796	5.77
669.827	-2.23
669.859	4.77
669.89	1.77
669.922	13.77
669.953	11.77
669.985	14.77
670.016	14.77
670.047	-6.23
670.079	11.77
670.11	0.77
670.142	6.77
670.173	1.77
670.204	-1.23
670.236	1.77
670.267	-1.23
670.299	0.77
670.33	16.77
670.362	21.77
670.393	-4.23
670.424	18.77
670.456	-3.23
670.487	2.77
670.518	-4.23
670.55	-8.23
670.581	13.77
670.613	5.77
670.644	-8.23
670.675	-5.23
670.707	-4.23
670.738	1.77
670.769	-0.23
670.801	-5.23
670.832	15.77
670.864	-7.23
670.895	13.77
670.926	-5.23
670.958	2.77
670.989	7.77
671.02	-3.23
671.052	2.77
671.083	4.77
671.114	-6.23
671.146	2.77
671.177	11.77
671.208	-0.23
671.24	-12.23
671.271	2.77
671.302	8.77
671.333	2.77
671.365	17.77
671.396	8.77
671.427	3.77
671.459	11.77
671.49	25.77
671.521	2.77
671.553	8.77
671.584	23.77
671.615	-3.23
671.646	2.77
671.678	0.77
671.709	5.77
671.74	-25.23
671.771	-4.23
671.803	11.77
671.834	2.77
671.865	6.77
671.896	2.77
671.928	-1.23
671.959	1.77
671.99	3.77
672.021	16.77
672.053	5.77
672.084	3.77
672.115	-5.23
672.146	4.77
672.178	-1.23
672.209	10.77
672.24	4.77
672.271	21.77
672.303	7.77
672.334	12.77
672.365	-10.23
672.396	4.77
672.427	4.77
672.459	8.77
672.49	23.77
672.521	-2.23
672.552	13.77
672.583	12.77
672.615	6.77
672.646	10.77
672.677	9.77
672.708	-8.23
672.739	13.77
672.77	16.77
672.802	1.77
672.833	-2.23
672.864	11.77
672.895	-4.23
672.926	4.77
672.957	6.77
672.989	-8.23
673.02	-3.23
673.051	-2.23
673.082	31.77
673.113	2.77
673.144	7.77
673.175	8.77
673.206	4.77
673.238	8.77
673.269	7.77
673.3	-13.23
673.331	7.77
673.362	1.77
673.393	-0.23
673.424	8.77
673.455	7.77
673.487	10.77
673.518	8.77
673.549	9.77
673.58	3.77
673.611	-1.23
673.642	12.77
673.673	-2.23
673.704	14.77
673.735	18.77
673.766	7.77
673.797	8.77
673.828	4.77
673.86	-5.23
673.891	-12.23
673.922	-10.23
673.953	-11.23
673.984	-6.23
674.015	5.77
674.046	4.77
674.077	11.77
674.108	-1.23
674.139	1.77
674.17	14.77
674.201	8.77
674.232	-4.23
674.263	-0.23
674.294	-1.23
674.325	-10.23
674.356	5.77
674.387	21.77
674.418	3.77
674.449	-1.23
674.48	-2.23
674.511	-0.23
674.542	0.77
674.573	-5.23
674.604	0.77
674.635	-1.23
674.666	14.77
674.697	7.77
674.728	2.77
674.759	17.77
674.79	-8.23
674.821	9.77
674.852	31.77
674.883	-7.23
674.914	-2.23
674.945	-3.23
674.976	6.77
675.007	3.77
675.038	-7.23
675.069	-2.23
675.1	4.77
675.131	7.77
675.162	6.77
675.193	-3.23
675.224	-2.23
675.254	20.77
675.285	16.77
675.316	18.77
675.347	15.77
675.378	12.77
675.409	-6.23
675.44	15.77
675.471	2.77
675.502	-3.23
675.533	-0.23
675.564	3.77
675.595	5.77
675.625	28.77
675.656	13.77
675.687	9.77
675.718	-16.23
675.749	10.77
675.78	-3.23
675.811	-1.23
675.842	17.77
675.873	-0.23
675.903	-11.23
675.934	9.77
675.965	0.77
675.996	5.77
676.027	1.77
676.058	0.77
676.089	-22.23
676.119	-7.23
676.15	2.77
676.181	3.77
676.212	4.77
676.243	17.77
676.274	7.77
676.304	13.77
676.335	-10.23
676.366	15.77
676.397	1.77
676.428	-21.23
676.459	3.77
676.489	14.77
676.52	4.77
676.551	9.77
676.582	16.77
676.613	7.77
676.643	-4.23
676.674	1.77
676.705	9.77
676.736	10.77
676.767	10.77
676.797	37.77
676.828	32.77
676.859	-2.23
676.89	17.77
676.92	10.77
676.951	16.77
676.982	13.77
677.013	14.77
677.044	18.77
677.074	2.77
677.105	-16.23
677.136	13.77
677.167	-4.23
677.197	12.77
677.228	-3.23
677.259	1.77
677.289	3.77
677.32	-10.23
677.351	-4.23
677.382	-1.23
677.412	3.77
677.443	6.77
677.474	-0.23
677.505	-12.23
677.535	8.77
677.566	-6.23
677.597	-3.23
677.627	6.77
677.658	3.77
677.689	1.77
677.72	-0.23
677.75	10.77
677.781	-3.23
677.812	5.77
677.842	24.77
677.873	24.77
677.904	4.77
677.934	-8.23
677.965	-6.23
677.996	-10.23
678.026	8.77
678.057	-0.23
678.088	2.77
678.118	4.77
678.149	-5.23
678.18	11.77
678.21	-6.23
678.241	-0.23
678.272	3.77
678.302	3.77
678.333	13.77
678.363	9.77
678.394	17.77
678.425	8.77
678.455	18.77
678.486	5.77
678.517	18.77
678.547	11.77
678.578	-3.23
678.608	-17.23
678.639	4.77
678.67	0.77
678.7	4.77
678.731	8.77
678.761	14.77
678.792	10.77
678.823	9.77
678.853	-4.23
678.884	-10.23
678.914	-8.23
678.945	-2.23
678.975	7.77
679.006	15.77
679.037	1.77
679.067	17.77
679.098	7.77
679.128	7.77
679.159	9.77
679.189	17.77
679.22	-10.23
679.25	10.77
679.281	5.77
679.312	3.77
679.342	5.77
679.373	50.77
679.403	5.77
679.434	10.77
679.464	-5.23
679.495	16.77
679.525	9.77
679.556	-4.23
679.586	9.77
679.617	9.77
679.647	7.77
679.678	-4.23
679.708	16.77
679.739	18.77
679.769	7.77
679.8	12.77
679.83	-0.23
679.861	12.77
679.891	14.77
679.922	-19.23
679.952	2.77
679.983	13.77
680.013	25.77
680.044	3.77
680.074	13.77
680.105	17.77
680.135	6.77
680.165	12.77
680.196	6.77
680.226	9.77
680.257	6.77
680.287	1.77
680.318	2.77
680.348	-11.23
680.379	11.77
680.409	-5.23
680.439	8.77
680.47	1.77
680.5	9.77
680.531	1.77
680.561	11.77
680.592	8.77
680.622	25.77
680.652	7.77
680.683	10.77
680.713	-6.23
680.744	-3.23
680.774	-2.23
680.804	16.77
680.835	-2.23
680.865	-1.23
680.896	12.77
680.926	26.77
680.956	18.77
680.987	3.77
681.017	7.77
681.047	1.77
681.078	-6.23
681.108	7.77
681.139	0.77
681.169	-6.23
681.199	5.77
681.23	4.77
681.26	17.77
681.29	10.77
681.321	-3.23
681.351	13.77
681.381	3.77
681.412	16.77
681.442	12.77
681.472	23.77
681.503	28.77
681.533	10.77
681.563	-2.23
681.594	-0.23
681.624	13.77
681.654	-3.23
681.685	13.77
681.715	8.77
681.745	7.77
681.775	8.77
681.806	5.77
681.836	-0.23
681.866	-7.23
681.897	-4.23
681.927	1.77
681.957	-2.23
681.987	5.77
682.018	1.77
682.048	14.77
682.078	2.77
682.109	22.77
682.139	11.77
682.169	4.77
682.199	11.77
682.23	-11.23
682.26	-1.23
682.29	2.77
682.32	7.77
682.351	-2.23
682.381	9.77
682.411	7.77
682.441	5.77
682.472	-0.23
682.502	9.77
682.532	0.77
682.562	3.77
682.592	25.77
682.623	9.77
682.653	5.77
682.683	-5.23
682.713	5.77
682.743	4.77
682.774	-7.23
682.804	0.77
682.834	21.77
682.864	1.77
682.894	4.77
682.925	2.77
682.955	6.77
682.985	18.77
683.015	12.77
683.045	17.77
683.076	1.77
683.106	8.77
683.136	2.77
683.166	-0.23
683.196	8.77
683.226	8.77
683.257	14.77
683.287	-0.23
683.317	38.77
683.347	8.77
683.377	6.77
683.407	8.77
683.437	16.77
683.468	20.77
683.498	-5.23
683.528	16.77
683.558	9.77
683.588	1.77
683.618	1.77
683.648	-1.23
683.678	-3.23
683.708	20.77
683.739	17.77
683.769	11.77
683.799	0.77
683.829	11.77
683.859	8.77
683.889	12.77
683.919	-1.23
683.949	15.77
683.979	9.77
684.009	-5.23
684.039	0.77
684.07	7.77
684.1	28.77
684.13	18.77
684.16	18.77
684.19	10.77
684.22	6.77
684.25	4.77
684.28	-8.23
684.31	30.77
684.34	-1.23
684.37	15.77
684.4	-7.23
684.43	5.77
684.46	-1.23
684.49	12.77
684.52	-0.23
684.55	25.77
684.58	8.77
684.61	-7.23
684.64	25.77
684.67	21.77
684.7	12.77
684.73	9.77
684.76	0.77
684.79	26.77
684.82	4.77
684.85	-1.23
684.88	15.77
684.91	-1.23
684.94	-3.23
684.97	-5.23
685	11.77
685.03	-6.23
685.06	13.77
685.09	4.77
685.12	22.77
685.15	-14.23
685.18	12.77
685.21	-0.23
685.24	13.77
685.27	10.77
685.3	13.77
685.33	13.77
685.36	-5.23
685.39	16.77
685.42	3.77
685.45	-1.23
685.48	0.77
685.51	3.77
685.54	14.77
685.569	1.77
685.599	4.77
685.629	4.77
685.659	-2.23
685.689	-5.23
685.719	7.77
685.749	7.77
685.779	13.77
685.809	16.77
685.839	10.77
685.869	15.77
685.898	20.77
685.928	12.77
685.958	7.77
685.988	9.77
686.018	0.77
686.048	13.77
686.078	-2.23
686.108	15.77
686.137	23.77
686.167	9.77
686.197	-5.23
686.227	-10.23
686.257	29.77
686.287	17.77
686.317	7.77
686.346	-16.23
686.376	-11.23
686.406	3.77
686.436	16.77
686.466	0.77
686.496	8.77
686.525	18.77
686.555	11.77
686.585	28.77
686.615	39.77
686.645	23.77
686.675	14.77
686.704	4.77
686.734	28.77
686.764	2.77
686.794	15.77
686.824	-0.23
686.853	27.77
686.883	11.77
686.913	23.77
686.943	2.77
686.973	9.77
687.002	0.77
687.032	5.77
687.062	6.77
687.092	29.77
687.121	1.77
687.151	10.77
687.181	11.77
687.211	13.77
687.24	22.77
687.27	19.77
687.3	12.77
687.33	2.77
687.359	-17.23
687.389	0.77
687.419	7.77
687.449	5.77
687.478	15.77
687.508	9.77
687.538	10.77
687.568	12.77
687.597	8.77
687.627	11.77
687.657	-10.23
687.686	6.77
687.716	31.77
687.746	-2.23
687.776	3.77
687.805	3.77
687.835	6.77
687.865	21.77
687.894	18.77
687.924	4.77
687.954	9.77
687.983	24.77
688.013	28.77
688.043	11.77
688.072	-11.23
688.102	0.77
688.132	15.77
688.161	7.77
688.191	-10.23
688.221	28.77
688.25	3.77
688.28	4.77
688.31	2.77
688.339	16.77
688.369	-2.23
688.399	-0.23
688.428	5.77
688.458	-0.23
688.488	-9.23
688.517	27.77
688.547	3.77
688.576	22.77
688.606	22.77
688.636	-8.23
688.665	7.77
688.695	0.77
688.725	12.77
688.754	13.77
688.784	14.77
688.813	29.77
688.843	5.77
688.873	2.77
688.902	11.77
688.932	-1.23
688.961	14.77
688.991	15.77
689.02	11.77
689.05	-3.23
689.08	21.77
689.109	1.77
689.139	9.77
689.168	12.77
689.198	6.77
689.227	3.77
689.257	-1.23
689.287	12.77
689.316	7.77
689.346	-9.23
689.375	-2.23
689.405	3.77
689.434	-2.23
689.464	0.77
689.493	13.77
689.523	3.77
689.552	7.77
689.582	0.77
689.611	-10.23
689.641	11.77
689.67	10.77
689.7	14.77
689.73	16.77
689.759	9.77
689.789	13.77
689.818	4.77
689.848	-24.23
689.877	14.77
689.906	-2.23
689.936	-1.23
689.965	1.77
689.995	16.77
690.024	27.77
690.054	18.77
690.083	0.77
690.113	8.77
690.142	12.77
690.172	14.77
690.201	16.77
690.231	-6.23
690.26	28.77
690.29	7.77
690.319	25.77
690.348	17.77
690.378	-4.23
690.407	4.77
690.437	13.77
690.466	-4.23
690.496	-2.23
690.525	14.77
690.555	-3.23
690.584	-3.23
690.613	7.77
690.643	-3.23
690.672	14.77
690.702	13.77
690.731	1.77
690.76	-0.23
690.79	-9.23
690.819	-2.23
690.849	7.77
690.878	1.77
690.907	5.77
690.937	12.77
690.966	8.77
690.996	9.77
691.025	7.77
691.054	-6.23
691.084	-4.23
691.113	-0.23
691.142	8.77
691.172	20.77
691.201	29.77
691.23	11.77
691.26	38.77
691.289	2.77
691.319	-3.23
691.348	5.77
691.377	20.77
691.407	15.77
691.436	3.77
691.465	2.77
691.495	-1.23
691.524	7.77
691.553	0.77
691.583	-23.23
691.612	11.77
691.641	11.77
691.67	8.77
691.7	1.77
691.729	-0.23
691.758	9.77
691.788	8.77
691.817	5.77
691.846	8.77
691.876	2.77
691.905	4.77
691.934	8.77
691.963	7.77
691.993	12.77
692.022	3.77
692.051	-11.23
692.081	12.77
692.11	21.77
692.139	-1.23
692.168	16.77
692.198	27.77
692.227	7.77
692.256	14.77
692.285	8.77
692.315	5.77
692.344	2.77
692.373	11.77
692.402	2.77
692.432	3.77
692.461	2.77
692.49	8.77
692.519	16.77
692.548	18.77
692.578	23.77
692.607	-5.23
692.636	-14.23
692.665	13.77
692.694	-9.23
692.724	-1.23
692.753	8.77
692.782	18.77
692.811	2.77
692.84	-0.23
692.87	-7.23
692.899	1.77
692.928	10.77
692.957	14.77
692.986	18.77
693.016	0.77
693.045	4.77
693.074	-4.23
693.103	5.77
693.132	16.77
693.161	7.77
693.191	-6.23
693.22	-12.23
693.249	8.77
693.278	17.77
693.307	21.77
693.336	-1.23
693.365	-9.23
693.395	11.77
693.424	20.77
693.453	27.77
693.482	0.77
693.511	21.77
693.54	4.77
693.569	14.77
693.598	9.77
693.628	23.77
693.657	29.77
693.686	21.77
693.715	16.77
693.744	16.77
693.773	7.77
693.802	12.77
693.831	-9.23
693.86	14.77
693.889	4.77
693.919	1.77
693.948	5.77
693.977	-7.23
694.006	-9.23
694.035	3.77
694.064	6.77
694.093	14.77
694.122	13.77
694.151	4.77
694.18	-6.23
694.209	9.77
694.238	-2.23
694.267	23.77
694.296	5.77
694.325	1.77
694.354	10.77
694.383	9.77
694.412	10.77
694.441	7.77
694.471	-2.23
694.5	-6.23
694.529	13.77
694.558	21.77
694.587	12.77
694.616	4.77
694.645	-2.23
694.674	21.77
694.703	18.77
694.732	1.77
694.761	6.77
694.79	8.77
694.819	1.77
694.848	1.77
694.877	29.77
694.906	19.77
694.935	12.77
694.963	25.77
694.992	16.77
695.021	24.77
695.05	14.77
695.079	12.77
695.108	7.77
695.137	24.77
695.166	7.77
695.195	6.77
695.224	21.77
695.253	5.77
695.282	11.77
695.311	25.77
695.34	13.77
695.369	20.77
695.398	11.77
695.427	27.77
695.456	19.77
695.485	23.77
695.513	21.77
695.542	16.77
695.571	12.77
695.6	31.77
695.629	1.77
695.658	17.77
695.687	5.77
695.716	2.77
695.745	28.77
695.774	0.77
695.802	-8.23
695.831	17.77
695.86	4.77
695.889	16.77
695.918	9.77
695.947	-8.23
695.976	0.77
696.005	4.77
696.033	-5.23
696.062	25.77
696.091	14.77
696.12	7.77
696.149	25.77
696.178	16.77
696.207	8.77
696.235	-2.23
696.264	6.77
696.293	8.77
696.322	7.77
696.351	13.77
696.38	5.77
696.408	12.77
696.437	1.77
696.466	-3.23
696.495	3.77
696.524	19.77
696.553	11.77
696.581	6.77
696.61	-7.23
696.639	13.77
696.668	13.77
696.697	-1.23
696.725	11.77
696.754	4.77
696.783	-10.23
696.812	11.77
696.84	11.77
696.869	0.77
696.898	12.77
696.927	13.77
696.956	7.77
696.984	7.77
697.013	4.77
697.042	7.77
697.071	16.77
697.099	5.77
697.128	14.77
697.157	-2.23
697.186	10.77
697.214	3.77
697.243	2.77
697.272	12.77
697.301	2.77
697.329	3.77
697.358	12.77
697.387	30.77
697.415	22.77
697.444	9.77
697.473	-1.23
697.502	-12.23
697.53	9.77
697.559	1.77
697.588	3.77
697.616	-0.23
697.645	-4.23
697.674	14.77
697.703	2.77
697.731	23.77
697.76	11.77
697.789	-3.23
697.817	-0.23
697.846	2.77
697.875	-7.23
697.903	18.77
697.932	7.77
697.961	6.77
697.989	9.77
698.018	6.77
698.047	18.77
698.075	9.77
698.104	6.77
698.133	9.77
698.161	5.77
698.19	12.77
698.218	1.77
698.247	4.77
698.276	1.77
698.304	13.77
698.333	20.77
698.362	3.77
698.39	1.77
698.419	23.77
698.447	-1.23
698.476	-3.23
698.505	-1.23
698.533	13.77
698.562	10.77
698.591	-2.23
698.619	0.77
698.648	-3.23
698.676	29.77
698.705	-1.23
698.733	6.77
698.762	2.77
698.791	8.77
698.819	16.77
698.848	10.77
698.876	29.77
698.905	0.77
698.933	4.77
698.962	12.77
698.991	5.77
699.019	21.77
699.048	10.77
699.076	-0.23
699.105	-2.23
699.133	-7.23
699.162	1.77
699.19	7.77
699.219	8.77
699.248	0.77
699.276	9.77
699.305	7.77
699.333	11.77
699.362	9.77
699.39	9.77
699.419	-2.23
699.447	7.77
699.476	15.77
699.504	-3.23
699.533	11.77
699.561	-11.23
699.59	7.77
699.618	1.77
699.647	13.77
699.675	17.77
699.704	8.77
699.732	1.77
699.761	16.77
699.789	5.77
699.818	2.77
699.846	1.77
699.874	-0.23
699.903	4.77
699.931	6.77
699.96	-3.23
699.988	3.77
700.017	1.77
700.045	0.77
700.074	5.77
700.102	9.77
700.13	2.77
700.159	7.77
700.187	8.77
700.216	3.77
700.244	3.77
700.273	5.77
700.301	9.77
700.329	10.77
700.358	9.77
700.386	9.77
700.415	3.77
700.443	10.77
700.472	-2.23
700.5	-8.23
700.528	23.77
700.557	9.77
700.585	-4.23
700.614	-5.23
700.642	33.77
700.67	29.77
700.699	7.77
700.727	5.77
700.755	5.77
700.784	3.77
700.812	-5.23
700.841	6.77
700.869	2.77
700.897	1.77
700.926	9.77
700.954	22.77
700.982	13.77
701.011	0.77
701.039	1.77
701.067	-0.23
701.096	17.77
701.124	15.77
701.152	3.77
701.181	-6.23
701.209	-8.23
701.237	7.77
701.266	-1.23
701.294	-5.23
701.322	16.77
701.351	25.77
701.379	7.77
701.407	3.77
701.435	10.77
701.464	11.77
701.492	15.77
701.52	13.77
701.549	15.77
701.577	-3.23
701.605	-11.23
701.634	6.77
701.662	19.77
701.69	0.77
701.718	2.77
701.747	8.77
701.775	19.77
701.803	5.77
701.831	2.77
701.86	-1.23
701.888	13.77
701.916	1.77
701.944	-5.23
701.973	-7.23
702.001	-1.23
702.029	6.77
702.057	2.77
702.086	-3.23
702.114	-2.23
702.142	-8.23
702.17	2.77
702.199	8.77
702.227	-2.23
702.255	-1.23
702.283	-1.23
702.311	9.77
702.34	11.77
702.368	-0.23
702.396	5.77
702.424	-0.23
702.452	6.77
702.481	0.77
702.509	12.77
702.537	8.77
702.565	8.77
702.593	-7.23
702.621	3.77
702.65	11.77
702.678	-0.23
702.706	11.77
702.734	-0.23
702.762	11.77
702.79	6.77
702.819	8.77
702.847	18.77
702.875	19.77
702.903	0.77
702.931	-15.23
702.959	-5.23
702.988	17.77
703.016	-10.23
703.044	5.77
703.072	2.77
703.1	-4.23
703.128	-6.23
703.156	5.77
703.184	0.77
703.212	0.77
703.241	-9.23
703.269	-9.23
703.297	16.77
703.325	-9.23
703.353	0.77
703.381	2.77
703.409	-3.23
703.437	-5.23
703.465	10.77
703.493	-3.23
703.522	15.77
703.55	7.77
703.578	2.77
703.606	7.77
703.634	-12.23
703.662	-8.23
703.69	7.77
703.718	12.77
703.746	27.77
703.774	23.77
703.802	14.77
703.83	9.77
703.858	3.77
703.886	2.77
703.914	5.77
703.942	16.77
703.97	-7.23
703.998	-4.23
704.027	8.77
704.055	9.77
704.083	6.77
704.111	-2.23
704.139	3.77
704.167	7.77
704.195	16.77
704.223	5.77
704.251	-7.23
704.279	13.77
704.307	11.77
704.335	0.77
704.363	4.77
704.391	-4.23
704.419	4.77
704.447	-4.23
704.475	-2.23
704.503	2.77
704.531	5.77
704.558	2.77
704.586	6.77
704.614	-3.23
704.642	3.77
704.67	-17.23
704.698	-7.23
704.726	1.77
704.754	-4.23
704.782	-0.23
704.81	-1.23
704.838	9.77
704.866	4.77
704.894	-10.23
704.922	-1.23
704.95	12.77
704.978	18.77
705.006	1.77
705.034	25.77
705.061	6.77
705.089	19.77
705.117	-8.23
705.145	-4.23
705.173	12.77
705.201	17.77
705.229	16.77
705.257	13.77
705.285	19.77
705.313	10.77
705.34	8.77
705.368	-3.23
705.396	16.77
705.424	14.77
705.452	14.77
705.48	13.77
705.508	1.77
705.536	-1.23
705.563	3.77
705.591	14.77
705.619	3.77
705.647	-3.23
705.675	15.77
705.703	11.77
705.731	-2.23
705.758	13.77
705.786	9.77
705.814	23.77
705.842	8.77
705.87	13.77
705.898	14.77
705.925	2.77
705.953	11.77
705.981	-9.23
706.009	0.77
706.037	4.77
706.065	3.77
706.092	8.77
706.12	8.77
706.148	-5.23
706.176	-9.23
706.204	11.77
706.231	11.77
706.259	-3.23
706.287	-10.23
706.315	7.77
706.342	8.77
706.37	26.77
706.398	-3.23
706.426	0.77
706.454	8.77
706.481	32.77
706.509	15.77
706.537	11.77
706.565	-6.23
706.592	14.77
706.62	20.77
706.648	10.77
706.676	0.77
706.703	-2.23
706.731	6.77
706.759	-4.23
706.787	2.77
706.814	-3.23
706.842	3.77
706.87	4.77
706.897	3.77
706.925	-2.23
706.953	9.77
706.981	16.77
707.008	23.77
707.036	11.77
707.064	-8.23
707.091	-15.23
707.119	7.77
707.147	13.77
707.174	8.77
707.202	18.77
707.23	12.77
707.258	7.77
707.285	-16.23
707.313	0.77
707.341	0.77
707.368	4.77
707.396	4.77
707.424	17.77
707.451	9.77
707.479	7.77
707.507	1.77
707.534	3.77
707.562	5.77
707.59	2.77
707.617	-5.23
707.645	3.77
707.672	-3.23
707.7	11.77
707.728	0.77
707.755	6.77
707.783	6.77
707.811	17.77
707.838	15.77
707.866	-3.23
707.893	19.77
707.921	9.77
707.949	-7.23
707.976	6.77
708.004	13.77
708.031	-7.23
708.059	-8.23
708.087	8.77
708.114	-0.23
708.142	-7.23
708.169	-2.23
708.197	-3.23
708.225	5.77
708.252	-4.23
708.28	13.77
708.307	4.77
708.335	-0.23
708.362	0.77
708.39	7.77
708.418	1.77
708.445	-15.23
708.473	-9.23
708.5	-1.23
708.528	11.77
708.555	-11.23
708.583	16.77
708.61	11.77
708.638	7.77
708.665	2.77
708.693	4.77
708.72	-1.23
708.748	2.77
708.776	1.77
708.803	11.77
708.831	22.77
708.858	19.77
708.886	-4.23
708.913	-1.23
708.941	5.77
708.968	21.77
708.996	0.77
709.023	16.77
709.051	13.77
709.078	-16.23
709.105	-3.23
709.133	2.77
709.16	7.77
709.188	25.77
709.215	14.77
709.243	4.77
709.27	3.77
709.298	6.77
709.325	-13.23
709.353	-6.23
709.38	-11.23
709.408	8.77
709.435	20.77
709.462	3.77
709.49	-5.23
709.517	-3.23
709.545	-1.23
709.572	-0.23
709.6	-1.23
709.627	0.77
709.655	3.77
709.682	0.77
709.709	-2.23
709.737	-2.23
709.764	-16.23
709.792	19.77
709.819	15.77
709.846	-1.23
709.874	6.77
709.901	12.77
709.929	26.77
709.956	1.77
709.983	-24.23
710.011	2.77
710.038	4.77
710.066	24.77
710.093	21.77
710.12	1.77
710.148	-1.23
710.175	-10.23
710.202	-5.23
710.23	-0.23
710.257	7.77
710.284	9.77
710.312	3.77
710.339	15.77
710.366	1.77
710.394	11.77
710.421	18.77
710.448	21.77
710.476	-10.23
710.503	4.77
710.53	17.77
710.558	7.77
710.585	22.77
710.612	11.77
710.64	6.77
710.667	3.77
710.694	-6.23
710.722	15.77
710.749	3.77
710.776	9.77
710.804	22.77
710.831	7.77
710.858	-0.23
710.885	-2.23
710.913	4.77
710.94	29.77
710.967	13.77
710.995	16.77
711.022	4.77
711.049	9.77
711.076	-4.23
711.104	8.77
711.131	-4.23
711.158	9.77
711.185	23.77
711.213	6.77
711.24	5.77
711.267	-10.23
711.294	10.77
711.322	9.77
711.349	3.77
711.376	-4.23
711.403	19.77
711.431	9.77
711.458	12.77
711.485	-7.23
711.512	6.77
711.54	14.77
711.567	-1.23
711.594	-4.23
711.621	3.77
711.648	-3.23
711.676	24.77
711.703	8.77
711.73	-4.23
711.757	8.77
711.784	7.77
711.812	1.77
711.839	9.77
711.866	6.77
711.893	-9.23
711.92	13.77
711.947	8.77
711.975	11.77
712.002	5.77
712.029	11.77
712.056	6.77
712.083	20.77
712.11	-4.23
712.138	22.77
712.165	15.77
712.192	13.77
712.219	5.77
712.246	-0.23
712.273	4.77
712.3	-3.23
712.328	-8.23
712.355	14.77
712.382	10.77
712.409	15.77
712.436	6.77
712.463	8.77
712.49	20.77
712.517	17.77
712.544	-2.23
712.572	7.77
712.599	15.77
712.626	9.77
712.653	-4.23
712.68	-8.23
712.707	15.77
712.734	9.77
712.761	3.77
712.788	6.77
712.815	15.77
712.842	25.77
712.87	4.77
712.897	-17.23
712.924	-11.23
712.951	6.77
712.978	16.77
713.005	15.77
713.032	13.77
713.059	0.77
713.086	-1.23
713.113	-0.23
713.14	-12.23
713.167	-6.23
713.194	22.77
713.221	3.77
713.248	14.77
713.275	-16.23
713.302	-11.23
713.329	8.77
713.356	5.77
713.383	11.77
713.41	20.77
713.437	7.77
713.464	5.77
713.491	21.77
713.518	1.77
713.545	-4.23
713.572	7.77
713.599	31.77
713.626	19.77
713.653	15.77
713.68	-2.23
713.707	3.77
713.734	17.77
713.761	0.77
713.788	-1.23
713.815	18.77
713.842	-3.23
713.869	0.77
713.896	6.77
713.923	13.77
713.95	9.77
713.977	2.77
714.004	1.77
714.031	0.77
714.058	6.77
714.085	12.77
714.112	10.77
714.139	5.77
714.165	12.77
714.192	11.77
714.219	9.77
714.246	12.77
714.273	5.77
714.3	9.77
714.327	9.77
714.354	3.77
714.381	1.77
714.408	-9.23
714.435	-2.23
714.461	10.77
714.488	10.77
714.515	13.77
714.542	4.77
714.569	-2.23
714.596	-2.23
714.623	0.77
714.65	8.77
714.677	-3.23
714.703	3.77
714.73	-6.23
714.757	21.77
714.784	18.77
714.811	3.77
714.838	-0.23
714.865	0.77
714.891	15.77
714.918	12.77
714.945	0.77
714.972	7.77
714.999	14.77
715.026	-2.23
715.052	17.77
715.079	-9.23
715.106	1.77
715.133	5.77
715.16	-24.23
715.187	5.77
715.213	20.77
715.24	-4.23
715.267	-4.23
715.294	0.77
715.321	7.77
715.347	0.77
715.374	-1.23
715.401	7.77
715.428	-10.23
715.455	9.77
715.481	-12.23
715.508	8.77
715.535	-4.23
715.562	24.77
715.588	11.77
715.615	14.77
715.642	-6.23
715.669	4.77
715.695	5.77
715.722	-0.23
715.749	9.77
715.776	26.77
715.802	11.77
715.829	16.77
715.856	-9.23
715.883	7.77
715.909	-0.23
715.936	0.77
715.963	1.77
715.99	-12.23
716.016	-4.23
716.043	2.77
716.07	-2.23
716.096	-1.23
716.123	-2.23
716.15	-0.23
716.177	-5.23
716.203	7.77
716.23	23.77
716.257	11.77
716.283	25.77
716.31	3.77
716.337	7.77
716.363	9.77
716.39	5.77
716.417	20.77
716.443	5.77
716.47	30.77
716.497	-0.23
716.523	22.77
716.55	17.77
716.577	11.77
716.603	12.77
716.63	-1.23
716.657	19.77
716.683	5.77
716.71	-1.23
716.737	-1.23
716.763	7.77
716.79	0.77
716.817	3.77
716.843	6.77
716.87	-2.23
716.897	14.77
716.923	24.77
716.95	-6.23
716.976	-14.23
717.003	-7.23
717.03	8.77
717.056	8.77
717.083	13.77
717.109	9.77
717.136	14.77
717.163	3.77
717.189	9.77
717.216	3.77
717.242	-5.23
717.269	0.77
717.296	7.77
717.322	4.77
717.349	18.77
717.375	27.77
717.402	3.77
717.428	3.77
717.455	12.77
717.481	12.77
717.508	14.77
717.535	-3.23
717.561	13.77
717.588	-2.23
717.614	7.77
717.641	-4.23
717.667	5.77
717.694	-6.23
717.72	15.77
717.747	6.77
717.773	13.77
717.8	7.77
717.826	17.77
717.853	11.77
717.88	23.77
717.906	16.77
717.933	18.77
717.959	7.77
717.986	3.77
718.012	2.77
718.039	19.77
718.065	4.77
718.092	4.77
718.118	8.77
718.144	1.77
718.171	27.77
718.197	27.77
718.224	16.77
718.25	3.77
718.277	13.77
718.303	-3.23
718.33	9.77
718.356	2.77
718.383	-8.23
718.409	6.77
718.436	-3.23
718.462	-1.23
718.489	6.77
718.515	4.77
718.541	31.77
718.568	10.77
718.594	0.77
718.621	3.77
718.647	1.77
718.674	16.77
718.7	21.77
718.726	-3.23
718.753	2.77
718.779	12.77
718.806	-7.23
718.832	7.77
718.858	17.77
718.885	3.77
718.911	1.77
718.938	22.77
718.964	-4.23
718.99	11.77
719.017	16.77
719.043	13.77
719.07	21.77
719.096	4.77
719.122	2.77
719.149	1.77
719.175	-15.23
719.201	0.77
719.228	4.77
719.254	3.77
719.281	8.77
719.307	27.77
719.333	-4.23
719.36	23.77
719.386	4.77
719.412	-8.23
719.439	-11.23
719.465	-0.23
719.491	-3.23
719.518	9.77
719.544	0.77
719.57	10.77
719.597	21.77
719.623	5.77
719.649	7.77
719.675	1.77
719.702	7.77
719.728	19.77
719.754	-7.23
719.781	1.77
719.807	4.77
719.833	3.77
719.86	6.77
719.886	-6.23
719.912	13.77
719.938	17.77
719.965	3.77
719.991	1.77
720.017	11.77
720.044	-0.23
720.07	15.77
720.096	5.77
720.122	-1.23
720.149	7.77
720.175	26.77
720.201	6.77
720.227	13.77
720.254	3.77
720.28	6.77
720.306	5.77
720.332	8.77
720.359	15.77
720.385	10.77
720.411	-5.23
720.437	20.77
720.463	3.77
720.49	4.77
720.516	-14.23
720.542	-21.23
720.568	-4.23
720.595	28.77
720.621	12.77
720.647	9.77
720.673	-11.23
720.699	-8.23
720.725	2.77
720.752	24.77
720.778	14.77
720.804	10.77
720.83	12.77
720.856	1.77
720.883	0.77
720.909	-0.23
720.935	0.77
720.961	0.77
720.987	13.77
721.013	15.77
721.04	0.77
721.066	-1.23
721.092	3.77
721.118	4.77
721.144	-6.23
721.17	4.77
721.196	15.77
721.223	-1.23
721.249	4.77
721.275	23.77
721.301	0.77
721.327	15.77
721.353	16.77
721.379	10.77
721.405	27.77
721.432	7.77
721.458	5.77
721.484	12.77
721.51	-8.23
721.536	0.77
721.562	13.77
721.588	-0.23
721.614	4.77
721.64	-9.23
721.666	6.77
721.693	3.77
721.719	-17.23
721.745	9.77
721.771	4.77
721.797	2.77
721.823	-0.23
721.849	4.77
721.875	1.77
721.901	9.77
721.927	4.77
721.953	8.77
721.979	16.77
722.005	15.77
722.031	4.77
722.057	18.77
722.083	4.77
722.109	20.77
722.135	8.77
722.161	1.77
722.187	-1.23
722.214	6.77
722.24	7.77
722.266	5.77
722.292	11.77
722.318	3.77
722.344	8.77
722.37	3.77
722.396	26.77
722.422	12.77
722.448	4.77
722.474	7.77
722.5	30.77
722.526	25.77
722.552	16.77
722.578	-3.23
722.603	4.77
722.629	-4.23
722.655	-0.23
722.681	-1.23
722.707	-4.23
722.733	5.77
722.759	-4.23
722.785	15.77
722.811	-6.23
722.837	10.77
722.863	15.77
722.889	6.77
722.915	-8.23
722.941	5.77
722.967	8.77
722.993	19.77
723.019	18.77
723.045	7.77
723.071	1.77
723.097	-10.23
723.122	3.77
723.148	1.77
723.174	0.77
723.2	19.77
723.226	7.77
723.252	4.77
723.278	1.77
723.304	-0.23
723.33	7.77
723.356	-4.23
723.381	-15.23
723.407	-8.23
723.433	4.77
723.459	20.77
723.485	0.77
723.511	9.77
723.537	0.77
723.563	-6.23
723.588	-4.23
723.614	-1.23
723.64	-2.23
723.666	9.77
723.692	-3.23
723.718	-1.23
723.744	7.77
723.769	-3.23
723.795	0.77
723.821	6.77
723.847	0.77
723.873	10.77
723.899	10.77
723.924	6.77
723.95	2.77
723.976	8.77
724.002	15.77
724.028	1.77
724.053	6.77
724.079	17.77
724.105	15.77
724.131	-7.23
724.157	17.77
724.182	13.77
724.208	7.77
724.234	4.77
724.26	0.77
724.286	14.77
724.311	14.77
724.337	-0.23
724.363	-8.23
724.389	6.77
724.415	3.77
724.44	20.77
724.466	11.77
724.492	12.77
724.518	12.77
724.543	5.77
724.569	-0.23
724.595	3.77
724.621	11.77
724.646	-2.23
724.672	-2.23
724.698	-7.23
724.723	12.77
724.749	-5.23
724.775	13.77
724.801	14.77
724.826	1.77
724.852	1.77
724.878	3.77
724.904	-3.23
724.929	17.77
724.955	0.77
724.981	17.77
725.006	12.77
725.032	0.77
725.058	11.77
725.083	-2.23
725.109	-7.23
725.135	4.77
725.161	7.77
725.186	-0.23
725.212	16.77
725.238	21.77
725.263	-1.23
725.289	-0.23
725.315	-8.23
725.34	3.77
725.366	-4.23
725.392	-6.23
725.417	-7.23
725.443	-10.23
725.468	13.77
725.494	30.77
725.52	31.77
725.545	12.77
725.571	9.77
725.597	11.77
725.622	14.77
725.648	2.77
725.674	-4.23
725.699	3.77
725.725	3.77
725.75	33.77
725.776	7.77
725.802	9.77
725.827	4.77
725.853	5.77
725.878	11.77
725.904	0.77
725.93	4.77
725.955	-4.23
725.981	7.77
726.006	2.77
726.032	18.77
726.057	-2.23
726.083	7.77
726.109	-0.23
726.134	15.77
726.16	0.77
726.185	2.77
726.211	1.77
726.236	14.77
726.262	-7.23
726.288	9.77
726.313	24.77
726.339	2.77
726.364	4.77
726.39	5.77
726.415	-11.23
726.441	-2.23
726.466	-7.23
726.492	-7.23
726.517	15.77
726.543	-3.23
726.568	-2.23
726.594	3.77
726.619	6.77
726.645	15.77
726.67	19.77
726.696	11.77
726.721	7.77
726.747	-18.23
726.772	-5.23
726.798	-6.23
726.823	0.77
726.849	8.77
726.874	9.77
726.9	14.77
726.925	15.77
726.951	9.77
726.976	0.77
727.002	0.77
727.027	-0.23
727.053	8.77
727.078	2.77
727.104	6.77
727.129	-14.23
727.155	1.77
727.18	18.77
727.205	3.77
727.231	-2.23
727.256	5.77
727.282	4.77
727.307	24.77
727.333	7.77
727.358	-0.23
727.383	-16.23
727.409	3.77
727.434	14.77
727.46	13.77
727.485	3.77
727.511	13.77
727.536	-16.23
727.561	11.77
727.587	-2.23
727.612	0.77
727.637	5.77
727.663	-9.23
727.688	12.77
727.714	3.77
727.739	-15.23
727.764	8.77
727.79	3.77
727.815	17.77
727.841	15.77
727.866	6.77
727.891	1.77
727.917	-16.23
727.942	-9.23
727.967	-1.23
727.993	-10.23
728.018	-8.23
728.043	3.77
728.069	12.77
728.094	8.77
728.119	7.77
728.145	20.77
728.17	35.77
728.195	11.77
728.221	23.77
728.246	-3.23
728.271	-9.23
728.297	-6.23
728.322	1.77
728.347	2.77
728.373	3.77
728.398	9.77
728.423	2.77
728.448	11.77
728.474	17.77
728.499	8.77
728.524	7.77
728.55	-4.23
728.575	0.77
728.6	11.77
728.625	-7.23
728.651	-9.23
728.676	-0.23
728.701	-2.23
728.727	5.77
728.752	5.77
728.777	-0.23
728.802	9.77
728.828	16.77
728.853	7.77
728.878	1.77
728.903	13.77
728.929	9.77
728.954	6.77
728.979	3.77
729.004	-3.23
729.03	5.77
729.055	18.77
729.08	-11.23
729.105	-8.23
729.13	24.77
729.156	9.77
729.181	-5.23
729.206	-7.23
729.231	-12.23
729.256	-1.23
729.282	4.77
729.307	-11.23
729.332	0.77
729.357	0.77
729.382	-1.23
729.408	3.77
729.433	-3.23
729.458	0.77
729.483	8.77
729.508	16.77
729.533	12.77
729.559	-2.23
729.584	-6.23
729.609	0.77
729.634	2.77
729.659	4.77
729.684	-2.23
729.71	9.77
729.735	-6.23
729.76	-5.23
729.785	-2.23
729.81	17.77
729.835	3.77
729.86	-15.23
729.886	9.77
729.911	4.77
729.936	12.77
729.961	9.77
729.986	-1.23
730.011	17.77
730.036	4.77
730.061	3.77
730.086	23.77
730.112	4.77
730.137	12.77
730.162	-2.23
730.187	-0.23
730.212	13.77
730.237	15.77
730.262	3.77
730.287	-2.23
730.312	6.77
730.337	-0.23
730.362	16.77
730.387	-8.23
730.413	-1.23
730.438	6.77
730.463	4.77
730.488	0.77
730.513	10.77
730.538	13.77
730.563	13.77
730.588	8.77
730.613	5.77
730.638	2.77
730.663	7.77
730.688	20.77
730.713	16.77
730.738	4.77
730.763	10.77
730.788	-7.23
730.813	8.77
730.838	5.77
730.863	21.77
730.888	7.77
730.913	-2.23
730.938	-14.23
730.963	2.77
730.988	6.77
731.013	16.77
731.038	2.77
731.063	0.77
731.088	1.77
731.113	-10.23
731.138	4.77
731.163	10.77
731.188	4.77
731.213	-1.23
731.238	9.77
731.263	17.77
731.288	7.77
731.313	11.77
731.338	-10.23
731.363	-1.23
731.388	5.77
731.413	9.77
731.438	15.77
731.463	-2.23
731.487	14.77
731.512	10.77
731.537	0.77
731.562	-9.23
731.587	8.77
731.612	13.77
731.637	5.77
731.662	-17.23
731.687	0.77
731.712	-17.23
731.737	-4.23
731.762	-4.23
731.786	8.77
731.811	4.77
731.836	10.77
731.861	19.77
731.886	-12.23
731.911	-0.23
731.936	5.77
731.961	-6.23
731.986	-6.23
732.01	6.77
732.035	-7.23
732.06	19.77
732.085	15.77
732.11	19.77
732.135	3.77
732.16	8.77
732.184	1.77
732.209	-1.23
732.234	-5.23
732.259	1.77
732.284	14.77
732.309	9.77
732.334	-0.23
732.358	-12.23
732.383	-0.23
732.408	0.77
732.433	7.77
732.458	9.77
732.482	18.77
732.507	3.77
732.532	16.77
732.557	14.77
732.582	12.77
732.607	4.77
732.631	13.77
732.656	-4.23
732.681	-2.23
732.706	17.77
732.73	20.77
732.755	21.77
732.78	5.77
732.805	14.77
732.83	-2.23
732.854	16.77
732.879	22.77
732.904	-3.23
732.929	7.77
732.953	26.77
732.978	9.77
733.003	-4.23
733.028	-2.23
733.052	8.77
733.077	-5.23
733.102	0.77
733.127	-3.23
733.151	10.77
733.176	21.77
733.201	1.77
733.226	-5.23
733.25	-0.23
733.275	12.77
733.3	17.77
733.324	26.77
733.349	10.77
733.374	19.77
733.399	-1.23
733.423	13.77
733.448	5.77
733.473	13.77
733.497	6.77
733.522	-23.23
733.547	0.77
733.571	10.77
733.596	-7.23
733.621	6.77
733.646	-2.23
733.67	-3.23
733.695	-8.23
733.72	1.77
733.744	13.77
733.769	-6.23
733.794	17.77
733.818	19.77
733.843	-1.23
733.867	-19.23
733.892	3.77
733.917	7.77
733.941	3.77
733.966	7.77
733.991	1.77
734.015	21.77
734.04	5.77
734.065	21.77
734.089	20.77
734.114	14.77
734.138	2.77
734.163	-3.23
734.188	19.77
734.212	33.77
734.237	13.77
734.261	4.77
734.286	15.77
734.311	1.77
734.335	0.77
734.36	0.77
734.384	1.77
734.409	3.77
734.434	-14.23
734.458	10.77
734.483	1.77
734.507	-7.23
734.532	-10.23
734.556	3.77
734.581	16.77
734.606	1.77
734.63	-3.23
734.655	1.77
734.679	21.77
734.704	-2.23
734.728	9.77
734.753	14.77
734.777	12.77
734.802	11.77
734.826	9.77
734.851	-8.23
734.876	16.77
734.9	11.77
734.925	16.77
734.949	16.77
734.974	5.77
734.998	3.77
735.023	-2.23
735.047	-6.23
735.072	15.77
735.096	11.77
735.121	10.77
735.145	6.77
735.17	-3.23
735.194	12.77
735.219	-7.23
735.243	4.77
735.268	13.77
735.292	1.77
735.317	-2.23
735.341	-5.23
735.365	-6.23
735.39	11.77
735.414	8.77
735.439	5.77
735.463	8.77
735.488	40.77
735.512	8.77
735.537	11.77
735.561	11.77
735.586	2.77
735.61	10.77
735.634	5.77
735.659	16.77
735.683	15.77
735.708	4.77
735.732	-0.23
735.757	15.77
735.781	21.77
735.805	9.77
735.83	-4.23
735.854	0.77
735.879	-0.23
735.903	22.77
735.927	2.77
735.952	1.77
735.976	4.77
736.001	4.77
736.025	-6.23
736.049	-0.23
736.074	-1.23
736.098	8.77
736.123	11.77
736.147	4.77
736.171	5.77
736.196	6.77
736.22	1.77
736.244	-1.23
736.269	9.77
736.293	14.77
736.317	6.77
736.342	-9.23
736.366	27.77
736.39	24.77
736.415	19.77
736.439	6.77
736.463	8.77
736.488	13.77
736.512	9.77
736.536	-6.23
736.561	35.77
736.585	-7.23
736.609	3.77
736.634	-8.23
736.658	13.77
736.682	-7.23
736.707	-20.23
736.731	2.77
736.755	-8.23
736.78	12.77
736.804	16.77
736.828	7.77
736.852	-2.23
736.877	-0.23
736.901	20.77
736.925	9.77
736.949	9.77
736.974	-4.23
736.998	-20.23
737.022	2.77
737.047	4.77
737.071	6.77
737.095	15.77
737.119	20.77
737.144	1.77
737.168	11.77
737.192	5.77
737.216	12.77
737.241	1.77
737.265	-2.23
737.289	-2.23
737.313	2.77
737.337	8.77
737.362	12.77
737.386	-2.23
737.41	1.77
737.434	14.77
737.459	11.77
737.483	6.77
737.507	19.77
737.531	20.77
737.555	10.77
737.58	11.77
737.604	-7.23
737.628	-12.23
737.652	12.77
737.676	2.77
737.701	12.77
737.725	4.77
737.749	8.77
737.773	16.77
737.797	0.77
737.821	1.77
737.846	6.77
737.87	33.77
737.894	5.77
737.918	19.77
737.942	4.77
737.966	23.77
737.99	17.77
738.015	16.77
738.039	-0.23
738.063	-0.23
738.087	15.77
738.111	-6.23
738.135	17.77
738.159	3.77
738.184	15.77
738.208	18.77
738.232	14.77
738.256	15.77
738.28	7.77
738.304	26.77
738.328	-4.23
738.352	15.77
738.376	6.77
738.4	21.77
738.425	3.77
738.449	-0.23
738.473	20.77
738.497	3.77
738.521	15.77
738.545	11.77
738.569	8.77
738.593	12.77
738.617	4.77
738.641	0.77
738.665	18.77
738.689	16.77
738.713	8.77
738.737	4.77
738.762	15.77
738.786	10.77
738.81	-16.23
738.834	15.77
738.858	1.77
738.882	8.77
738.906	-3.23
738.93	4.77
738.954	6.77
738.978	5.77
739.002	-5.23
739.026	4.77
739.05	20.77
739.074	7.77
739.098	26.77
739.122	15.77
739.146	12.77
739.17	20.77
739.194	-3.23
739.218	1.77
739.242	4.77
739.266	8.77
739.29	1.77
739.314	8.77
739.338	9.77
739.362	2.77
739.386	7.77
739.41	3.77
739.434	10.77
739.458	17.77
739.482	13.77
739.506	4.77
739.53	1.77
739.554	11.77
739.577	1.77
739.601	4.77
739.625	-1.23
739.649	1.77
739.673	-3.23
739.697	16.77
739.721	-2.23
739.745	8.77
739.769	13.77
739.793	21.77
739.817	14.77
739.841	15.77
739.865	11.77
739.889	-5.23
739.912	20.77
739.936	-6.23
739.96	16.77
739.984	19.77
740.008	15.77
740.032	3.77
740.056	14.77
740.08	1.77
740.104	-9.23
740.127	5.77
740.151	2.77
740.175	11.77
740.199	19.77
740.223	40.77
740.247	18.77
740.271	9.77
740.295	4.77
740.318	-22.23
740.342	3.77
740.366	-3.23
740.39	8.77
740.414	4.77
740.438	-5.23
740.461	17.77
740.485	25.77
740.509	1.77
740.533	8.77
740.557	-3.23
740.581	3.77
740.604	-11.23
740.628	1.77
740.652	17.77
740.676	4.77
740.7	5.77
740.723	4.77
740.747	-6.23
740.771	7.77
740.795	-16.23
740.819	8.77
740.842	-3.23
740.866	19.77
740.89	8.77
740.914	0.77
740.938	-9.23
740.961	14.77
740.985	12.77
741.009	-9.23
741.033	13.77
741.056	12.77
741.08	13.77
741.104	7.77
741.128	4.77
741.151	23.77
741.175	25.77
741.199	14.77
741.223	-7.23
741.246	-9.23
741.27	11.77
741.294	3.77
741.318	-1.23
741.341	-5.23
741.365	9.77
741.389	13.77
741.413	17.77
741.436	17.77
741.46	1.77
741.484	24.77
741.507	16.77
741.531	35.77
741.555	7.77
741.579	14.77
741.602	16.77
741.626	12.77
741.65	3.77
741.673	3.77
741.697	4.77
741.721	9.77
741.744	-1.23
741.768	12.77
741.792	13.77
741.815	3.77
741.839	6.77
741.863	24.77
741.886	15.77
741.91	-3.23
741.934	-1.23
741.957	0.77
741.981	17.77
742.005	-0.23
742.028	-4.23
742.052	0.77
742.075	5.77
742.099	14.77
742.123	11.77
742.146	13.77
742.17	-1.23
742.194	12.77
742.217	-4.23
742.241	-5.23
742.264	4.77
742.288	24.77
742.312	19.77
742.335	16.77
742.359	7.77
742.382	10.77
742.406	9.77
742.43	-0.23
742.453	7.77
742.477	-1.23
742.5	21.77
742.524	7.77
742.548	7.77
742.571	-10.23
742.595	9.77
742.618	-7.23
742.642	13.77
742.665	27.77
742.689	7.77
742.712	6.77
742.736	0.77
742.76	6.77
742.783	8.77
742.807	20.77
742.83	21.77
742.854	9.77
742.877	9.77
742.901	6.77
742.924	9.77
742.948	-0.23
742.971	16.77
742.995	1.77
743.018	-4.23
743.042	-2.23
743.065	10.77
743.089	-1.23
743.112	3.77
743.136	5.77
743.159	3.77
743.183	5.77
743.206	32.77
743.23	17.77
743.253	11.77
743.277	15.77
743.3	11.77
743.324	8.77
743.347	15.77
743.371	15.77
743.394	9.77
743.418	20.77
743.441	12.77
743.465	10.77
743.488	19.77
743.512	-3.23
743.535	0.77
743.558	-2.23
743.582	-3.23
743.605	8.77
743.629	18.77
743.652	5.77
743.676	1.77
743.699	8.77
743.723	9.77
743.746	-0.23
743.769	0.77
743.793	8.77
743.816	8.77
743.84	19.77
743.863	-0.23
743.886	-9.23
743.91	12.77
743.933	20.77
743.957	3.77
743.98	-2.23
744.003	-4.23
744.027	-0.23
744.05	23.77
744.074	7.77
744.097	-10.23
744.12	-7.23
744.144	0.77
744.167	7.77
744.19	7.77
744.214	-2.23
744.237	-0.23
744.26	35.77
744.284	7.77
744.307	5.77
744.331	9.77
744.354	-6.23
744.377	3.77
744.401	3.77
744.424	2.77
744.447	-0.23
744.471	4.77
