Data from HighRes_H2_15_09_11_07_2024_HR4C61891__74__15-11-03-802.txt Node

Date: Thu Nov 07 15:11:03 EST 2024
User: crc00042
Spectrometer: HR4C6189
Trigger mode: 4
Integration Time (sec): 1.000000E-1
Scans to average: 1
Electric dark correction enabled: true
Nonlinearity correction enabled: false
Boxcar width: 0
XAxis mode: Wavelengths
Number of Pixels in Spectrum: 3648
>>>>>Begin Spectral Data<<<<<
639.567	-37.62
639.602	-37.62
639.636	-37.62
639.67	-52.62
639.704	-15.62
639.738	-1.62
639.773	7.38
639.807	0.38
639.841	3.38
639.875	0.38
639.909	4.38
639.943	6.38
639.978	2.38
640.012	10.38
640.046	0.38
640.08	4.38
640.114	-11.62
640.148	-26.62
640.182	-16.62
640.217	-15.62
640.251	2.38
640.285	7.38
640.319	-11.62
640.353	-21.62
640.387	-17.62
640.421	-0.62
640.455	-0.62
640.49	-6.62
640.524	-14.62
640.558	0.38
640.592	10.38
640.626	8.38
640.66	6.38
640.694	-6.62
640.728	-0.62
640.762	4.38
640.796	21.38
640.83	20.38
640.865	0.38
640.899	3.38
640.933	6.38
640.967	-10.62
641.001	6.38
641.035	10.38
641.069	2.38
641.103	-12.62
641.137	-4.62
641.171	-0.62
641.205	-0.62
641.239	-7.62
641.273	16.38
641.307	13.38
641.341	4.38
641.375	-7.62
641.409	-10.62
641.443	-16.62
641.477	-14.62
641.511	-11.62
641.545	15.38
641.579	7.38
641.614	3.38
641.648	13.38
641.682	-13.62
641.716	14.38
641.75	22.38
641.784	-2.62
641.818	-0.62
641.852	17.38
641.886	-5.62
641.919	23.38
641.953	-1.62
641.987	-18.62
642.021	-12.62
642.055	-6.62
642.089	-7.62
642.123	-10.62
642.157	-0.62
642.191	-23.62
642.225	-9.62
642.259	-0.62
642.293	0.38
642.327	-6.62
642.361	-1.62
642.395	10.38
642.429	5.38
642.463	10.38
642.497	12.38
642.531	-5.62
642.565	-19.62
642.599	10.38
642.633	-11.62
642.666	-3.62
642.7	23.38
642.734	8.38
642.768	8.38
642.802	-18.62
642.836	-5.62
642.87	-5.62
642.904	-17.62
642.938	4.38
642.972	-1.62
643.005	13.38
643.039	3.38
643.073	-17.62
643.107	-7.62
643.141	-1.62
643.175	19.38
643.209	13.38
643.243	16.38
643.276	8.38
643.31	-2.62
643.344	-7.62
643.378	-7.62
643.412	12.38
643.446	0.38
643.48	-15.62
643.513	17.38
643.547	17.38
643.581	6.38
643.615	9.38
643.649	-7.62
643.683	2.38
643.716	-4.62
643.75	-5.62
643.784	-6.62
643.818	3.38
643.852	-7.62
643.886	-15.62
643.919	-0.62
643.953	-7.62
643.987	-1.62
644.021	-3.62
644.055	5.38
644.088	4.38
644.122	-9.62
644.156	-1.62
644.19	-6.62
644.224	-2.62
644.257	2.38
644.291	11.38
644.325	7.38
644.359	-4.62
644.392	19.38
644.426	16.38
644.46	2.38
644.494	14.38
644.527	4.38
644.561	0.38
644.595	-4.62
644.629	-2.62
644.662	-5.62
644.696	31.38
644.73	13.38
644.764	2.38
644.797	-2.62
644.831	3.38
644.865	4.38
644.899	-17.62
644.932	18.38
644.966	0.38
645	0.38
645.033	-2.62
645.067	-22.62
645.101	8.38
645.135	3.38
645.168	6.38
645.202	-15.62
645.236	-5.62
645.269	10.38
645.303	1.38
645.337	1.38
645.37	3.38
645.404	12.38
645.438	6.38
645.471	4.38
645.505	9.38
645.539	-0.62
645.572	2.38
645.606	-16.62
645.64	12.38
645.673	3.38
645.707	25.38
645.741	0.38
645.774	-1.62
645.808	12.38
645.842	0.38
645.875	6.38
645.909	3.38
645.943	-19.62
645.976	-0.62
646.01	4.38
646.043	9.38
646.077	-3.62
646.111	5.38
646.144	9.38
646.178	-0.62
646.212	-3.62
646.245	0.38
646.279	4.38
646.312	17.38
646.346	33.38
646.38	14.38
646.413	15.38
646.447	-0.62
646.48	5.38
646.514	6.38
646.547	-6.62
646.581	1.38
646.615	-1.62
646.648	-23.62
646.682	-14.62
646.715	-9.62
646.749	1.38
646.782	-2.62
646.816	4.38
646.85	-6.62
646.883	-8.62
646.917	-3.62
646.95	8.38
646.984	0.38
647.017	-6.62
647.051	6.38
647.084	8.38
647.118	5.38
647.151	-10.62
647.185	6.38
647.218	-15.62
647.252	12.38
647.285	-17.62
647.319	-9.62
647.353	8.38
647.386	20.38
647.42	4.38
647.453	-10.62
647.487	11.38
647.52	5.38
647.553	4.38
647.587	-10.62
647.62	2.38
647.654	8.38
647.687	8.38
647.721	22.38
647.754	19.38
647.788	2.38
647.821	0.38
647.855	7.38
647.888	7.38
647.922	22.38
647.955	10.38
647.989	5.38
648.022	-0.62
648.055	2.38
648.089	-10.62
648.122	17.38
648.156	9.38
648.189	-3.62
648.223	7.38
648.256	17.38
648.29	-12.62
648.323	-5.62
648.356	1.38
648.39	4.38
648.423	1.38
648.457	1.38
648.49	-2.62
648.523	5.38
648.557	-9.62
648.59	-22.62
648.624	24.38
648.657	4.38
648.69	10.38
648.724	16.38
648.757	18.38
648.791	-5.62
648.824	-12.62
648.857	10.38
648.891	5.38
648.924	7.38
648.957	9.38
648.991	-19.62
649.024	8.38
649.057	-6.62
649.091	-3.62
649.124	30.38
649.158	14.38
649.191	23.38
649.224	4.38
649.258	10.38
649.291	17.38
649.324	7.38
649.358	2.38
649.391	16.38
649.424	8.38
649.458	2.38
649.491	-1.62
649.524	-12.62
649.557	-21.62
649.591	-1.62
649.624	3.38
649.657	-14.62
649.691	0.38
649.724	0.38
649.757	8.38
649.791	-7.62
649.824	14.38
649.857	17.38
649.89	0.38
649.924	-19.62
649.957	-5.62
649.99	-10.62
650.023	-9.62
650.057	-10.62
650.09	3.38
650.123	-1.62
650.157	13.38
650.19	23.38
650.223	5.38
650.256	-4.62
650.29	14.38
650.323	-9.62
650.356	6.38
650.389	-3.62
650.423	-2.62
650.456	-0.62
650.489	-3.62
650.522	4.38
650.555	11.38
650.589	15.38
650.622	0.38
650.655	11.38
650.688	13.38
650.721	-5.62
650.755	-0.62
650.788	13.38
650.821	-4.62
650.854	-6.62
650.887	-0.62
650.921	-9.62
650.954	1.38
650.987	-1.62
651.02	1.38
651.053	1.38
651.087	-15.62
651.12	18.38
651.153	7.38
651.186	-5.62
651.219	-19.62
651.252	-4.62
651.286	-0.62
651.319	-16.62
651.352	1.38
651.385	8.38
651.418	0.38
651.451	-1.62
651.484	5.38
651.518	-4.62
651.551	10.38
651.584	13.38
651.617	34.38
651.65	6.38
651.683	1.38
651.716	11.38
651.749	-2.62
651.783	-21.62
651.816	-3.62
651.849	5.38
651.882	14.38
651.915	6.38
651.948	15.38
651.981	-9.62
652.014	-13.62
652.047	-1.62
652.08	10.38
652.114	6.38
652.147	7.38
652.18	-2.62
652.213	21.38
652.246	-17.62
652.279	9.38
652.312	6.38
652.345	-9.62
652.378	-0.62
652.411	-4.62
652.444	14.38
652.477	1.38
652.51	2.38
652.543	-9.62
652.576	6.38
652.609	-9.62
652.642	-23.62
652.675	-9.62
652.709	-23.62
652.742	3.38
652.775	14.38
652.808	4.38
652.841	1.38
652.874	-0.62
652.907	-5.62
652.94	-13.62
652.973	-16.62
653.006	-2.62
653.039	-3.62
653.072	-6.62
653.105	-6.62
653.138	-11.62
653.171	-18.62
653.204	-1.62
653.237	8.38
653.27	8.38
653.303	26.38
653.336	19.38
653.368	-10.62
653.401	-6.62
653.434	-2.62
653.467	12.38
653.5	-14.62
653.533	-11.62
653.566	1.38
653.599	10.38
653.632	26.38
653.665	2.38
653.698	-20.62
653.731	-11.62
653.764	6.38
653.797	-5.62
653.83	-12.62
653.863	0.38
653.896	-9.62
653.929	-0.62
653.961	-0.62
653.994	3.38
654.027	-4.62
654.06	-0.62
654.093	-4.62
654.126	0.38
654.159	-1.62
654.192	9.38
654.225	5.38
654.258	14.38
654.29	-13.62
654.323	14.38
654.356	-5.62
654.389	-4.62
654.422	-1.62
654.455	11.38
654.488	-1.62
654.521	6.38
654.553	-1.62
654.586	18.38
654.619	18.38
654.652	-6.62
654.685	-9.62
654.718	0.38
654.751	22.38
654.783	3.38
654.816	16.38
654.849	3.38
654.882	-16.62
654.915	-14.62
654.948	11.38
654.98	-9.62
655.013	-5.62
655.046	6.38
655.079	8.38
655.112	10.38
655.144	-1.62
655.177	12.38
655.21	13.38
655.243	8.38
655.276	9.38
655.308	5.38
655.341	2.38
655.374	11.38
655.407	-9.62
655.44	-1.62
655.472	2.38
655.505	3.38
655.538	-10.62
655.571	25.38
655.603	2.38
655.636	8.38
655.669	11.38
655.702	14.38
655.734	11.38
655.767	18.38
655.8	36.38
655.833	3.38
655.865	27.38
655.898	22.38
655.931	28.38
655.964	50.38
655.996	58.38
656.029	55.38
656.062	45.38
656.095	72.38
656.127	65.38
656.16	92.38
656.193	127.38
656.225	170.38
656.258	298.38
656.291	525.38
656.324	1156.38
656.356	3539.38
656.389	7812.38
656.422	6213.38
656.454	2119.38
656.487	722.38
656.52	269.38
656.552	128.38
656.585	82.38
656.618	68.38
656.65	48.38
656.683	34.38
656.716	33.38
656.748	14.38
656.781	3.38
656.814	9.38
656.846	3.38
656.879	-6.62
656.912	13.38
656.944	-13.62
656.977	-13.62
657.01	-0.62
657.042	1.38
657.075	-4.62
657.108	3.38
657.14	-12.62
657.173	-0.62
657.205	23.38
657.238	2.38
657.271	0.38
657.303	5.38
657.336	-0.62
657.369	10.38
657.401	2.38
657.434	-2.62
657.466	2.38
657.499	-4.62
657.532	-10.62
657.564	11.38
657.597	0.38
657.629	13.38
657.662	-2.62
657.694	6.38
657.727	-17.62
657.76	14.38
657.792	-2.62
657.825	-8.62
657.857	-3.62
657.89	-12.62
657.922	1.38
657.955	-24.62
657.987	7.38
658.02	3.38
658.053	11.38
658.085	-3.62
658.118	3.38
658.15	11.38
658.183	12.38
658.215	-14.62
658.248	-16.62
658.28	-26.62
658.313	4.38
658.345	14.38
658.378	3.38
658.41	-5.62
658.443	12.38
658.475	-5.62
658.508	-2.62
658.54	7.38
658.573	-9.62
658.605	-5.62
658.638	-8.62
658.67	-2.62
658.703	11.38
658.735	-13.62
658.768	1.38
658.8	-23.62
658.833	8.38
658.865	-5.62
658.898	10.38
658.93	-12.62
658.963	6.38
658.995	-12.62
659.028	-8.62
659.06	-9.62
659.092	-4.62
659.125	-10.62
659.157	2.38
659.19	-3.62
659.222	-18.62
659.255	0.38
659.287	-0.62
659.32	-12.62
659.352	9.38
659.384	-1.62
659.417	-5.62
659.449	4.38
659.482	12.38
659.514	-21.62
659.546	11.38
659.579	-22.62
659.611	-6.62
659.644	-6.62
659.676	-19.62
659.708	-9.62
659.741	-13.62
659.773	3.38
659.806	-11.62
659.838	-1.62
659.87	1.38
659.903	-11.62
659.935	22.38
659.967	4.38
660	-0.62
660.032	-23.62
660.065	6.38
660.097	2.38
660.129	-8.62
660.162	-17.62
660.194	5.38
660.226	11.38
660.259	-3.62
660.291	-1.62
660.323	1.38
660.356	1.38
660.388	-5.62
660.42	-8.62
660.453	8.38
660.485	1.38
660.517	19.38
660.55	27.38
660.582	6.38
660.614	8.38
660.647	1.38
660.679	-4.62
660.711	-6.62
660.743	-18.62
660.776	-20.62
660.808	-22.62
660.84	-20.62
660.873	-4.62
660.905	-3.62
660.937	-0.62
660.969	-2.62
661.002	2.38
661.034	9.38
661.066	-4.62
661.099	6.38
661.131	6.38
661.163	-1.62
661.195	15.38
661.228	23.38
661.26	-10.62
661.292	4.38
661.324	12.38
661.357	12.38
661.389	6.38
661.421	-0.62
661.453	-7.62
661.485	2.38
661.518	9.38
661.55	-21.62
661.582	-6.62
661.614	-20.62
661.647	-6.62
661.679	-5.62
661.711	4.38
661.743	1.38
661.775	-13.62
661.808	19.38
661.84	-2.62
661.872	15.38
661.904	4.38
661.936	-0.62
661.969	-2.62
662.001	-5.62
662.033	0.38
662.065	-1.62
662.097	21.38
662.129	9.38
662.162	0.38
662.194	11.38
662.226	-4.62
662.258	-0.62
662.29	-2.62
662.322	-6.62
662.355	-14.62
662.387	25.38
662.419	2.38
662.451	11.38
662.483	-0.62
662.515	-9.62
662.547	-3.62
662.58	-11.62
662.612	-6.62
662.644	-10.62
662.676	-9.62
662.708	11.38
662.74	-5.62
662.772	-15.62
662.804	12.38
662.836	5.38
662.869	-4.62
662.901	-7.62
662.933	-2.62
662.965	9.38
662.997	3.38
663.029	-11.62
663.061	3.38
663.093	-12.62
663.125	0.38
663.157	14.38
663.189	5.38
663.221	16.38
663.254	2.38
663.286	12.38
663.318	1.38
663.35	6.38
663.382	-2.62
663.414	0.38
663.446	-4.62
663.478	-8.62
663.51	26.38
663.542	-6.62
663.574	-4.62
663.606	-3.62
663.638	-8.62
663.67	9.38
663.702	4.38
663.734	8.38
663.766	-0.62
663.798	4.38
663.83	0.38
663.862	5.38
663.894	2.38
663.926	-4.62
663.958	12.38
663.99	-8.62
664.022	-4.62
664.054	-1.62
664.086	-13.62
664.118	-3.62
664.15	-3.62
664.182	-4.62
664.214	-8.62
664.246	3.38
664.278	-1.62
664.31	17.38
664.342	6.38
664.374	-2.62
664.406	-0.62
664.438	1.38
664.47	17.38
664.502	-11.62
664.534	-10.62
664.566	-13.62
664.598	6.38
664.63	-6.62
664.662	-1.62
664.693	16.38
664.725	6.38
664.757	-3.62
664.789	-20.62
664.821	6.38
664.853	7.38
664.885	1.38
664.917	-8.62
664.949	15.38
664.981	34.38
665.013	-11.62
665.045	-13.62
665.076	-2.62
665.108	7.38
665.14	6.38
665.172	2.38
665.204	-0.62
665.236	-15.62
665.268	2.38
665.3	4.38
665.331	4.38
665.363	9.38
665.395	-0.62
665.427	-9.62
665.459	15.38
665.491	-4.62
665.523	0.38
665.555	1.38
665.586	-3.62
665.618	-5.62
665.65	-23.62
665.682	2.38
665.714	6.38
665.746	5.38
665.777	7.38
665.809	11.38
665.841	-7.62
665.873	-1.62
665.905	-4.62
665.937	2.38
665.968	-0.62
666	-3.62
666.032	2.38
666.064	-4.62
666.096	-9.62
666.127	1.38
666.159	20.38
666.191	2.38
666.223	3.38
666.255	-1.62
666.286	-11.62
666.318	-11.62
666.35	3.38
666.382	19.38
666.413	0.38
666.445	-4.62
666.477	-16.62
666.509	-15.62
666.54	-10.62
666.572	-12.62
666.604	0.38
666.636	3.38
666.667	10.38
666.699	17.38
666.731	12.38
666.763	1.38
666.794	5.38
666.826	6.38
666.858	-22.62
666.89	6.38
666.921	9.38
666.953	10.38
666.985	6.38
667.017	20.38
667.048	8.38
667.08	-10.62
667.112	-6.62
667.143	-21.62
667.175	-0.62
667.207	5.38
667.238	4.38
667.27	6.38
667.302	-9.62
667.334	-10.62
667.365	18.38
667.397	1.38
667.429	-5.62
667.46	6.38
667.492	14.38
667.524	-5.62
667.555	-0.62
667.587	-2.62
667.619	-2.62
667.65	-8.62
667.682	4.38
667.714	-7.62
667.745	3.38
667.777	-6.62
667.808	-4.62
667.84	-6.62
667.872	5.38
667.903	19.38
667.935	-4.62
667.967	3.38
667.998	-0.62
668.03	0.38
668.061	1.38
668.093	-11.62
668.125	3.38
668.156	11.38
668.188	-3.62
668.22	-2.62
668.251	11.38
668.283	5.38
668.314	5.38
668.346	-21.62
668.377	-3.62
668.409	-7.62
668.441	0.38
668.472	4.38
668.504	-0.62
668.535	-13.62
668.567	-4.62
668.599	28.38
668.63	4.38
668.662	-5.62
668.693	25.38
668.725	11.38
668.756	2.38
668.788	-2.62
668.819	11.38
668.851	-8.62
668.882	-1.62
668.914	-11.62
668.946	9.38
668.977	2.38
669.009	-23.62
669.04	-24.62
669.072	-4.62
669.103	-0.62
669.135	1.38
669.166	4.38
669.198	4.38
669.229	17.38
669.261	-2.62
669.292	0.38
669.324	21.38
669.355	16.38
669.387	-11.62
669.418	12.38
669.45	6.38
669.481	1.38
669.513	-6.62
669.544	-0.62
669.576	-1.62
669.607	20.38
669.639	25.38
669.67	-5.62
669.701	-3.62
669.733	-20.62
669.764	-11.62
669.796	-10.62
669.827	-13.62
669.859	-19.62
669.89	3.38
669.922	17.38
669.953	-9.62
669.985	2.38
670.016	0.38
670.047	3.38
670.079	11.38
670.11	-2.62
670.142	4.38
670.173	5.38
670.204	4.38
670.236	6.38
670.267	-5.62
670.299	-8.62
670.33	0.38
670.362	26.38
670.393	6.38
670.424	7.38
670.456	-6.62
670.487	-5.62
670.518	-6.62
670.55	7.38
670.581	-14.62
670.613	2.38
670.644	-19.62
670.675	-5.62
670.707	-9.62
670.738	1.38
670.769	-8.62
670.801	-6.62
670.832	-1.62
670.864	-15.62
670.895	10.38
670.926	0.38
670.958	7.38
670.989	9.38
671.02	-3.62
671.052	5.38
671.083	10.38
671.114	1.38
671.146	5.38
671.177	-5.62
671.208	-5.62
671.24	-0.62
671.271	1.38
671.302	-0.62
671.333	-7.62
671.365	-2.62
671.396	-5.62
671.427	8.38
671.459	3.38
671.49	-3.62
671.521	-6.62
671.553	6.38
671.584	10.38
671.615	-1.62
671.646	2.38
671.678	5.38
671.709	-5.62
671.74	-16.62
671.771	-6.62
671.803	-18.62
671.834	6.38
671.865	-0.62
671.896	7.38
671.928	11.38
671.959	4.38
671.99	-1.62
672.021	-5.62
672.053	-22.62
672.084	-2.62
672.115	-6.62
672.146	-8.62
672.178	-0.62
672.209	-10.62
672.24	-8.62
672.271	23.38
672.303	7.38
672.334	9.38
672.365	3.38
672.396	3.38
672.427	4.38
672.459	-0.62
672.49	16.38
672.521	4.38
672.552	0.38
672.583	0.38
672.615	-1.62
672.646	-0.62
672.677	-5.62
672.708	0.38
672.739	6.38
672.77	9.38
672.802	3.38
672.833	-1.62
672.864	13.38
672.895	-6.62
672.926	-10.62
672.957	-23.62
672.989	-6.62
673.02	-4.62
673.051	-8.62
673.082	13.38
673.113	-0.62
673.144	-9.62
673.175	-9.62
673.206	-5.62
673.238	-0.62
673.269	3.38
673.3	-5.62
673.331	-0.62
673.362	-4.62
673.393	-7.62
673.424	18.38
673.455	17.38
673.487	16.38
673.518	16.38
673.549	10.38
673.58	-5.62
673.611	4.38
673.642	-4.62
673.673	-10.62
673.704	1.38
673.735	8.38
673.766	-7.62
673.797	0.38
673.828	3.38
673.86	-4.62
673.891	-9.62
673.922	-18.62
673.953	-3.62
673.984	-0.62
674.015	-1.62
674.046	-5.62
674.077	-0.62
674.108	-1.62
674.139	-2.62
674.17	-13.62
674.201	-4.62
674.232	-14.62
674.263	-4.62
674.294	1.38
674.325	-9.62
674.356	0.38
674.387	19.38
674.418	13.38
674.449	-17.62
674.48	-11.62
674.511	9.38
674.542	-0.62
674.573	-2.62
674.604	-1.62
674.635	-2.62
674.666	-5.62
674.697	-4.62
674.728	13.38
674.759	6.38
674.79	-21.62
674.821	-13.62
674.852	-0.62
674.883	-16.62
674.914	-15.62
674.945	-0.62
674.976	3.38
675.007	-2.62
675.038	-14.62
675.069	-24.62
675.1	-6.62
675.131	-9.62
675.162	-8.62
675.193	-2.62
675.224	-15.62
675.254	-6.62
675.285	-0.62
675.316	0.38
675.347	-6.62
675.378	-6.62
675.409	-5.62
675.44	17.38
675.471	6.38
675.502	-5.62
675.533	-4.62
675.564	1.38
675.595	0.38
675.625	19.38
675.656	8.38
675.687	-0.62
675.718	-9.62
675.749	1.38
675.78	16.38
675.811	-12.62
675.842	8.38
675.873	-6.62
675.903	-0.62
675.934	-13.62
675.965	-3.62
675.996	4.38
676.027	6.38
676.058	0.38
676.089	-6.62
676.119	2.38
676.15	-1.62
676.181	-7.62
676.212	-22.62
676.243	-1.62
676.274	-16.62
676.304	17.38
676.335	-15.62
676.366	13.38
676.397	-2.62
676.428	-0.62
676.459	9.38
676.489	10.38
676.52	5.38
676.551	-4.62
676.582	-16.62
676.613	-5.62
676.643	-18.62
676.674	0.38
676.705	-12.62
676.736	4.38
676.767	10.38
676.797	20.38
676.828	16.38
676.859	-8.62
676.89	-6.62
676.92	-6.62
676.951	-13.62
676.982	8.38
677.013	2.38
677.044	5.38
677.074	-8.62
677.105	-9.62
677.136	1.38
677.167	16.38
677.197	6.38
677.228	-4.62
677.259	-13.62
677.289	0.38
677.32	-10.62
677.351	8.38
677.382	4.38
677.412	4.38
677.443	10.38
677.474	-0.62
677.505	2.38
677.535	11.38
677.566	-20.62
677.597	-4.62
677.627	-8.62
677.658	-7.62
677.689	-7.62
677.72	-16.62
677.75	-3.62
677.781	1.38
677.812	-8.62
677.842	17.38
677.873	0.38
677.904	0.38
677.934	-2.62
677.965	-0.62
677.996	-11.62
678.026	4.38
678.057	9.38
678.088	-14.62
678.118	0.38
678.149	-3.62
678.18	-7.62
678.21	16.38
678.241	2.38
678.272	0.38
678.302	0.38
678.333	9.38
678.363	5.38
678.394	7.38
678.425	-4.62
678.455	-4.62
678.486	2.38
678.517	-17.62
678.547	-11.62
678.578	11.38
678.608	0.38
678.639	2.38
678.67	-1.62
678.7	-27.62
678.731	-9.62
678.761	-3.62
678.792	15.38
678.823	21.38
678.853	-6.62
678.884	-11.62
678.914	-0.62
678.945	-0.62
678.975	-1.62
679.006	-5.62
679.037	0.38
679.067	10.38
679.098	-11.62
679.128	-12.62
679.159	-0.62
679.189	7.38
679.22	-5.62
679.25	14.38
679.281	1.38
679.312	-7.62
679.342	7.38
679.373	21.38
679.403	-12.62
679.434	-12.62
679.464	-7.62
679.495	-2.62
679.525	-4.62
679.556	-1.62
679.586	12.38
679.617	1.38
679.647	-0.62
679.678	-5.62
679.708	-17.62
679.739	-11.62
679.769	1.38
679.8	-20.62
679.83	-13.62
679.861	7.38
679.891	-12.62
679.922	-21.62
679.952	-11.62
679.983	7.38
680.013	-7.62
680.044	-11.62
680.074	6.38
680.105	-2.62
680.135	8.38
680.165	3.38
680.196	-12.62
680.226	-3.62
680.257	-6.62
680.287	-2.62
680.318	5.38
680.348	-12.62
680.379	0.38
680.409	-2.62
680.439	-2.62
680.47	-10.62
680.5	-15.62
680.531	0.38
680.561	5.38
680.592	4.38
680.622	7.38
680.652	-2.62
680.683	15.38
680.713	0.38
680.744	-23.62
680.774	-13.62
680.804	5.38
680.835	-10.62
680.865	-22.62
680.896	2.38
680.926	16.38
680.956	-9.62
680.987	-3.62
681.017	-2.62
681.047	8.38
681.078	-6.62
681.108	3.38
681.139	10.38
681.169	3.38
681.199	10.38
681.23	8.38
681.26	-14.62
681.29	-5.62
681.321	-14.62
681.351	-10.62
681.381	-9.62
681.412	-7.62
681.442	-5.62
681.472	9.38
681.503	-2.62
681.533	-6.62
681.563	-15.62
681.594	-7.62
681.624	1.38
681.654	-2.62
681.685	-12.62
681.715	-12.62
681.745	-11.62
681.775	-6.62
681.806	7.38
681.836	-0.62
681.866	-3.62
681.897	7.38
681.927	-14.62
681.957	-28.62
681.987	14.38
682.018	10.38
682.048	18.38
682.078	4.38
682.109	14.38
682.139	-2.62
682.169	-7.62
682.199	-10.62
682.23	-16.62
682.26	-4.62
682.29	-9.62
682.32	2.38
682.351	-12.62
682.381	6.38
682.411	10.38
682.441	-0.62
682.472	-14.62
682.502	-9.62
682.532	-2.62
682.562	1.38
682.592	19.38
682.623	21.38
682.653	1.38
682.683	-5.62
682.713	7.38
682.743	-4.62
682.774	1.38
682.804	7.38
682.834	8.38
682.864	-7.62
682.894	-4.62
682.925	0.38
682.955	2.38
682.985	0.38
683.015	21.38
683.045	-5.62
683.076	-6.62
683.106	4.38
683.136	0.38
683.166	-3.62
683.196	0.38
683.226	-3.62
683.257	-13.62
683.287	-10.62
683.317	-14.62
683.347	-10.62
683.377	1.38
683.407	2.38
683.437	14.38
683.468	4.38
683.498	-24.62
683.528	3.38
683.558	10.38
683.588	14.38
683.618	-5.62
683.648	-5.62
683.678	7.38
683.708	15.38
683.739	-1.62
683.769	-0.62
683.799	8.38
683.829	-1.62
683.859	-0.62
683.889	2.38
683.919	-8.62
683.949	-7.62
683.979	-0.62
684.009	-9.62
684.039	-12.62
684.07	-22.62
684.1	10.38
684.13	6.38
684.16	1.38
684.19	-11.62
684.22	3.38
684.25	6.38
684.28	-1.62
684.31	12.38
684.34	15.38
684.37	-5.62
684.4	-4.62
684.43	0.38
684.46	9.38
684.49	11.38
684.52	3.38
684.55	1.38
684.58	-9.62
684.61	-19.62
684.64	10.38
684.67	3.38
684.7	6.38
684.73	1.38
684.76	-8.62
684.79	7.38
684.82	0.38
684.85	-1.62
684.88	3.38
684.91	1.38
684.94	1.38
684.97	-1.62
685	-0.62
685.03	-13.62
685.06	-17.62
685.09	2.38
685.12	28.38
685.15	-4.62
685.18	8.38
685.21	3.38
685.24	13.38
685.27	9.38
685.3	-10.62
685.33	-3.62
685.36	-20.62
685.39	-13.62
685.42	-17.62
685.45	-3.62
685.48	13.38
685.51	-10.62
685.54	9.38
685.569	4.38
685.599	5.38
685.629	16.38
685.659	-1.62
685.689	-19.62
685.719	-10.62
685.749	-8.62
685.779	0.38
685.809	4.38
685.839	6.38
685.869	-13.62
685.898	3.38
685.928	-2.62
685.958	0.38
685.988	0.38
686.018	7.38
686.048	9.38
686.078	12.38
686.108	10.38
686.137	7.38
686.167	18.38
686.197	-13.62
686.227	-10.62
686.257	15.38
686.287	9.38
686.317	-9.62
686.346	-7.62
686.376	-7.62
686.406	-12.62
686.436	20.38
686.466	-5.62
686.496	5.38
686.525	18.38
686.555	1.38
686.585	1.38
686.615	3.38
686.645	13.38
686.675	2.38
686.704	8.38
686.734	11.38
686.764	11.38
686.794	-4.62
686.824	8.38
686.853	2.38
686.883	11.38
686.913	18.38
686.943	3.38
686.973	-2.62
687.002	12.38
687.032	-9.62
687.062	-7.62
687.092	8.38
687.121	-8.62
687.151	-9.62
687.181	-0.62
687.211	-0.62
687.24	0.38
687.27	1.38
687.3	-21.62
687.33	1.38
687.359	-14.62
687.389	-5.62
687.419	-17.62
687.449	6.38
687.478	1.38
687.508	-23.62
687.538	-3.62
687.568	6.38
687.597	-2.62
687.627	12.38
687.657	7.38
687.686	-0.62
687.716	17.38
687.746	-4.62
687.776	-5.62
687.805	10.38
687.835	8.38
687.865	9.38
687.894	4.38
687.924	-8.62
687.954	1.38
687.983	11.38
688.013	15.38
688.043	9.38
688.072	-16.62
688.102	22.38
688.132	-2.62
688.161	-10.62
688.191	6.38
688.221	14.38
688.25	-4.62
688.28	-3.62
688.31	-17.62
688.339	-5.62
688.369	1.38
688.399	9.38
688.428	-15.62
688.458	5.38
688.488	-11.62
688.517	11.38
688.547	3.38
688.576	38.38
688.606	17.38
688.636	-5.62
688.665	7.38
688.695	4.38
688.725	11.38
688.754	1.38
688.784	2.38
688.813	17.38
688.843	13.38
688.873	-3.62
688.902	-23.62
688.932	-3.62
688.961	0.38
688.991	3.38
689.02	9.38
689.05	-2.62
689.08	24.38
689.109	2.38
689.139	3.38
689.168	1.38
689.198	-4.62
689.227	-1.62
689.257	-0.62
689.287	6.38
689.316	-16.62
689.346	-15.62
689.375	0.38
689.405	-2.62
689.434	-8.62
689.464	-7.62
689.493	2.38
689.523	3.38
689.552	-12.62
689.582	-8.62
689.611	-2.62
689.641	11.38
689.67	4.38
689.7	-6.62
689.73	-8.62
689.759	1.38
689.789	8.38
689.818	-21.62
689.848	1.38
689.877	1.38
689.906	-10.62
689.936	-9.62
689.965	21.38
689.995	2.38
690.024	4.38
690.054	7.38
690.083	4.38
690.113	11.38
690.142	21.38
690.172	-3.62
690.201	-0.62
690.231	-0.62
690.26	-1.62
690.29	1.38
690.319	2.38
690.348	-11.62
690.378	4.38
690.407	11.38
690.437	-11.62
690.466	-13.62
690.496	-11.62
690.525	5.38
690.555	2.38
690.584	14.38
690.613	-9.62
690.643	-5.62
690.672	8.38
690.702	-0.62
690.731	-11.62
690.76	11.38
690.79	-12.62
690.819	6.38
690.849	6.38
690.878	5.38
690.907	-0.62
690.937	9.38
690.966	-5.62
690.996	9.38
691.025	-1.62
691.054	-1.62
691.084	2.38
691.113	1.38
691.142	2.38
691.172	7.38
691.201	24.38
691.23	-12.62
691.26	12.38
691.289	17.38
691.319	0.38
691.348	-3.62
691.377	14.38
691.407	13.38
691.436	22.38
691.465	12.38
691.495	0.38
691.524	-19.62
691.553	-11.62
691.583	-1.62
691.612	8.38
691.641	10.38
691.67	5.38
691.7	-8.62
691.729	-3.62
691.758	5.38
691.788	3.38
691.817	-17.62
691.846	-9.62
691.876	-4.62
691.905	2.38
691.934	-2.62
691.963	11.38
691.993	1.38
692.022	-4.62
692.051	-7.62
692.081	6.38
692.11	12.38
692.139	5.38
692.168	3.38
692.198	16.38
692.227	9.38
692.256	-15.62
692.285	-2.62
692.315	0.38
692.344	-3.62
692.373	4.38
692.402	-2.62
692.432	-2.62
692.461	-2.62
692.49	3.38
692.519	4.38
692.548	-0.62
692.578	9.38
692.607	-2.62
692.636	-25.62
692.665	17.38
692.694	-1.62
692.724	4.38
692.753	16.38
692.782	14.38
692.811	-8.62
692.84	12.38
692.87	-0.62
692.899	-4.62
692.928	2.38
692.957	14.38
692.986	7.38
693.016	11.38
693.045	9.38
693.074	12.38
693.103	3.38
693.132	-1.62
693.161	-1.62
693.191	2.38
693.22	-12.62
693.249	5.38
693.278	-12.62
693.307	15.38
693.336	-7.62
693.365	-6.62
693.395	5.38
693.424	-8.62
693.453	13.38
693.482	5.38
693.511	14.38
693.54	-2.62
693.569	9.38
693.598	-2.62
693.628	-2.62
693.657	23.38
693.686	15.38
693.715	14.38
693.744	15.38
693.773	9.38
693.802	-0.62
693.831	-13.62
693.86	7.38
693.889	-9.62
693.919	-7.62
693.948	-8.62
693.977	-5.62
694.006	-4.62
694.035	6.38
694.064	4.38
694.093	-6.62
694.122	-13.62
694.151	-2.62
694.18	5.38
694.209	16.38
694.238	9.38
694.267	18.38
694.296	-0.62
694.325	16.38
694.354	2.38
694.383	6.38
694.412	7.38
694.441	-13.62
694.471	-13.62
694.5	-1.62
694.529	8.38
694.558	21.38
694.587	0.38
694.616	-4.62
694.645	7.38
694.674	16.38
694.703	8.38
694.732	-10.62
694.761	3.38
694.79	31.38
694.819	-22.62
694.848	12.38
694.877	17.38
694.906	25.38
694.935	13.38
694.963	17.38
694.992	3.38
695.021	12.38
695.05	12.38
695.079	14.38
695.108	-13.62
695.137	12.38
695.166	6.38
695.195	2.38
695.224	1.38
695.253	5.38
695.282	21.38
695.311	-2.62
695.34	-9.62
695.369	2.38
695.398	1.38
695.427	7.38
695.456	4.38
695.485	-7.62
695.513	8.38
695.542	11.38
695.571	8.38
695.6	23.38
695.629	0.38
695.658	17.38
695.687	1.38
695.716	1.38
695.745	21.38
695.774	-6.62
695.802	-1.62
695.831	-4.62
695.86	12.38
695.889	7.38
695.918	6.38
695.947	3.38
695.976	-4.62
696.005	3.38
696.033	-2.62
696.062	14.38
696.091	-6.62
696.12	10.38
696.149	10.38
696.178	0.38
696.207	4.38
696.235	-11.62
696.264	9.38
696.293	2.38
696.322	11.38
696.351	12.38
696.38	-12.62
696.408	8.38
696.437	-13.62
696.466	8.38
696.495	18.38
696.524	10.38
696.553	12.38
696.581	5.38
696.61	12.38
696.639	-2.62
696.668	-8.62
696.697	-2.62
696.725	10.38
696.754	-9.62
696.783	-20.62
696.812	-23.62
696.84	18.38
696.869	12.38
696.898	-2.62
696.927	3.38
696.956	6.38
696.984	-4.62
697.013	-2.62
697.042	-10.62
697.071	18.38
697.099	18.38
697.128	10.38
697.157	9.38
697.186	-15.62
697.214	-7.62
697.243	-9.62
697.272	-1.62
697.301	5.38
697.329	10.38
697.358	4.38
697.387	19.38
697.415	9.38
697.444	1.38
697.473	1.38
697.502	-4.62
697.53	-0.62
697.559	-6.62
697.588	6.38
697.616	-8.62
697.645	-16.62
697.674	4.38
697.703	-3.62
697.731	-0.62
697.76	3.38
697.789	-4.62
697.817	-5.62
697.846	2.38
697.875	-2.62
697.903	20.38
697.932	6.38
697.961	10.38
697.989	5.38
698.018	-7.62
698.047	-9.62
698.075	7.38
698.104	-11.62
698.133	3.38
698.161	-1.62
698.19	-5.62
698.218	-8.62
698.247	0.38
698.276	-0.62
698.304	7.38
698.333	3.38
698.362	0.38
698.39	-11.62
698.419	5.38
698.447	2.38
698.476	7.38
698.505	-0.62
698.533	-3.62
698.562	5.38
698.591	5.38
698.619	-12.62
698.648	5.38
698.676	9.38
698.705	-12.62
698.733	-4.62
698.762	9.38
698.791	9.38
698.819	3.38
698.848	-0.62
698.876	-2.62
698.905	-6.62
698.933	9.38
698.962	2.38
698.991	-4.62
699.019	11.38
699.048	10.38
699.076	2.38
699.105	-6.62
699.133	-0.62
699.162	6.38
699.19	21.38
699.219	21.38
699.248	-1.62
699.276	4.38
699.305	-10.62
699.333	3.38
699.362	-1.62
699.39	-6.62
699.419	-14.62
699.447	8.38
699.476	3.38
699.504	1.38
699.533	1.38
699.561	-2.62
699.59	-0.62
699.618	9.38
699.647	-0.62
699.675	-5.62
699.704	4.38
699.732	-2.62
699.761	0.38
699.789	-1.62
699.818	10.38
699.846	-3.62
699.874	-2.62
699.903	-12.62
699.931	-7.62
699.96	6.38
699.988	4.38
700.017	-9.62
700.045	7.38
700.074	-10.62
700.102	-6.62
700.13	-11.62
700.159	-4.62
700.187	6.38
700.216	-9.62
700.244	-6.62
700.273	1.38
700.301	-4.62
700.329	10.38
700.358	20.38
700.386	-6.62
700.415	0.38
700.443	-2.62
700.472	-0.62
700.5	15.38
700.528	2.38
700.557	9.38
700.585	2.38
700.614	6.38
700.642	16.38
700.67	16.38
700.699	10.38
700.727	9.38
700.755	4.38
700.784	3.38
700.812	-5.62
700.841	-6.62
700.869	-0.62
700.897	-33.62
700.926	-6.62
700.954	7.38
700.982	3.38
701.011	-0.62
701.039	7.38
701.067	22.38
701.096	9.38
701.124	-14.62
701.152	-10.62
701.181	4.38
701.209	-28.62
701.237	-8.62
701.266	-9.62
701.294	-4.62
701.322	-3.62
701.351	-0.62
701.379	-11.62
701.407	-4.62
701.435	2.38
701.464	16.38
701.492	19.38
701.52	-6.62
701.549	-0.62
701.577	-12.62
701.605	3.38
701.634	1.38
701.662	17.38
701.69	-2.62
701.718	1.38
701.747	5.38
701.775	15.38
701.803	-25.62
701.831	-8.62
701.86	-5.62
701.888	16.38
701.916	0.38
701.944	-19.62
701.973	-2.62
702.001	-5.62
702.029	11.38
702.057	-1.62
702.086	-4.62
702.114	-8.62
702.142	-8.62
702.17	-2.62
702.199	4.38
702.227	11.38
702.255	-8.62
702.283	-10.62
702.311	1.38
702.34	-7.62
702.368	-12.62
702.396	-0.62
702.424	-10.62
702.452	-15.62
702.481	-1.62
702.509	11.38
702.537	-1.62
702.565	-0.62
702.593	-12.62
702.621	-11.62
702.65	0.38
702.678	1.38
702.706	7.38
702.734	0.38
702.762	3.38
702.79	4.38
702.819	1.38
702.847	10.38
702.875	18.38
702.903	2.38
702.931	-1.62
702.959	0.38
702.988	-7.62
703.016	-3.62
703.044	-2.62
703.072	3.38
703.1	-13.62
703.128	-4.62
703.156	-2.62
703.184	-1.62
703.212	17.38
703.241	0.38
703.269	8.38
703.297	7.38
703.325	5.38
703.353	-6.62
703.381	-13.62
703.409	-4.62
703.437	-2.62
703.465	9.38
703.493	-6.62
703.522	9.38
703.55	-0.62
703.578	-6.62
703.606	-5.62
703.634	-4.62
703.662	-3.62
703.69	-6.62
703.718	5.38
703.746	13.38
703.774	-6.62
703.802	12.38
703.83	-5.62
703.858	-9.62
703.886	-15.62
703.914	-7.62
703.942	12.38
703.97	-7.62
703.998	-1.62
704.027	7.38
704.055	7.38
704.083	11.38
704.111	-6.62
704.139	-11.62
704.167	5.38
704.195	1.38
704.223	0.38
704.251	5.38
704.279	15.38
704.307	5.38
704.335	-11.62
704.363	4.38
704.391	-14.62
704.419	-1.62
704.447	0.38
704.475	1.38
704.503	-8.62
704.531	7.38
704.558	21.38
704.586	4.38
704.614	0.38
704.642	2.38
704.67	-17.62
704.698	-12.62
704.726	4.38
704.754	-12.62
704.782	-8.62
704.81	-6.62
704.838	21.38
704.866	-1.62
704.894	-11.62
704.922	-1.62
704.95	10.38
704.978	0.38
705.006	7.38
705.034	12.38
705.061	-7.62
705.089	9.38
705.117	-11.62
705.145	12.38
705.173	10.38
705.201	-2.62
705.229	3.38
705.257	1.38
705.285	14.38
705.313	5.38
705.34	-11.62
705.368	2.38
705.396	-8.62
705.424	-11.62
705.452	-4.62
705.48	2.38
705.508	7.38
705.536	0.38
705.563	-2.62
705.591	9.38
705.619	6.38
705.647	-3.62
705.675	4.38
705.703	-4.62
705.731	-8.62
705.758	11.38
705.786	-3.62
705.814	23.38
705.842	16.38
705.87	14.38
705.898	10.38
705.925	-5.62
705.953	-4.62
705.981	-11.62
706.009	-4.62
706.037	6.38
706.065	1.38
706.092	-9.62
706.12	-12.62
706.148	-13.62
706.176	-0.62
706.204	7.38
706.231	3.38
706.259	-6.62
706.287	-14.62
706.315	-9.62
706.342	-12.62
706.37	9.38
706.398	17.38
706.426	-0.62
706.454	-2.62
706.481	17.38
706.509	-1.62
706.537	-5.62
706.565	-8.62
706.592	10.38
706.62	-3.62
706.648	1.38
706.676	-10.62
706.703	0.38
706.731	-14.62
706.759	-5.62
706.787	3.38
706.814	-6.62
706.842	0.38
706.87	1.38
706.897	2.38
706.925	-5.62
706.953	2.38
706.981	21.38
707.008	6.38
707.036	3.38
707.064	2.38
707.091	-16.62
707.119	8.38
707.147	1.38
707.174	-7.62
707.202	-1.62
707.23	-9.62
707.258	6.38
707.285	-10.62
707.313	-10.62
707.341	-18.62
707.368	-4.62
707.396	8.38
707.424	4.38
707.451	5.38
707.479	5.38
707.507	-8.62
707.534	-1.62
707.562	-2.62
707.59	-1.62
707.617	0.38
707.645	-2.62
707.672	-12.62
707.7	-1.62
707.728	2.38
707.755	9.38
707.783	-8.62
707.811	-5.62
707.838	-16.62
707.866	11.38
707.893	-7.62
707.921	-5.62
707.949	-6.62
707.976	6.38
708.004	16.38
708.031	-19.62
708.059	-10.62
708.087	-13.62
708.114	-3.62
708.142	-2.62
708.169	-17.62
708.197	-24.62
708.225	-4.62
708.252	-14.62
708.28	0.38
708.307	-15.62
708.335	5.38
708.362	-11.62
708.39	-6.62
708.418	5.38
708.445	-11.62
708.473	-15.62
708.5	-10.62
708.528	5.38
708.555	-7.62
708.583	-14.62
708.61	1.38
708.638	-4.62
708.665	-14.62
708.693	3.38
708.72	-5.62
708.748	-10.62
708.776	-1.62
708.803	17.38
708.831	8.38
708.858	15.38
708.886	-0.62
708.913	8.38
708.941	-10.62
708.968	9.38
708.996	-4.62
709.023	21.38
709.051	-2.62
709.078	-15.62
709.105	-5.62
709.133	-4.62
709.16	-7.62
709.188	-5.62
709.215	13.38
709.243	-13.62
709.27	-2.62
709.298	-7.62
709.325	-18.62
709.353	-8.62
709.38	-1.62
709.408	22.38
709.435	-1.62
709.462	-6.62
709.49	2.38
709.517	2.38
709.545	-2.62
709.572	1.38
709.6	-10.62
709.627	2.38
709.655	-4.62
709.682	-12.62
709.709	-7.62
709.737	-3.62
709.764	-4.62
709.792	12.38
709.819	15.38
709.846	5.38
709.874	0.38
709.901	11.38
709.929	4.38
709.956	-4.62
709.983	-11.62
710.011	-9.62
710.038	-14.62
710.066	-2.62
710.093	4.38
710.12	-2.62
710.148	-7.62
710.175	-5.62
710.202	2.38
710.23	1.38
710.257	15.38
710.284	7.38
710.312	-8.62
710.339	-2.62
710.366	-2.62
710.394	2.38
710.421	-0.62
710.448	13.38
710.476	-9.62
710.503	6.38
710.53	7.38
710.558	-5.62
710.585	2.38
710.612	3.38
710.64	-0.62
710.667	0.38
710.694	-5.62
710.722	-13.62
710.749	-17.62
710.776	-12.62
710.804	5.38
710.831	-0.62
710.858	-2.62
710.885	-5.62
710.913	-12.62
710.94	13.38
710.967	0.38
710.995	-3.62
711.022	2.38
711.049	-1.62
711.076	-16.62
711.104	-8.62
711.131	-18.62
711.158	-7.62
711.185	-4.62
711.213	-7.62
711.24	-5.62
711.267	-8.62
711.294	-1.62
711.322	5.38
711.349	-12.62
711.376	-2.62
711.403	2.38
711.431	-1.62
711.458	8.38
711.485	-5.62
711.512	2.38
711.54	14.38
711.567	5.38
711.594	1.38
711.621	-6.62
711.648	6.38
711.676	2.38
711.703	-10.62
711.73	-9.62
711.757	2.38
711.784	1.38
711.812	-4.62
711.839	-5.62
711.866	-10.62
711.893	-6.62
711.92	0.38
711.947	-4.62
711.975	-0.62
712.002	-3.62
712.029	11.38
712.056	-6.62
712.083	-2.62
712.11	-18.62
712.138	-0.62
712.165	1.38
712.192	-1.62
712.219	-7.62
712.246	-9.62
712.273	-15.62
712.3	-9.62
712.328	5.38
712.355	-2.62
712.382	-12.62
712.409	8.38
712.436	-16.62
712.463	19.38
712.49	4.38
712.517	1.38
712.544	-15.62
712.572	8.38
712.599	-15.62
712.626	-4.62
712.653	-9.62
712.68	-16.62
712.707	1.38
712.734	1.38
712.761	-3.62
712.788	9.38
712.815	3.38
712.842	15.38
712.87	1.38
712.897	3.38
712.924	-7.62
712.951	3.38
712.978	13.38
713.005	14.38
713.032	3.38
713.059	9.38
713.086	-5.62
713.113	2.38
713.14	-4.62
713.167	5.38
713.194	3.38
713.221	-6.62
713.248	3.38
713.275	-2.62
713.302	-3.62
713.329	11.38
713.356	-1.62
713.383	11.38
713.41	-1.62
713.437	-11.62
713.464	-1.62
713.491	24.38
713.518	2.38
713.545	7.38
713.572	5.38
713.599	3.38
713.626	-0.62
713.653	4.38
713.68	-9.62
713.707	-0.62
713.734	2.38
713.761	0.38
713.788	-3.62
713.815	-0.62
713.842	0.38
713.869	-7.62
713.896	7.38
713.923	-13.62
713.95	-4.62
713.977	-0.62
714.004	-4.62
714.031	-24.62
714.058	-4.62
714.085	0.38
714.112	29.38
714.139	-5.62
714.165	-5.62
714.192	-0.62
714.219	-3.62
714.246	0.38
714.273	-2.62
714.3	-0.62
714.327	-3.62
714.354	6.38
714.381	-8.62
714.408	-10.62
714.435	-7.62
714.461	-1.62
714.488	9.38
714.515	-5.62
714.542	-8.62
714.569	-18.62
714.596	-24.62
714.623	-12.62
714.65	-4.62
714.677	-4.62
714.703	-15.62
714.73	2.38
714.757	4.38
714.784	-0.62
714.811	-15.62
714.838	7.38
714.865	-1.62
714.891	16.38
714.918	0.38
714.945	-7.62
714.972	7.38
714.999	17.38
715.026	-2.62
715.052	14.38
715.079	-10.62
715.106	3.38
715.133	8.38
715.16	-2.62
715.187	13.38
715.213	-1.62
715.24	-11.62
715.267	3.38
715.294	9.38
715.321	7.38
715.347	5.38
715.374	-13.62
715.401	-1.62
715.428	-8.62
715.455	-1.62
715.481	-9.62
715.508	-1.62
715.535	-0.62
715.562	11.38
715.588	-12.62
715.615	1.38
715.642	-2.62
715.669	6.38
715.695	-15.62
715.722	5.38
715.749	3.38
715.776	13.38
715.802	-2.62
715.829	4.38
715.856	-10.62
715.883	1.38
715.909	-12.62
715.936	-5.62
715.963	-6.62
715.99	-6.62
716.016	4.38
716.043	5.38
716.07	-6.62
716.096	-13.62
716.123	-7.62
716.15	1.38
716.177	8.38
716.203	9.38
716.23	10.38
716.257	16.38
716.283	14.38
716.31	2.38
716.337	5.38
716.363	-4.62
716.39	-1.62
716.417	6.38
716.443	5.38
716.47	23.38
716.497	11.38
716.523	8.38
716.55	-6.62
716.577	17.38
716.603	-9.62
716.63	-2.62
716.657	17.38
716.683	-1.62
716.71	-12.62
716.737	4.38
716.763	14.38
716.79	14.38
716.817	26.38
716.843	13.38
716.87	-16.62
716.897	-5.62
716.923	7.38
716.95	-3.62
716.976	-10.62
717.003	3.38
717.03	14.38
717.056	1.38
717.083	-2.62
717.109	1.38
717.136	1.38
717.163	15.38
717.189	-3.62
717.216	4.38
717.242	-6.62
717.269	0.38
717.296	-5.62
717.322	-4.62
717.349	-6.62
717.375	1.38
717.402	3.38
717.428	-4.62
717.455	-15.62
717.481	1.38
717.508	-1.62
717.535	7.38
717.561	1.38
717.588	-5.62
717.614	-1.62
717.641	-0.62
717.667	5.38
717.694	-5.62
717.72	6.38
717.747	-3.62
717.773	-0.62
717.8	10.38
717.826	3.38
717.853	9.38
717.88	18.38
717.906	-8.62
717.933	-6.62
717.959	15.38
717.986	12.38
718.012	-14.62
718.039	14.38
718.065	10.38
718.092	13.38
718.118	-16.62
718.144	-15.62
718.171	12.38
718.197	16.38
718.224	-8.62
718.25	-8.62
718.277	-1.62
718.303	7.38
718.33	2.38
718.356	-9.62
718.383	-12.62
718.409	-2.62
718.436	4.38
718.462	-2.62
718.489	-6.62
718.515	4.38
718.541	14.38
718.568	8.38
718.594	-8.62
718.621	4.38
718.647	10.38
718.674	4.38
718.7	8.38
718.726	-13.62
718.753	1.38
718.779	-0.62
718.806	2.38
718.832	-15.62
718.858	-4.62
718.885	-10.62
718.911	-1.62
718.938	10.38
718.964	-14.62
718.99	4.38
719.017	-6.62
719.043	9.38
719.07	21.38
719.096	-2.62
719.122	6.38
719.149	3.38
719.175	-4.62
719.201	8.38
719.228	14.38
719.254	6.38
719.281	0.38
719.307	0.38
719.333	-0.62
719.36	5.38
719.386	-22.62
719.412	10.38
719.439	-16.62
719.465	-12.62
719.491	-9.62
719.518	1.38
719.544	-7.62
719.57	-2.62
719.597	3.38
719.623	7.38
719.649	10.38
719.675	1.38
719.702	-0.62
719.728	6.38
719.754	-13.62
719.781	3.38
719.807	-2.62
719.833	1.38
719.86	2.38
719.886	0.38
719.912	5.38
719.938	-2.62
719.965	-7.62
719.991	-0.62
720.017	0.38
720.044	-20.62
720.07	2.38
720.096	7.38
720.122	-6.62
720.149	24.38
720.175	6.38
720.201	3.38
720.227	6.38
720.254	-2.62
720.28	4.38
720.306	-13.62
720.332	3.38
720.359	11.38
720.385	14.38
720.411	-4.62
720.437	3.38
720.463	-4.62
720.49	0.38
720.516	-13.62
720.542	2.38
720.568	1.38
720.595	11.38
720.621	-0.62
720.647	11.38
720.673	22.38
720.699	-13.62
720.725	-1.62
720.752	5.38
720.778	-1.62
720.804	9.38
720.83	4.38
720.856	-10.62
720.883	11.38
720.909	0.38
720.935	3.38
720.961	19.38
720.987	6.38
721.013	-0.62
721.04	-4.62
721.066	0.38
721.092	-2.62
721.118	18.38
721.144	13.38
721.17	9.38
721.196	1.38
721.223	-11.62
721.249	-11.62
721.275	16.38
721.301	4.38
721.327	12.38
721.353	8.38
721.379	14.38
721.405	2.38
721.432	7.38
721.458	2.38
721.484	-8.62
721.51	-27.62
721.536	0.38
721.562	-3.62
721.588	-1.62
721.614	8.38
721.64	-8.62
721.666	-5.62
721.693	8.38
721.719	-8.62
721.745	-2.62
721.771	-13.62
721.797	-6.62
721.823	1.38
721.849	12.38
721.875	6.38
721.901	14.38
721.927	2.38
721.953	5.38
721.979	11.38
722.005	16.38
722.031	-1.62
722.057	14.38
722.083	10.38
722.109	7.38
722.135	0.38
722.161	3.38
722.187	-5.62
722.214	-9.62
722.24	11.38
722.266	-23.62
722.292	6.38
722.318	3.38
722.344	4.38
722.37	8.38
722.396	-3.62
722.422	0.38
722.448	2.38
722.474	-6.62
722.5	8.38
722.526	10.38
722.552	-8.62
722.578	-9.62
722.603	10.38
722.629	0.38
722.655	-0.62
722.681	-5.62
722.707	10.38
722.733	-13.62
722.759	-11.62
722.785	3.38
722.811	-1.62
722.837	0.38
722.863	4.38
722.889	5.38
722.915	-5.62
722.941	-1.62
722.967	20.38
722.993	10.38
723.019	-5.62
723.045	1.38
723.071	-0.62
723.097	9.38
723.122	5.38
723.148	4.38
723.174	-7.62
723.2	14.38
723.226	1.38
723.252	1.38
723.278	-10.62
723.304	-8.62
723.33	16.38
723.356	-2.62
723.381	-9.62
723.407	-9.62
723.433	8.38
723.459	-8.62
723.485	-4.62
723.511	-2.62
723.537	-2.62
723.563	8.38
723.588	7.38
723.614	1.38
723.64	-1.62
723.666	9.38
723.692	10.38
723.718	1.38
723.744	-2.62
723.769	-0.62
723.795	-17.62
723.821	-6.62
723.847	-7.62
723.873	9.38
723.899	11.38
723.924	2.38
723.95	-8.62
723.976	-11.62
724.002	10.38
724.028	-4.62
724.053	-13.62
724.079	-4.62
724.105	-1.62
724.131	-7.62
724.157	-7.62
724.182	-9.62
724.208	-5.62
724.234	-5.62
724.26	-4.62
724.286	-1.62
724.311	-8.62
724.337	-2.62
724.363	-5.62
724.389	-7.62
724.415	-3.62
724.44	11.38
724.466	10.38
724.492	-2.62
724.518	13.38
724.543	-3.62
724.569	-2.62
724.595	1.38
724.621	5.38
724.646	5.38
724.672	-18.62
724.698	-12.62
724.723	-6.62
724.749	0.38
724.775	11.38
724.801	17.38
724.826	-5.62
724.852	-0.62
724.878	-3.62
724.904	-22.62
724.929	10.38
724.955	-5.62
724.981	11.38
725.006	13.38
725.032	9.38
725.058	10.38
725.083	-4.62
725.109	-9.62
725.135	4.38
725.161	5.38
725.186	-1.62
725.212	-10.62
725.238	10.38
725.263	-5.62
725.289	-8.62
725.315	-1.62
725.34	-11.62
725.366	10.38
725.392	-2.62
725.417	-9.62
725.443	-7.62
725.468	3.38
725.494	1.38
725.52	18.38
725.545	-1.62
725.571	4.38
725.597	-1.62
725.622	22.38
725.648	-1.62
725.674	10.38
725.699	2.38
725.725	-1.62
725.75	33.38
725.776	-1.62
725.802	3.38
725.827	0.38
725.853	-2.62
725.878	-8.62
725.904	-3.62
725.93	3.38
725.955	-6.62
725.981	-7.62
726.006	-8.62
726.032	24.38
726.057	8.38
726.083	-10.62
726.109	5.38
726.134	-4.62
726.16	-18.62
726.185	-4.62
726.211	-4.62
726.236	19.38
726.262	-0.62
726.288	7.38
726.313	14.38
726.339	14.38
726.364	11.38
726.39	10.38
726.415	-5.62
726.441	-20.62
726.466	-5.62
726.492	-4.62
726.517	9.38
726.543	7.38
726.568	-5.62
726.594	-2.62
726.619	-5.62
726.645	12.38
726.67	14.38
726.696	7.38
726.721	-16.62
726.747	-1.62
726.772	-6.62
726.798	9.38
726.823	11.38
726.849	6.38
726.874	3.38
726.9	23.38
726.925	11.38
726.951	-1.62
726.976	13.38
727.002	9.38
727.027	10.38
727.053	5.38
727.078	-6.62
727.104	-1.62
727.129	-18.62
727.155	-0.62
727.18	4.38
727.205	-8.62
727.231	2.38
727.256	0.38
727.282	0.38
727.307	5.38
727.333	9.38
727.358	-8.62
727.383	-16.62
727.409	-13.62
727.434	0.38
727.46	-4.62
727.485	-1.62
727.511	7.38
727.536	-16.62
727.561	5.38
727.587	1.38
727.612	3.38
727.637	10.38
727.663	-7.62
727.688	27.38
727.714	-2.62
727.739	2.38
727.764	1.38
727.79	10.38
727.815	7.38
727.841	12.38
727.866	-2.62
727.891	-1.62
727.917	-12.62
727.942	-20.62
727.967	-10.62
727.993	-15.62
728.018	-4.62
728.043	-11.62
728.069	12.38
728.094	5.38
728.119	0.38
728.145	25.38
728.17	20.38
728.195	-2.62
728.221	-4.62
728.246	-16.62
728.271	-15.62
728.297	6.38
728.322	2.38
728.347	8.38
728.373	-5.62
728.398	3.38
728.423	-8.62
728.448	1.38
728.474	0.38
728.499	4.38
728.524	-8.62
728.55	-9.62
728.575	2.38
728.6	7.38
728.625	-1.62
728.651	-2.62
728.676	-15.62
728.701	-12.62
728.727	1.38
728.752	-1.62
728.777	-1.62
728.802	-2.62
728.828	3.38
728.853	-4.62
728.878	-7.62
728.903	0.38
728.929	-8.62
728.954	-17.62
728.979	6.38
729.004	-20.62
729.03	-17.62
729.055	0.38
729.08	-4.62
729.105	-0.62
729.13	-0.62
729.156	3.38
729.181	-4.62
729.206	-25.62
729.231	-11.62
729.256	-1.62
729.282	5.38
729.307	-18.62
729.332	-15.62
729.357	-3.62
729.382	3.38
729.408	7.38
729.433	19.38
729.458	11.38
729.483	11.38
729.508	17.38
729.533	-2.62
729.559	-3.62
729.584	-9.62
729.609	8.38
729.634	20.38
729.659	-8.62
729.684	-6.62
729.71	29.38
729.735	5.38
729.76	9.38
729.785	-0.62
729.81	-3.62
729.835	-7.62
729.86	-7.62
729.886	17.38
729.911	8.38
729.936	-5.62
729.961	4.38
729.986	-7.62
730.011	-7.62
730.036	2.38
730.061	7.38
730.086	11.38
730.112	7.38
730.137	11.38
730.162	10.38
730.187	-6.62
730.212	13.38
730.237	-11.62
730.262	-2.62
730.287	2.38
730.312	14.38
730.337	-18.62
730.362	21.38
730.387	1.38
730.413	-16.62
730.438	-14.62
730.463	-2.62
730.488	-8.62
730.513	0.38
730.538	-18.62
730.563	2.38
730.588	-3.62
730.613	8.38
730.638	-2.62
730.663	-14.62
730.688	14.38
730.713	-0.62
730.738	3.38
730.763	-6.62
730.788	-16.62
730.813	5.38
730.838	1.38
730.863	3.38
730.888	-6.62
730.913	0.38
730.938	-6.62
730.963	-9.62
730.988	5.38
731.013	10.38
731.038	5.38
731.063	-7.62
731.088	2.38
731.113	-12.62
731.138	-10.62
731.163	-0.62
731.188	-14.62
731.213	0.38
731.238	-6.62
731.263	-15.62
731.288	-5.62
731.313	10.38
731.338	-4.62
731.363	-8.62
731.388	2.38
731.413	-5.62
731.438	9.38
731.463	7.38
731.487	3.38
731.512	-3.62
731.537	-26.62
731.562	-2.62
731.587	8.38
731.612	-1.62
731.637	-1.62
731.662	-0.62
731.687	-2.62
731.712	-8.62
731.737	9.38
731.762	-7.62
731.786	-0.62
731.811	-4.62
731.836	-11.62
731.861	9.38
731.886	6.38
731.911	6.38
731.936	11.38
731.961	-1.62
731.986	0.38
732.01	5.38
732.035	-7.62
732.06	14.38
732.085	-6.62
732.11	9.38
732.135	-7.62
732.16	-5.62
732.184	-8.62
732.209	2.38
732.234	10.38
732.259	-5.62
732.284	19.38
732.309	-7.62
732.334	2.38
732.358	-24.62
732.383	-12.62
732.408	-13.62
732.433	-4.62
732.458	1.38
732.482	3.38
732.507	11.38
732.532	-2.62
732.557	7.38
732.582	10.38
732.607	-12.62
732.631	-17.62
732.656	-10.62
732.681	-3.62
732.706	-11.62
732.73	-4.62
732.755	2.38
732.78	-5.62
732.805	7.38
732.83	12.38
732.854	2.38
732.879	15.38
732.904	-10.62
732.929	3.38
732.953	-0.62
732.978	1.38
733.003	-13.62
733.028	-5.62
733.052	6.38
733.077	3.38
733.102	-0.62
733.127	-0.62
733.151	1.38
733.176	3.38
733.201	-0.62
733.226	-10.62
733.25	1.38
733.275	-4.62
733.3	-7.62
733.324	3.38
733.349	3.38
733.374	-6.62
733.399	-2.62
733.423	-0.62
733.448	-2.62
733.473	-8.62
733.497	-14.62
733.522	-18.62
733.547	12.38
733.571	10.38
733.596	6.38
733.621	5.38
733.646	2.38
733.67	-3.62
733.695	-14.62
733.72	7.38
733.744	2.38
733.769	-7.62
733.794	3.38
733.818	6.38
733.843	-6.62
733.867	-14.62
733.892	-20.62
733.917	1.38
733.941	-2.62
733.966	-7.62
733.991	-2.62
734.015	1.38
734.04	6.38
734.065	1.38
734.089	1.38
734.114	1.38
734.138	-12.62
734.163	2.38
734.188	7.38
734.212	11.38
734.237	5.38
734.261	3.38
734.286	6.38
734.311	-7.62
734.335	-12.62
734.36	-8.62
734.384	7.38
734.409	5.38
734.434	-0.62
734.458	-0.62
734.483	-10.62
734.507	-25.62
734.532	-15.62
734.556	-16.62
734.581	-25.62
734.606	4.38
734.63	-10.62
734.655	-8.62
734.679	-9.62
734.704	-8.62
734.728	-18.62
734.753	-7.62
734.777	13.38
734.802	-2.62
734.826	0.38
734.851	7.38
734.876	13.38
734.9	2.38
734.925	9.38
734.949	3.38
734.974	-12.62
734.998	11.38
735.023	2.38
735.047	-9.62
735.072	20.38
735.096	-4.62
735.121	0.38
735.145	7.38
735.17	-7.62
735.194	-0.62
735.219	2.38
735.243	-10.62
735.268	1.38
735.292	-7.62
735.317	-0.62
735.341	9.38
735.365	-12.62
735.39	8.38
735.414	6.38
735.439	-10.62
735.463	-9.62
735.488	9.38
735.512	8.38
735.537	-6.62
735.561	-5.62
735.586	-6.62
735.61	-10.62
735.634	-5.62
735.659	1.38
735.683	9.38
735.708	-8.62
735.732	-11.62
735.757	-9.62
735.781	-5.62
735.805	6.38
735.83	-10.62
735.854	-1.62
735.879	0.38
735.903	11.38
735.927	14.38
735.952	5.38
735.976	6.38
736.001	6.38
736.025	5.38
736.049	-5.62
736.074	-3.62
736.098	-1.62
736.123	0.38
736.147	3.38
736.171	3.38
736.196	-5.62
736.22	-14.62
736.244	-0.62
736.269	-2.62
736.293	-5.62
736.317	0.38
736.342	5.38
736.366	9.38
736.39	10.38
736.415	9.38
736.439	2.38
736.463	15.38
736.488	16.38
736.512	15.38
736.536	3.38
736.561	14.38
736.585	5.38
736.609	-2.62
736.634	-7.62
736.658	17.38
736.682	-9.62
736.707	-8.62
736.731	-1.62
736.755	-9.62
736.78	18.38
736.804	20.38
736.828	13.38
736.852	-6.62
736.877	-5.62
736.901	10.38
736.925	2.38
736.949	-3.62
736.974	-9.62
736.998	-7.62
737.022	4.38
737.047	-4.62
737.071	9.38
737.095	20.38
737.119	18.38
737.144	1.38
737.168	-5.62
737.192	-0.62
737.216	-6.62
737.241	-18.62
737.265	-6.62
737.289	-7.62
737.313	-11.62
737.337	1.38
737.362	0.38
737.386	-4.62
737.41	1.38
737.434	-2.62
737.459	5.38
737.483	15.38
737.507	14.38
737.531	5.38
737.555	-0.62
737.58	13.38
737.604	4.38
737.628	-10.62
737.652	4.38
737.676	0.38
737.701	-8.62
737.725	12.38
737.749	19.38
737.773	9.38
737.797	-9.62
737.821	-11.62
737.846	-8.62
737.87	22.38
737.894	2.38
737.918	-1.62
737.942	-6.62
737.966	13.38
737.99	10.38
738.015	-6.62
738.039	-1.62
738.063	-4.62
738.087	12.38
738.111	0.38
738.135	16.38
738.159	1.38
738.184	8.38
738.208	-1.62
738.232	3.38
738.256	5.38
738.28	2.38
738.304	5.38
738.328	1.38
738.352	1.38
738.376	0.38
738.4	-2.62
738.425	2.38
738.449	-5.62
738.473	-1.62
738.497	-12.62
738.521	-2.62
738.545	11.38
738.569	18.38
738.593	11.38
738.617	2.38
738.641	-3.62
738.665	3.38
738.689	10.38
738.713	-10.62
738.737	6.38
738.762	17.38
738.786	4.38
738.81	-6.62
738.834	25.38
738.858	-0.62
738.882	8.38
738.906	-0.62
738.93	2.38
738.954	-1.62
738.978	-1.62
739.002	-3.62
739.026	26.38
739.05	1.38
739.074	-2.62
739.098	27.38
739.122	21.38
739.146	-2.62
739.17	6.38
739.194	23.38
739.218	-4.62
739.242	-1.62
739.266	-9.62
739.29	11.38
739.314	22.38
739.338	1.38
739.362	-2.62
739.386	3.38
739.41	-0.62
739.434	-1.62
739.458	-1.62
739.482	3.38
739.506	10.38
739.53	-15.62
739.554	8.38
739.577	-4.62
739.601	-0.62
739.625	-22.62
739.649	-1.62
739.673	-5.62
739.697	8.38
739.721	-5.62
739.745	1.38
739.769	15.38
739.793	18.38
739.817	7.38
739.841	5.38
739.865	4.38
739.889	-18.62
739.912	0.38
739.936	-9.62
739.96	-10.62
739.984	18.38
740.008	-1.62
740.032	-7.62
740.056	-3.62
740.08	5.38
740.104	-6.62
740.127	-6.62
740.151	10.38
740.175	5.38
740.199	2.38
740.223	39.38
740.247	-1.62
740.271	1.38
740.295	-18.62
740.318	-4.62
740.342	-2.62
740.366	0.38
740.39	13.38
740.414	-8.62
740.438	6.38
740.461	29.38
740.485	4.38
740.509	-9.62
740.533	-0.62
740.557	-2.62
740.581	-18.62
740.604	-18.62
740.628	-9.62
740.652	4.38
740.676	14.38
740.7	5.38
740.723	-2.62
740.747	-1.62
740.771	5.38
740.795	12.38
740.819	5.38
740.842	10.38
740.866	3.38
740.89	-3.62
740.914	6.38
740.938	1.38
740.961	31.38
740.985	-0.62
741.009	-2.62
741.033	16.38
741.056	3.38
741.08	-6.62
741.104	-12.62
741.128	1.38
741.151	-0.62
741.175	-8.62
741.199	8.38
741.223	4.38
741.246	-10.62
741.27	21.38
741.294	12.38
741.318	-4.62
741.341	7.38
741.365	-7.62
741.389	3.38
741.413	7.38
741.436	16.38
741.46	3.38
741.484	3.38
741.507	2.38
741.531	19.38
741.555	8.38
741.579	1.38
741.602	15.38
741.626	7.38
741.65	-4.62
741.673	6.38
741.697	0.38
741.721	-0.62
741.744	-8.62
741.768	-12.62
741.792	-2.62
741.815	-2.62
741.839	11.38
741.863	22.38
741.886	8.38
741.91	12.38
741.934	-0.62
741.957	-11.62
741.981	-1.62
742.005	-0.62
742.028	8.38
742.052	-4.62
742.075	19.38
742.099	19.38
742.123	7.38
742.146	11.38
742.17	-2.62
742.194	-15.62
742.217	3.38
742.241	-3.62
742.264	-3.62
742.288	11.38
742.312	-7.62
742.335	9.38
742.359	-8.62
742.382	19.38
742.406	14.38
742.43	-6.62
742.453	12.38
742.477	-8.62
742.5	14.38
742.524	-16.62
742.548	-17.62
742.571	-10.62
742.595	7.38
742.618	-2.62
742.642	1.38
742.665	12.38
742.689	-4.62
742.712	7.38
742.736	2.38
742.76	-7.62
742.783	-1.62
742.807	9.38
742.83	9.38
742.854	-6.62
742.877	-0.62
742.901	-14.62
742.924	-6.62
742.948	3.38
742.971	-1.62
742.995	-2.62
743.018	2.38
743.042	5.38
743.065	-7.62
743.089	-6.62
743.112	10.38
743.136	-13.62
743.159	-5.62
743.183	2.38
743.206	18.38
743.23	-0.62
743.253	16.38
743.277	-4.62
743.3	5.38
743.324	6.38
743.347	-6.62
743.371	16.38
743.394	6.38
743.418	21.38
743.441	-0.62
743.465	1.38
743.488	-0.62
743.512	1.38
743.535	0.38
743.558	3.38
743.582	1.38
743.605	4.38
743.629	7.38
743.652	4.38
743.676	15.38
743.699	11.38
743.723	2.38
743.746	15.38
743.769	-12.62
743.793	4.38
743.816	3.38
743.84	10.38
743.863	-7.62
743.886	11.38
743.91	18.38
743.933	11.38
743.957	15.38
743.98	-2.62
744.003	3.38
744.027	-7.62
744.05	-6.62
744.074	9.38
744.097	-9.62
744.12	4.38
744.144	-18.62
744.167	-4.62
744.19	-6.62
744.214	10.38
744.237	2.38
744.26	14.38
744.284	1.38
744.307	-4.62
744.331	7.38
744.354	17.38
744.377	-2.62
744.401	6.38
744.424	11.38
744.447	-14.62
744.471	-11.62
