Data from HighRes_H2_15_09_11_07_2024_HR4C61891__152__15-11-11-601.txt Node

Date: Thu Nov 07 15:11:11 EST 2024
User: crc00042
Spectrometer: HR4C6189
Trigger mode: 4
Integration Time (sec): 1.000000E-1
Scans to average: 1
Electric dark correction enabled: true
Nonlinearity correction enabled: false
Boxcar width: 0
XAxis mode: Wavelengths
Number of Pixels in Spectrum: 3648
>>>>>Begin Spectral Data<<<<<
639.567	-47.85
639.602	-47.85
639.636	-47.85
639.67	-25.85
639.704	-10.85
639.738	5.15
639.773	20.15
639.807	-12.85
639.841	-0.85
639.875	17.15
639.909	6.15
639.943	7.15
639.978	-5.85
640.012	3.15
640.046	-1.85
640.08	-5.85
640.114	-8.85
640.148	-22.85
640.182	-15.85
640.217	0.15
640.251	27.15
640.285	14.15
640.319	-10.85
640.353	3.15
640.387	14.15
640.421	1.15
640.455	-4.85
640.49	2.15
640.524	3.15
640.558	10.15
640.592	-0.85
640.626	-8.85
640.66	16.15
640.694	-4.85
640.728	2.15
640.762	11.15
640.796	19.15
640.83	7.15
640.865	2.15
640.899	11.15
640.933	-0.85
640.967	-5.85
641.001	7.15
641.035	17.15
641.069	-8.85
641.103	5.15
641.137	13.15
641.171	-9.85
641.205	1.15
641.239	3.15
641.273	7.15
641.307	8.15
641.341	2.15
641.375	3.15
641.409	-9.85
641.443	8.15
641.477	11.15
641.511	6.15
641.545	10.15
641.579	-4.85
641.614	-3.85
641.648	-0.85
641.682	-4.85
641.716	2.15
641.75	5.15
641.784	9.15
641.818	7.15
641.852	20.15
641.886	-4.85
641.919	22.15
641.953	-2.85
641.987	9.15
642.021	-0.85
642.055	9.15
642.089	0.15
642.123	-2.85
642.157	-1.85
642.191	6.15
642.225	-4.85
642.259	5.15
642.293	9.15
642.327	6.15
642.361	3.15
642.395	8.15
642.429	16.15
642.463	11.15
642.497	15.15
642.531	5.15
642.565	-5.85
642.599	20.15
642.633	6.15
642.666	13.15
642.7	22.15
642.734	14.15
642.768	-5.85
642.802	-2.85
642.836	-0.85
642.87	0.15
642.904	6.15
642.938	9.15
642.972	9.15
643.005	0.15
643.039	11.15
643.073	-5.85
643.107	19.15
643.141	18.15
643.175	5.15
643.209	8.15
643.243	6.15
643.276	2.15
643.31	-3.85
643.344	-7.85
643.378	5.15
643.412	14.15
643.446	0.15
643.48	-4.85
643.513	9.15
643.547	8.15
643.581	7.15
643.615	-3.85
643.649	2.15
643.683	7.15
643.716	1.15
643.75	0.15
643.784	9.15
643.818	23.15
643.852	-4.85
643.886	1.15
643.919	11.15
643.953	12.15
643.987	13.15
644.021	18.15
644.055	2.15
644.088	0.15
644.122	2.15
644.156	-5.85
644.19	10.15
644.224	9.15
644.257	9.15
644.291	21.15
644.325	6.15
644.359	5.15
644.392	27.15
644.426	25.15
644.46	17.15
644.494	12.15
644.527	-11.85
644.561	-7.85
644.595	15.15
644.629	-2.85
644.662	0.15
644.696	16.15
644.73	20.15
644.764	0.15
644.797	-0.85
644.831	-12.85
644.865	13.15
644.899	18.15
644.932	29.15
644.966	6.15
645	16.15
645.033	29.15
645.067	6.15
645.101	13.15
645.135	8.15
645.168	3.15
645.202	-3.85
645.236	-0.85
645.269	15.15
645.303	-17.85
645.337	3.15
645.37	-5.85
645.404	13.15
645.438	9.15
645.471	-18.85
645.505	17.15
645.539	8.15
645.572	-5.85
645.606	-6.85
645.64	3.15
645.673	1.15
645.707	36.15
645.741	7.15
645.774	-16.85
645.808	8.15
645.842	-1.85
645.875	4.15
645.909	-2.85
645.943	-0.85
645.976	11.15
646.01	15.15
646.043	13.15
646.077	5.15
646.111	15.15
646.144	17.15
646.178	8.15
646.212	-22.85
646.245	-5.85
646.279	-5.85
646.312	-4.85
646.346	-0.85
646.38	6.15
646.413	8.15
646.447	9.15
646.48	-0.85
646.514	19.15
646.547	4.15
646.581	3.15
646.615	-2.85
646.648	-7.85
646.682	12.15
646.715	-10.85
646.749	-0.85
646.782	3.15
646.816	3.15
646.85	10.15
646.883	6.15
646.917	2.15
646.95	-1.85
646.984	7.15
647.017	16.15
647.051	2.15
647.084	-0.85
647.118	-1.85
647.151	11.15
647.185	5.15
647.218	-19.85
647.252	0.15
647.285	-11.85
647.319	-3.85
647.353	8.15
647.386	21.15
647.42	-6.85
647.453	-16.85
647.487	2.15
647.52	10.15
647.553	15.15
647.587	9.15
647.62	-11.85
647.654	7.15
647.687	0.15
647.721	-4.85
647.754	6.15
647.788	3.15
647.821	-9.85
647.855	16.15
647.888	11.15
647.922	6.15
647.955	10.15
647.989	-3.85
648.022	-1.85
648.055	3.15
648.089	1.15
648.122	24.15
648.156	20.15
648.189	15.15
648.223	-0.85
648.256	-0.85
648.29	19.15
648.323	3.15
648.356	9.15
648.39	2.15
648.423	1.15
648.457	-3.85
648.49	21.15
648.523	20.15
648.557	8.15
648.59	11.15
648.624	1.15
648.657	12.15
648.69	19.15
648.724	-0.85
648.757	15.15
648.791	14.15
648.824	18.15
648.857	30.15
648.891	19.15
648.924	6.15
648.957	20.15
648.991	-16.85
649.024	15.15
649.057	-4.85
649.091	5.15
649.124	8.15
649.158	14.15
649.191	29.15
649.224	-6.85
649.258	10.15
649.291	12.15
649.324	16.15
649.358	5.15
649.391	-7.85
649.424	19.15
649.458	10.15
649.491	3.15
649.524	6.15
649.557	-18.85
649.591	4.15
649.624	8.15
649.657	-2.85
649.691	8.15
649.724	-13.85
649.757	-2.85
649.791	-2.85
649.824	23.15
649.857	17.15
649.89	11.15
649.924	-16.85
649.957	2.15
649.99	4.15
650.023	9.15
650.057	-5.85
650.09	11.15
650.123	4.15
650.157	22.15
650.19	14.15
650.223	-3.85
650.256	-7.85
650.29	1.15
650.323	7.15
650.356	21.15
650.389	3.15
650.423	-0.85
650.456	16.15
650.489	13.15
650.522	10.15
650.555	16.15
650.589	32.15
650.622	4.15
650.655	26.15
650.688	2.15
650.721	12.15
650.755	3.15
650.788	12.15
650.821	22.15
650.854	4.15
650.887	8.15
650.921	6.15
650.954	7.15
650.987	6.15
651.02	-11.85
651.053	-13.85
651.087	3.15
651.12	9.15
651.153	2.15
651.186	2.15
651.219	7.15
651.252	9.15
651.286	10.15
651.319	-10.85
651.352	-5.85
651.385	-5.85
651.418	14.15
651.451	31.15
651.484	13.15
651.518	-4.85
651.551	16.15
651.584	2.15
651.617	14.15
651.65	16.15
651.683	21.15
651.716	0.15
651.749	-0.85
651.783	-8.85
651.816	2.15
651.849	8.15
651.882	-8.85
651.915	13.15
651.948	15.15
651.981	-0.85
652.014	-13.85
652.047	-14.85
652.08	-0.85
652.114	5.15
652.147	7.15
652.18	8.15
652.213	33.15
652.246	3.15
652.279	2.15
652.312	3.15
652.345	15.15
652.378	19.15
652.411	7.15
652.444	8.15
652.477	6.15
652.51	-12.85
652.543	-3.85
652.576	7.15
652.609	9.15
652.642	7.15
652.675	1.15
652.709	-3.85
652.742	6.15
652.775	-0.85
652.808	10.15
652.841	-0.85
652.874	8.15
652.907	2.15
652.94	-9.85
652.973	-8.85
653.006	-15.85
653.039	6.15
653.072	18.15
653.105	12.15
653.138	-7.85
653.171	-22.85
653.204	-1.85
653.237	4.15
653.27	5.15
653.303	12.15
653.336	13.15
653.368	7.15
653.401	22.15
653.434	-2.85
653.467	12.15
653.5	-5.85
653.533	-8.85
653.566	17.15
653.599	5.15
653.632	3.15
653.665	10.15
653.698	9.15
653.731	-7.85
653.764	4.15
653.797	6.15
653.83	2.15
653.863	-6.85
653.896	-4.85
653.929	14.15
653.961	5.15
653.994	2.15
654.027	-8.85
654.06	6.15
654.093	3.15
654.126	7.15
654.159	-12.85
654.192	9.15
654.225	-8.85
654.258	10.15
654.29	5.15
654.323	18.15
654.356	2.15
654.389	9.15
654.422	11.15
654.455	6.15
654.488	-6.85
654.521	-21.85
654.553	-13.85
654.586	14.15
654.619	-2.85
654.652	3.15
654.685	22.15
654.718	5.15
654.751	15.15
654.783	9.15
654.816	19.15
654.849	-4.85
654.882	-11.85
654.915	-5.85
654.948	-9.85
654.98	4.15
655.013	2.15
655.046	0.15
655.079	-7.85
655.112	1.15
655.144	-6.85
655.177	12.15
655.21	25.15
655.243	16.15
655.276	8.15
655.308	8.15
655.341	-14.85
655.374	17.15
655.407	3.15
655.44	16.15
655.472	24.15
655.505	13.15
655.538	11.15
655.571	12.15
655.603	26.15
655.636	8.15
655.669	24.15
655.702	25.15
655.734	8.15
655.767	21.15
655.8	15.15
655.833	15.15
655.865	39.15
655.898	34.15
655.931	29.15
655.964	46.15
655.996	59.15
656.029	75.15
656.062	75.15
656.095	77.15
656.127	55.15
656.16	88.15
656.193	125.15
656.225	157.15
656.258	287.15
656.291	506.15
656.324	1111.15
656.356	3388.15
656.389	7549.15
656.422	6060.15
656.454	2062.15
656.487	653.15
656.52	258.15
656.552	127.15
656.585	74.15
656.618	62.15
656.65	50.15
656.683	27.15
656.716	11.15
656.748	22.15
656.781	-8.85
656.814	-0.85
656.846	11.15
656.879	14.15
656.912	11.15
656.944	4.15
656.977	-17.85
657.01	0.15
657.042	6.15
657.075	21.15
657.108	2.15
657.14	14.15
657.173	12.15
657.205	32.15
657.238	11.15
657.271	-12.85
657.303	-17.85
657.336	3.15
657.369	-4.85
657.401	-3.85
657.434	-0.85
657.466	23.15
657.499	-6.85
657.532	-0.85
657.564	1.15
657.597	-1.85
657.629	2.15
657.662	3.15
657.694	11.15
657.727	8.15
657.76	9.15
657.792	5.15
657.825	-8.85
657.857	-2.85
657.89	-3.85
657.922	7.15
657.955	-12.85
657.987	-0.85
658.02	10.15
658.053	9.15
658.085	3.15
658.118	-11.85
658.15	12.15
658.183	19.15
658.215	-4.85
658.248	2.15
658.28	-6.85
658.313	2.15
658.345	10.15
658.378	5.15
658.41	12.15
658.443	14.15
658.475	16.15
658.508	-5.85
658.54	7.15
658.573	10.15
658.605	1.15
658.638	-3.85
658.67	-0.85
658.703	-3.85
658.735	3.15
658.768	19.15
658.8	-10.85
658.833	20.15
658.865	4.15
658.898	8.15
658.93	10.15
658.963	4.15
658.995	-17.85
659.028	-4.85
659.06	-9.85
659.092	20.15
659.125	0.15
659.157	6.15
659.19	-6.85
659.222	5.15
659.255	16.15
659.287	9.15
659.32	2.15
659.352	1.15
659.384	13.15
659.417	9.15
659.449	14.15
659.482	15.15
659.514	-8.85
659.546	18.15
659.579	3.15
659.611	4.15
659.644	-3.85
659.676	-16.85
659.708	-8.85
659.741	4.15
659.773	-1.85
659.806	10.15
659.838	13.15
659.87	-5.85
659.903	-23.85
659.935	2.15
659.967	9.15
660	6.15
660.032	-28.85
660.065	17.15
660.097	12.15
660.129	2.15
660.162	-8.85
660.194	4.15
660.226	19.15
660.259	6.15
660.291	13.15
660.323	4.15
660.356	-1.85
660.388	2.15
660.42	-5.85
660.453	4.15
660.485	24.15
660.517	16.15
660.55	8.15
660.582	0.15
660.614	12.15
660.647	6.15
660.679	-16.85
660.711	-2.85
660.743	-13.85
660.776	-5.85
660.808	2.15
660.84	12.15
660.873	-0.85
660.905	-5.85
660.937	11.15
660.969	10.15
661.002	10.15
661.034	5.15
661.066	2.15
661.099	13.15
661.131	16.15
661.163	8.15
661.195	0.15
661.228	13.15
661.26	8.15
661.292	12.15
661.324	15.15
661.357	14.15
661.389	14.15
661.421	-1.85
661.453	6.15
661.485	-5.85
661.518	-12.85
661.55	-11.85
661.582	-6.85
661.614	11.15
661.647	13.15
661.679	14.15
661.711	14.15
661.743	-12.85
661.775	10.15
661.808	30.15
661.84	-1.85
661.872	5.15
661.904	9.15
661.936	0.15
661.969	-5.85
662.001	4.15
662.033	0.15
662.065	3.15
662.097	5.15
662.129	29.15
662.162	14.15
662.194	4.15
662.226	-12.85
662.258	3.15
662.29	6.15
662.322	1.15
662.355	5.15
662.387	24.15
662.419	2.15
662.451	3.15
662.483	8.15
662.515	2.15
662.547	-9.85
662.58	7.15
662.612	1.15
662.644	-9.85
662.676	2.15
662.708	11.15
662.74	5.15
662.772	8.15
662.804	8.15
662.836	22.15
662.869	14.15
662.901	6.15
662.933	-5.85
662.965	-0.85
662.997	6.15
663.029	-11.85
663.061	-6.85
663.093	-7.85
663.125	-5.85
663.157	13.15
663.189	6.15
663.221	5.15
663.254	12.15
663.286	8.15
663.318	0.15
663.35	-9.85
663.382	20.15
663.414	10.15
663.446	-2.85
663.478	-17.85
663.51	29.15
663.542	-1.85
663.574	-2.85
663.606	-8.85
663.638	-2.85
663.67	-11.85
663.702	-0.85
663.734	0.15
663.766	20.15
663.798	8.15
663.83	11.15
663.862	21.15
663.894	13.15
663.926	5.15
663.958	7.15
663.99	3.15
664.022	-1.85
664.054	14.15
664.086	-10.85
664.118	2.15
664.15	4.15
664.182	-1.85
664.214	-6.85
664.246	14.15
664.278	9.15
664.31	25.15
664.342	4.15
664.374	5.15
664.406	6.15
664.438	-6.85
664.47	22.15
664.502	3.15
664.534	6.15
664.566	-11.85
664.598	9.15
664.63	-0.85
664.662	5.15
664.693	-3.85
664.725	6.15
664.757	6.15
664.789	-6.85
664.821	14.15
664.853	10.15
664.885	3.15
664.917	-4.85
664.949	12.15
664.981	13.15
665.013	-0.85
665.045	6.15
665.076	4.15
665.108	5.15
665.14	6.15
665.172	-4.85
665.204	-1.85
665.236	-6.85
665.268	1.15
665.3	-4.85
665.331	4.15
665.363	3.15
665.395	-21.85
665.427	3.15
665.459	7.15
665.491	6.15
665.523	19.15
665.555	-6.85
665.586	-5.85
665.618	-14.85
665.65	-10.85
665.682	15.15
665.714	34.15
665.746	-21.85
665.777	3.15
665.809	5.15
665.841	5.15
665.873	1.15
665.905	15.15
665.937	12.15
665.968	5.15
666	6.15
666.032	13.15
666.064	8.15
666.096	16.15
666.127	13.15
666.159	13.15
666.191	11.15
666.223	11.15
666.255	13.15
666.286	-0.85
666.318	4.15
666.35	16.15
666.382	7.15
666.413	12.15
666.445	-12.85
666.477	-20.85
666.509	-3.85
666.54	10.15
666.572	-15.85
666.604	-1.85
666.636	2.15
666.667	21.15
666.699	22.15
666.731	3.15
666.763	2.15
666.794	16.15
666.826	-0.85
666.858	-21.85
666.89	24.15
666.921	15.15
666.953	5.15
666.985	6.15
667.017	21.15
667.048	3.15
667.08	-6.85
667.112	-6.85
667.143	-0.85
667.175	18.15
667.207	11.15
667.238	-1.85
667.27	8.15
667.302	21.15
667.334	4.15
667.365	18.15
667.397	11.15
667.429	-0.85
667.46	-0.85
667.492	-2.85
667.524	8.15
667.555	6.15
667.587	10.15
667.619	6.15
667.65	2.15
667.682	13.15
667.714	8.15
667.745	16.15
667.777	-3.85
667.808	19.15
667.84	26.15
667.872	14.15
667.903	30.15
667.935	13.15
667.967	2.15
667.998	13.15
668.03	16.15
668.061	3.15
668.093	4.15
668.125	8.15
668.156	-5.85
668.188	-10.85
668.22	-6.85
668.251	12.15
668.283	16.15
668.314	21.15
668.346	-4.85
668.377	11.15
668.409	9.15
668.441	18.15
668.472	5.15
668.504	4.15
668.535	0.15
668.567	8.15
668.599	9.15
668.63	6.15
668.662	5.15
668.693	21.15
668.725	-0.85
668.756	15.15
668.788	-8.85
668.819	11.15
668.851	6.15
668.882	-0.85
668.914	-1.85
668.946	3.15
668.977	14.15
669.009	10.15
669.04	-22.85
669.072	10.15
669.103	17.15
669.135	-1.85
669.166	6.15
669.198	10.15
669.229	7.15
669.261	11.15
669.292	-7.85
669.324	4.15
669.355	-6.85
669.387	15.15
669.418	7.15
669.45	2.15
669.481	16.15
669.513	9.15
669.544	-3.85
669.576	9.15
669.607	12.15
669.639	5.15
669.67	2.15
669.701	5.15
669.733	1.15
669.764	3.15
669.796	13.15
669.827	7.15
669.859	1.15
669.89	13.15
669.922	17.15
669.953	18.15
669.985	3.15
670.016	11.15
670.047	-1.85
670.079	-9.85
670.11	7.15
670.142	12.15
670.173	6.15
670.204	5.15
670.236	12.15
670.267	12.15
670.299	14.15
670.33	-15.85
670.362	0.15
670.393	8.15
670.424	14.15
670.456	-4.85
670.487	-11.85
670.518	-5.85
670.55	1.15
670.581	5.15
670.613	0.15
670.644	9.15
670.675	1.15
670.707	-0.85
670.738	2.15
670.769	7.15
670.801	-8.85
670.832	27.15
670.864	6.15
670.895	-5.85
670.926	2.15
670.958	13.15
670.989	-4.85
671.02	-1.85
671.052	-10.85
671.083	6.15
671.114	6.15
671.146	19.15
671.177	10.15
671.208	0.15
671.24	-18.85
671.271	-0.85
671.302	6.15
671.333	14.15
671.365	-14.85
671.396	0.15
671.427	23.15
671.459	2.15
671.49	13.15
671.521	-5.85
671.553	16.15
671.584	20.15
671.615	-1.85
671.646	10.15
671.678	10.15
671.709	-16.85
671.74	-7.85
671.771	0.15
671.803	-4.85
671.834	-1.85
671.865	6.15
671.896	23.15
671.928	9.15
671.959	-8.85
671.99	-4.85
672.021	-20.85
672.053	3.15
672.084	10.15
672.115	15.15
672.146	-6.85
672.178	-14.85
672.209	-5.85
672.24	5.15
672.271	23.15
672.303	11.15
672.334	-9.85
672.365	-10.85
672.396	2.15
672.427	18.15
672.459	17.15
672.49	15.15
672.521	-0.85
672.552	8.15
672.583	15.15
672.615	3.15
672.646	17.15
672.677	-4.85
672.708	9.15
672.739	-0.85
672.77	8.15
672.802	20.15
672.833	6.15
672.864	12.15
672.895	1.15
672.926	-10.85
672.957	0.15
672.989	-2.85
673.02	9.15
673.051	2.15
673.082	4.15
673.113	1.15
673.144	4.15
673.175	10.15
673.206	8.15
673.238	5.15
673.269	-5.85
673.3	-12.85
673.331	8.15
673.362	-1.85
673.393	-1.85
673.424	14.15
673.455	9.15
673.487	19.15
673.518	17.15
673.549	12.15
673.58	-1.85
673.611	8.15
673.642	5.15
673.673	-18.85
673.704	8.15
673.735	5.15
673.766	3.15
673.797	3.15
673.828	7.15
673.86	-9.85
673.891	5.15
673.922	-9.85
673.953	-2.85
673.984	12.15
674.015	7.15
674.046	-17.85
674.077	1.15
674.108	-8.85
674.139	-7.85
674.17	9.15
674.201	-6.85
674.232	-6.85
674.263	-18.85
674.294	-0.85
674.325	-15.85
674.356	10.15
674.387	20.15
674.418	21.15
674.449	1.15
674.48	-19.85
674.511	5.15
674.542	2.15
674.573	-6.85
674.604	14.15
674.635	-9.85
674.666	6.15
674.697	3.15
674.728	-0.85
674.759	6.15
674.79	-12.85
674.821	5.15
674.852	-12.85
674.883	-16.85
674.914	-0.85
674.945	14.15
674.976	23.15
675.007	5.15
675.038	-18.85
675.069	-6.85
675.1	4.15
675.131	-2.85
675.162	-7.85
675.193	10.15
675.224	1.15
675.254	1.15
675.285	2.15
675.316	15.15
675.347	3.15
675.378	2.15
675.409	3.15
675.44	11.15
675.471	1.15
675.502	-10.85
675.533	6.15
675.564	-0.85
675.595	18.15
675.625	28.15
675.656	3.15
675.687	-7.85
675.718	-4.85
675.749	6.15
675.78	6.15
675.811	-13.85
675.842	5.15
675.873	-4.85
675.903	-7.85
675.934	-12.85
675.965	13.15
675.996	-1.85
676.027	15.15
676.058	0.15
676.089	-2.85
676.119	9.15
676.15	4.15
676.181	-13.85
676.212	-3.85
676.243	15.15
676.274	-1.85
676.304	13.15
676.335	-17.85
676.366	2.15
676.397	-11.85
676.428	1.15
676.459	13.15
676.489	6.15
676.52	15.15
676.551	6.15
676.582	-11.85
676.613	-7.85
676.643	-17.85
676.674	16.15
676.705	12.15
676.736	2.15
676.767	26.15
676.797	20.15
676.828	8.15
676.859	-2.85
676.89	8.15
676.92	15.15
676.951	16.15
676.982	21.15
677.013	12.15
677.044	24.15
677.074	9.15
677.105	-6.85
677.136	17.15
677.167	-1.85
677.197	7.15
677.228	13.15
677.259	-8.85
677.289	9.15
677.32	-8.85
677.351	-2.85
677.382	-8.85
677.412	11.15
677.443	13.15
677.474	-4.85
677.505	-2.85
677.535	13.15
677.566	-17.85
677.597	-9.85
677.627	-7.85
677.658	8.15
677.689	-10.85
677.72	7.15
677.75	-0.85
677.781	-2.85
677.812	4.15
677.842	7.15
677.873	-10.85
677.904	-7.85
677.934	7.15
677.965	11.15
677.996	-10.85
678.026	-9.85
678.057	3.15
678.088	-13.85
678.118	4.15
678.149	4.15
678.18	-10.85
678.21	6.15
678.241	15.15
678.272	-1.85
678.302	18.15
678.333	8.15
678.363	20.15
678.394	-0.85
678.425	-9.85
678.455	-2.85
678.486	18.15
678.517	12.15
678.547	-1.85
678.578	9.15
678.608	3.15
678.639	5.15
678.67	2.15
678.7	5.15
678.731	6.15
678.761	9.15
678.792	-5.85
678.823	7.15
678.853	3.15
678.884	-2.85
678.914	1.15
678.945	2.15
678.975	1.15
679.006	4.15
679.037	-13.85
679.067	18.15
679.098	4.15
679.128	-2.85
679.159	-3.85
679.189	15.15
679.22	-5.85
679.25	9.15
679.281	-5.85
679.312	-10.85
679.342	-3.85
679.373	24.15
679.403	-0.85
679.434	11.15
679.464	7.15
679.495	3.15
679.525	-1.85
679.556	-9.85
679.586	13.15
679.617	5.15
679.647	16.15
679.678	-0.85
679.708	5.15
679.739	15.15
679.769	1.15
679.8	-3.85
679.83	-0.85
679.861	7.15
679.891	-5.85
679.922	-4.85
679.952	-10.85
679.983	8.15
680.013	-0.85
680.044	-12.85
680.074	1.15
680.105	2.15
680.135	0.15
680.165	1.15
680.196	14.15
680.226	2.15
680.257	10.15
680.287	2.15
680.318	-11.85
680.348	0.15
680.379	6.15
680.409	6.15
680.439	9.15
680.47	2.15
680.5	12.15
680.531	11.15
680.561	12.15
680.592	-6.85
680.622	10.15
680.652	-6.85
680.683	-5.85
680.713	2.15
680.744	-12.85
680.774	-11.85
680.804	18.15
680.835	3.15
680.865	-1.85
680.896	9.15
680.926	15.15
680.956	5.15
680.987	13.15
681.017	-3.85
681.047	13.15
681.078	6.15
681.108	7.15
681.139	10.15
681.169	10.15
681.199	-13.85
681.23	5.15
681.26	1.15
681.29	2.15
681.321	2.15
681.351	2.15
681.381	-5.85
681.412	1.15
681.442	6.15
681.472	24.15
681.503	-4.85
681.533	6.15
681.563	-3.85
681.594	-11.85
681.624	5.15
681.654	-17.85
681.685	0.15
681.715	2.15
681.745	4.15
681.775	-10.85
681.806	-8.85
681.836	-2.85
681.866	-12.85
681.897	4.15
681.927	-9.85
681.957	-21.85
681.987	10.15
682.018	9.15
682.048	-2.85
682.078	2.15
682.109	22.15
682.139	10.15
682.169	20.15
682.199	10.15
682.23	-11.85
682.26	2.15
682.29	-0.85
682.32	-2.85
682.351	3.15
682.381	-5.85
682.411	12.15
682.441	-1.85
682.472	1.15
682.502	2.15
682.532	-11.85
682.562	-13.85
682.592	-1.85
682.623	13.15
682.653	3.15
682.683	-0.85
682.713	2.15
682.743	5.15
682.774	10.15
682.804	-5.85
682.834	15.15
682.864	9.15
682.894	10.15
682.925	9.15
682.955	-1.85
682.985	-10.85
683.015	4.15
683.045	-2.85
683.076	-0.85
683.106	-8.85
683.136	0.15
683.166	0.15
683.196	2.15
683.226	-6.85
683.257	-5.85
683.287	6.15
683.317	2.15
683.347	6.15
683.377	-11.85
683.407	4.15
683.437	16.15
683.468	4.15
683.498	-8.85
683.528	6.15
683.558	-11.85
683.588	5.15
683.618	-13.85
683.648	0.15
683.678	10.15
683.708	18.15
683.739	5.15
683.769	6.15
683.799	-1.85
683.829	-7.85
683.859	20.15
683.889	8.15
683.919	0.15
683.949	1.15
683.979	8.15
684.009	9.15
684.039	5.15
684.07	-8.85
684.1	9.15
684.13	15.15
684.16	9.15
684.19	-13.85
684.22	1.15
684.25	9.15
684.28	7.15
684.31	10.15
684.34	6.15
684.37	5.15
684.4	-2.85
684.43	-6.85
684.46	-0.85
684.49	2.15
684.52	13.15
684.55	13.15
684.58	9.15
684.61	11.15
684.64	7.15
684.67	5.15
684.7	-0.85
684.73	13.15
684.76	17.15
684.79	17.15
684.82	-4.85
684.85	-9.85
684.88	12.15
684.91	-0.85
684.94	-11.85
684.97	-6.85
685	-0.85
685.03	11.15
685.06	2.15
685.09	12.15
685.12	0.15
685.15	-4.85
685.18	20.15
685.21	-3.85
685.24	-12.85
685.27	4.15
685.3	-2.85
685.33	1.15
685.36	-5.85
685.39	7.15
685.42	1.15
685.45	2.15
685.48	5.15
685.51	-10.85
685.54	26.15
685.569	13.15
685.599	20.15
685.629	12.15
685.659	-5.85
685.689	-8.85
685.719	-0.85
685.749	-6.85
685.779	13.15
685.809	14.15
685.839	4.15
685.869	1.15
685.898	2.15
685.928	-3.85
685.958	10.15
685.988	23.15
686.018	7.15
686.048	11.15
686.078	26.15
686.108	8.15
686.137	-5.85
686.167	13.15
686.197	-21.85
686.227	-6.85
686.257	28.15
686.287	30.15
686.317	6.15
686.346	-0.85
686.376	-11.85
686.406	-10.85
686.436	12.15
686.466	4.15
686.496	13.15
686.525	-3.85
686.555	-5.85
686.585	6.15
686.615	24.15
686.645	-0.85
686.675	-2.85
686.704	14.15
686.734	25.15
686.764	-1.85
686.794	9.15
686.824	-2.85
686.853	17.15
686.883	9.15
686.913	15.15
686.943	7.15
686.973	-7.85
687.002	8.15
687.032	11.15
687.062	2.15
687.092	-0.85
687.121	-2.85
687.151	6.15
687.181	15.15
687.211	7.15
687.24	0.15
687.27	5.15
687.3	8.15
687.33	3.15
687.359	-12.85
687.389	17.15
687.419	10.15
687.449	-5.85
687.478	-4.85
687.508	-6.85
687.538	8.15
687.568	18.15
687.597	-21.85
687.627	-3.85
687.657	6.15
687.686	20.15
687.716	28.15
687.746	-15.85
687.776	-5.85
687.805	10.15
687.835	-19.85
687.865	21.15
687.894	6.15
687.924	6.15
687.954	3.15
687.983	-2.85
688.013	11.15
688.043	18.15
688.072	6.15
688.102	6.15
688.132	4.15
688.161	0.15
688.191	0.15
688.221	29.15
688.25	-17.85
688.28	16.15
688.31	-0.85
688.339	5.15
688.369	3.15
688.399	-11.85
688.428	-6.85
688.458	-13.85
688.488	-1.85
688.517	4.15
688.547	-4.85
688.576	28.15
688.606	23.15
688.636	0.15
688.665	2.15
688.695	10.15
688.725	34.15
688.754	19.15
688.784	11.15
688.813	34.15
688.843	-21.85
688.873	-10.85
688.902	2.15
688.932	-10.85
688.961	14.15
688.991	25.15
689.02	13.15
689.05	-18.85
689.08	6.15
689.109	19.15
689.139	10.15
689.168	9.15
689.198	-3.85
689.227	3.15
689.257	8.15
689.287	16.15
689.316	-5.85
689.346	-2.85
689.375	-10.85
689.405	3.15
689.434	-13.85
689.464	1.15
689.493	-5.85
689.523	6.15
689.552	-0.85
689.582	3.15
689.611	4.15
689.641	-4.85
689.67	15.15
689.7	10.15
689.73	15.15
689.759	0.15
689.789	7.15
689.818	8.15
689.848	-1.85
689.877	21.15
689.906	1.15
689.936	-12.85
689.965	11.15
689.995	4.15
690.024	7.15
690.054	-2.85
690.083	1.15
690.113	-4.85
690.142	-11.85
690.172	10.15
690.201	5.15
690.231	2.15
690.26	3.15
690.29	-1.85
690.319	10.15
690.348	9.15
690.378	12.15
690.407	5.15
690.437	-12.85
690.466	4.15
690.496	5.15
690.525	15.15
690.555	7.15
690.584	5.15
690.613	-1.85
690.643	7.15
690.672	16.15
690.702	4.15
690.731	14.15
690.76	3.15
690.79	8.15
690.819	-15.85
690.849	7.15
690.878	3.15
690.907	-5.85
690.937	6.15
690.966	18.15
690.996	0.15
691.025	-0.85
691.054	1.15
691.084	-5.85
691.113	15.15
691.142	16.15
691.172	7.15
691.201	27.15
691.23	3.15
691.26	20.15
691.289	18.15
691.319	2.15
691.348	4.15
691.377	13.15
691.407	2.15
691.436	4.15
691.465	9.15
691.495	2.15
691.524	2.15
691.553	-4.85
691.583	-1.85
691.612	15.15
691.641	6.15
691.67	4.15
691.7	10.15
691.729	-12.85
691.758	20.15
691.788	11.15
691.817	2.15
691.846	0.15
691.876	3.15
691.905	-0.85
691.934	-9.85
691.963	19.15
691.993	3.15
692.022	6.15
692.051	-10.85
692.081	3.15
692.11	11.15
692.139	3.15
692.168	7.15
692.198	25.15
692.227	12.15
692.256	4.15
692.285	9.15
692.315	-1.85
692.344	2.15
692.373	12.15
692.402	-3.85
692.432	1.15
692.461	-8.85
692.49	-7.85
692.519	3.15
692.548	21.15
692.578	16.15
692.607	7.15
692.636	3.15
692.665	24.15
692.694	10.15
692.724	2.15
692.753	19.15
692.782	17.15
692.811	-3.85
692.84	5.15
692.87	-5.85
692.899	-0.85
692.928	5.15
692.957	16.15
692.986	15.15
693.016	13.15
693.045	21.15
693.074	6.15
693.103	-4.85
693.132	6.15
693.161	5.15
693.191	2.15
693.22	-5.85
693.249	5.15
693.278	-11.85
693.307	3.15
693.336	3.15
693.365	2.15
693.395	-3.85
693.424	10.15
693.453	27.15
693.482	14.15
693.511	14.15
693.54	9.15
693.569	7.15
693.598	9.15
693.628	13.15
693.657	23.15
693.686	24.15
693.715	18.15
693.744	13.15
693.773	11.15
693.802	7.15
693.831	-2.85
693.86	6.15
693.889	-8.85
693.919	8.15
693.948	2.15
693.977	23.15
694.006	-8.85
694.035	3.15
694.064	2.15
694.093	0.15
694.122	-2.85
694.151	6.15
694.18	2.15
694.209	12.15
694.238	6.15
694.267	30.15
694.296	5.15
694.325	26.15
694.354	27.15
694.383	19.15
694.412	15.15
694.441	5.15
694.471	8.15
694.5	-2.85
694.529	15.15
694.558	11.15
694.587	28.15
694.616	9.15
694.645	7.15
694.674	11.15
694.703	13.15
694.732	15.15
694.761	19.15
694.79	18.15
694.819	5.15
694.848	2.15
694.877	18.15
694.906	11.15
694.935	18.15
694.963	22.15
694.992	13.15
695.021	-3.85
695.05	6.15
695.079	13.15
695.108	10.15
695.137	23.15
695.166	10.15
695.195	3.15
695.224	13.15
695.253	-1.85
695.282	-5.85
695.311	6.15
695.34	-8.85
695.369	8.15
695.398	10.15
695.427	29.15
695.456	18.15
695.485	8.15
695.513	-0.85
695.542	11.15
695.571	3.15
695.6	25.15
695.629	6.15
695.658	6.15
695.687	5.15
695.716	0.15
695.745	20.15
695.774	-3.85
695.802	9.15
695.831	13.15
695.86	19.15
695.889	15.15
695.918	-3.85
695.947	-3.85
695.976	10.15
696.005	9.15
696.033	17.15
696.062	20.15
696.091	12.15
696.12	2.15
696.149	18.15
696.178	13.15
696.207	8.15
696.235	2.15
696.264	6.15
696.293	14.15
696.322	4.15
696.351	12.15
696.38	3.15
696.408	10.15
696.437	-2.85
696.466	3.15
696.495	16.15
696.524	3.15
696.553	10.15
696.581	8.15
696.61	6.15
696.639	7.15
696.668	11.15
696.697	2.15
696.725	23.15
696.754	11.15
696.783	7.15
696.812	3.15
696.84	10.15
696.869	3.15
696.898	-2.85
696.927	3.15
696.956	11.15
696.984	6.15
697.013	8.15
697.042	3.15
697.071	3.15
697.099	12.15
697.128	24.15
697.157	31.15
697.186	0.15
697.214	0.15
697.243	16.15
697.272	14.15
697.301	12.15
697.329	13.15
697.358	2.15
697.387	26.15
697.415	17.15
697.444	14.15
697.473	6.15
697.502	1.15
697.53	6.15
697.559	14.15
697.588	11.15
697.616	14.15
697.645	6.15
697.674	20.15
697.703	3.15
697.731	6.15
697.76	12.15
697.789	10.15
697.817	10.15
697.846	32.15
697.875	14.15
697.903	15.15
697.932	-7.85
697.961	9.15
697.989	15.15
698.018	7.15
698.047	12.15
698.075	13.15
698.104	-1.85
698.133	-2.85
698.161	-8.85
698.19	12.15
698.218	-2.85
698.247	14.15
698.276	-1.85
698.304	18.15
698.333	7.15
698.362	17.15
698.39	13.15
698.419	18.15
698.447	2.15
698.476	-1.85
698.505	21.15
698.533	13.15
698.562	13.15
698.591	9.15
698.619	5.15
698.648	-2.85
698.676	17.15
698.705	-5.85
698.733	-3.85
698.762	11.15
698.791	2.15
698.819	15.15
698.848	9.15
698.876	20.15
698.905	23.15
698.933	15.15
698.962	28.15
698.991	22.15
699.019	26.15
699.048	5.15
699.076	13.15
699.105	-0.85
699.133	-13.85
699.162	11.15
699.19	16.15
699.219	16.15
699.248	2.15
699.276	-5.85
699.305	-1.85
699.333	12.15
699.362	7.15
699.39	21.15
699.419	-1.85
699.447	16.15
699.476	18.15
699.504	-4.85
699.533	9.15
699.561	3.15
699.59	11.15
699.618	-10.85
699.647	11.15
699.675	11.15
699.704	15.15
699.732	3.15
699.761	9.15
699.789	2.15
699.818	9.15
699.846	-7.85
699.874	0.15
699.903	-2.85
699.931	-0.85
699.96	2.15
699.988	5.15
700.017	0.15
700.045	2.15
700.074	0.15
700.102	1.15
700.13	4.15
700.159	13.15
700.187	17.15
700.216	4.15
700.244	3.15
700.273	20.15
700.301	19.15
700.329	15.15
700.358	19.15
700.386	0.15
700.415	3.15
700.443	-1.85
700.472	5.15
700.5	7.15
700.528	-6.85
700.557	11.15
700.585	0.15
700.614	13.15
700.642	16.15
700.67	33.15
700.699	5.15
700.727	-9.85
700.755	7.15
700.784	-1.85
700.812	9.15
700.841	-1.85
700.869	3.15
700.897	-3.85
700.926	11.15
700.954	7.15
700.982	19.15
701.011	5.15
701.039	14.15
701.067	8.15
701.096	17.15
701.124	1.15
701.152	5.15
701.181	3.15
701.209	-7.85
701.237	19.15
701.266	-10.85
701.294	-8.85
701.322	3.15
701.351	14.15
701.379	-2.85
701.407	-0.85
701.435	5.15
701.464	10.15
701.492	24.15
701.52	-5.85
701.549	-4.85
701.577	-1.85
701.605	6.15
701.634	10.15
701.662	23.15
701.69	1.15
701.718	-1.85
701.747	9.15
701.775	3.15
701.803	1.15
701.831	21.15
701.86	2.15
701.888	3.15
701.916	-4.85
701.944	6.15
701.973	4.15
702.001	-4.85
702.029	-5.85
702.057	-7.85
702.086	3.15
702.114	16.15
702.142	15.15
702.17	10.15
702.199	14.15
702.227	9.15
702.255	-0.85
702.283	11.15
702.311	28.15
702.34	5.15
702.368	-13.85
702.396	-4.85
702.424	-7.85
702.452	4.15
702.481	-1.85
702.509	-0.85
702.537	4.15
702.565	6.15
702.593	5.15
702.621	19.15
702.65	18.15
702.678	3.15
702.706	-14.85
702.734	-3.85
702.762	17.15
702.79	18.15
702.819	1.15
702.847	8.15
702.875	9.15
702.903	6.15
702.931	1.15
702.959	-4.85
702.988	2.15
703.016	-0.85
703.044	11.15
703.072	1.15
703.1	7.15
703.128	-3.85
703.156	13.15
703.184	-0.85
703.212	16.15
703.241	4.15
703.269	1.15
703.297	-0.85
703.325	-1.85
703.353	-6.85
703.381	6.15
703.409	15.15
703.437	3.15
703.465	7.15
703.493	-8.85
703.522	-2.85
703.55	1.15
703.578	13.15
703.606	9.15
703.634	12.15
703.662	-1.85
703.69	9.15
703.718	12.15
703.746	33.15
703.774	6.15
703.802	22.15
703.83	-2.85
703.858	-1.85
703.886	-0.85
703.914	-6.85
703.942	7.15
703.97	-5.85
703.998	-2.85
704.027	20.15
704.055	17.15
704.083	10.15
704.111	8.15
704.139	8.15
704.167	1.15
704.195	12.15
704.223	7.15
704.251	-4.85
704.279	13.15
704.307	7.15
704.335	3.15
704.363	-5.85
704.391	-7.85
704.419	-1.85
704.447	2.15
704.475	11.15
704.503	-5.85
704.531	22.15
704.558	15.15
704.586	15.15
704.614	8.15
704.642	-4.85
704.67	-5.85
704.698	4.15
704.726	3.15
704.754	-3.85
704.782	-3.85
704.81	2.15
704.838	33.15
704.866	13.15
704.894	-6.85
704.922	5.15
704.95	11.15
704.978	15.15
705.006	6.15
705.034	20.15
705.061	-11.85
705.089	-1.85
705.117	-3.85
705.145	5.15
705.173	3.15
705.201	-2.85
705.229	7.15
705.257	-2.85
705.285	20.15
705.313	11.15
705.34	0.15
705.368	-19.85
705.396	-0.85
705.424	8.15
705.452	-5.85
705.48	6.15
705.508	12.15
705.536	-2.85
705.563	3.15
705.591	13.15
705.619	14.15
705.647	-12.85
705.675	1.15
705.703	8.15
705.731	11.15
705.758	14.15
705.786	2.15
705.814	28.15
705.842	6.15
705.87	21.15
705.898	15.15
705.925	-17.85
705.953	8.15
705.981	-9.85
706.009	6.15
706.037	11.15
706.065	20.15
706.092	5.15
706.12	6.15
706.148	-12.85
706.176	-5.85
706.204	5.15
706.231	16.15
706.259	2.15
706.287	6.15
706.315	4.15
706.342	-12.85
706.37	15.15
706.398	-0.85
706.426	8.15
706.454	9.15
706.481	2.15
706.509	6.15
706.537	3.15
706.565	2.15
706.592	27.15
706.62	-7.85
706.648	-4.85
706.676	-30.85
706.703	-12.85
706.731	-1.85
706.759	-14.85
706.787	18.15
706.814	-2.85
706.842	0.15
706.87	-2.85
706.897	-3.85
706.925	-8.85
706.953	16.15
706.981	21.15
707.008	9.15
707.036	-1.85
707.064	-2.85
707.091	-4.85
707.119	0.15
707.147	8.15
707.174	1.15
707.202	24.15
707.23	2.15
707.258	12.15
707.285	-10.85
707.313	-1.85
707.341	-1.85
707.368	-2.85
707.396	0.15
707.424	21.15
707.451	-2.85
707.479	18.15
707.507	9.15
707.534	-13.85
707.562	1.15
707.59	-8.85
707.617	0.15
707.645	11.15
707.672	6.15
707.7	7.15
707.728	15.15
707.755	17.15
707.783	11.15
707.811	9.15
707.838	-4.85
707.866	6.15
707.893	16.15
707.921	2.15
707.949	15.15
707.976	-2.85
708.004	13.15
708.031	10.15
708.059	6.15
708.087	9.15
708.114	-1.85
708.142	11.15
708.169	-6.85
708.197	-13.85
708.225	-7.85
708.252	2.15
708.28	15.15
708.307	1.15
708.335	1.15
708.362	-4.85
708.39	-8.85
708.418	4.15
708.445	1.15
708.473	1.15
708.5	5.15
708.528	2.15
708.555	-22.85
708.583	1.15
708.61	9.15
708.638	8.15
708.665	10.15
708.693	-1.85
708.72	3.15
708.748	-3.85
708.776	-9.85
708.803	9.15
708.831	6.15
708.858	9.15
708.886	5.15
708.913	7.15
708.941	-11.85
708.968	-5.85
708.996	-4.85
709.023	28.15
709.051	4.15
709.078	-12.85
709.105	-2.85
709.133	0.15
709.16	-5.85
709.188	15.15
709.215	10.15
709.243	3.15
709.27	-11.85
709.298	1.15
709.325	-6.85
709.353	-0.85
709.38	9.15
709.408	27.15
709.435	12.15
709.462	15.15
709.49	-2.85
709.517	-5.85
709.545	3.15
709.572	-0.85
709.6	-5.85
709.627	5.15
709.655	-9.85
709.682	-2.85
709.709	10.15
709.737	-6.85
709.764	-4.85
709.792	0.15
709.819	12.15
709.846	-3.85
709.874	5.15
709.901	17.15
709.929	21.15
709.956	15.15
709.983	-6.85
710.011	-1.85
710.038	-1.85
710.066	3.15
710.093	18.15
710.12	11.15
710.148	-0.85
710.175	-10.85
710.202	-5.85
710.23	12.15
710.257	6.15
710.284	7.15
710.312	4.15
710.339	-0.85
710.366	12.15
710.394	-12.85
710.421	7.15
710.448	-1.85
710.476	-16.85
710.503	1.15
710.53	6.15
710.558	7.15
710.585	4.15
710.612	-3.85
710.64	2.15
710.667	6.15
710.694	-12.85
710.722	15.15
710.749	-0.85
710.776	1.15
710.804	10.15
710.831	7.15
710.858	6.15
710.885	7.15
710.913	-5.85
710.94	21.15
710.967	5.15
710.995	-0.85
711.022	9.15
711.049	-13.85
711.076	-3.85
711.104	-1.85
711.131	-21.85
711.158	1.15
711.185	29.15
711.213	-7.85
711.24	2.15
711.267	6.15
711.294	5.15
711.322	9.15
711.349	-2.85
711.376	10.15
711.403	7.15
711.431	-6.85
711.458	4.15
711.485	3.15
711.512	1.15
711.54	-12.85
711.567	5.15
711.594	-5.85
711.621	-1.85
711.648	-0.85
711.676	11.15
711.703	2.15
711.73	1.15
711.757	6.15
711.784	11.15
711.812	-0.85
711.839	1.15
711.866	-11.85
711.893	-14.85
711.92	3.15
711.947	3.15
711.975	21.15
712.002	-12.85
712.029	-1.85
712.056	4.15
712.083	13.15
712.11	-1.85
712.138	-1.85
712.165	15.15
712.192	-4.85
712.219	-1.85
712.246	-3.85
712.273	-0.85
712.3	-3.85
712.328	12.15
712.355	-2.85
712.382	-5.85
712.409	-0.85
712.436	-2.85
712.463	2.15
712.49	8.15
712.517	4.15
712.544	-8.85
712.572	4.15
712.599	4.15
712.626	9.15
712.653	-2.85
712.68	-15.85
712.707	1.15
712.734	3.15
712.761	-1.85
712.788	17.15
712.815	5.15
712.842	30.15
712.87	-1.85
712.897	-6.85
712.924	0.15
712.951	7.15
712.978	0.15
713.005	12.15
713.032	6.15
713.059	4.15
713.086	-5.85
713.113	6.15
713.14	7.15
713.167	14.15
713.194	18.15
713.221	0.15
713.248	11.15
713.275	2.15
713.302	-1.85
713.329	13.15
713.356	22.15
713.383	0.15
713.41	5.15
713.437	-9.85
713.464	3.15
713.491	2.15
713.518	10.15
713.545	4.15
713.572	1.15
713.599	22.15
713.626	2.15
713.653	10.15
713.68	0.15
713.707	-10.85
713.734	3.15
713.761	9.15
713.788	-5.85
713.815	1.15
713.842	-4.85
713.869	-7.85
713.896	15.15
713.923	4.15
713.95	8.15
713.977	3.15
714.004	8.15
714.031	-1.85
714.058	7.15
714.085	7.15
714.112	17.15
714.139	6.15
714.165	5.15
714.192	10.15
714.219	14.15
714.246	0.15
714.273	1.15
714.3	1.15
714.327	12.15
714.354	22.15
714.381	-10.85
714.408	2.15
714.435	-0.85
714.461	-6.85
714.488	-0.85
714.515	-1.85
714.542	9.15
714.569	-6.85
714.596	-20.85
714.623	-7.85
714.65	-8.85
714.677	-4.85
714.703	-2.85
714.73	-5.85
714.757	12.15
714.784	7.15
714.811	-4.85
714.838	-4.85
714.865	-9.85
714.891	16.15
714.918	1.15
714.945	-6.85
714.972	-9.85
714.999	5.15
715.026	-3.85
715.052	28.15
715.079	17.15
715.106	3.15
715.133	9.15
715.16	-8.85
715.187	5.15
715.213	12.15
715.24	-7.85
715.267	-22.85
715.294	-9.85
715.321	-12.85
715.347	-4.85
715.374	-11.85
715.401	-1.85
715.428	1.15
715.455	-1.85
715.481	6.15
715.508	11.15
715.535	-8.85
715.562	17.15
715.588	-2.85
715.615	-13.85
715.642	-0.85
715.669	5.15
715.695	-13.85
715.722	-11.85
715.749	9.15
715.776	26.15
715.802	-0.85
715.829	14.15
715.856	-5.85
715.883	7.15
715.909	6.15
715.936	-4.85
715.963	13.15
715.99	-18.85
716.016	9.15
716.043	6.15
716.07	-3.85
716.096	-11.85
716.123	-6.85
716.15	3.15
716.177	11.15
716.203	5.15
716.23	15.15
716.257	3.15
716.283	3.15
716.31	14.15
716.337	3.15
716.363	-9.85
716.39	-13.85
716.417	8.15
716.443	10.15
716.47	17.15
716.497	-1.85
716.523	23.15
716.55	10.15
716.577	17.15
716.603	-8.85
716.63	11.15
716.657	22.15
716.683	4.15
716.71	3.15
716.737	-5.85
716.763	7.15
716.79	-0.85
716.817	14.15
716.843	11.15
716.87	5.15
716.897	-9.85
716.923	28.15
716.95	-9.85
716.976	7.15
717.003	6.15
717.03	6.15
717.056	-1.85
717.083	7.15
717.109	18.15
717.136	13.15
717.163	6.15
717.189	3.15
717.216	11.15
717.242	6.15
717.269	-0.85
717.296	11.15
717.322	9.15
717.349	3.15
717.375	1.15
717.402	1.15
717.428	-0.85
717.455	14.15
717.481	-4.85
717.508	6.15
717.535	18.15
717.561	-5.85
717.588	-4.85
717.614	0.15
717.641	8.15
717.667	7.15
717.694	6.15
717.72	1.15
717.747	2.15
717.773	-5.85
717.8	-0.85
717.826	8.15
717.853	14.15
717.88	23.15
717.906	-3.85
717.933	-0.85
717.959	15.15
717.986	22.15
718.012	-1.85
718.039	3.15
718.065	12.15
718.092	-1.85
718.118	-6.85
718.144	-3.85
718.171	-1.85
718.197	17.15
718.224	18.15
718.25	8.15
718.277	10.15
718.303	4.15
718.33	-4.85
718.356	-0.85
718.383	5.15
718.409	-7.85
718.436	3.15
718.462	4.15
718.489	-1.85
718.515	6.15
718.541	13.15
718.568	19.15
718.594	-1.85
718.621	10.15
718.647	-1.85
718.674	4.15
718.7	11.15
718.726	6.15
718.753	18.15
718.779	9.15
718.806	4.15
718.832	-4.85
718.858	11.15
718.885	-7.85
718.911	-6.85
718.938	23.15
718.964	1.15
718.99	-0.85
719.017	-5.85
719.043	11.15
719.07	17.15
719.096	3.15
719.122	15.15
719.149	4.15
719.175	1.15
719.201	-3.85
719.228	-0.85
719.254	-11.85
719.281	-4.85
719.307	-3.85
719.333	-4.85
719.36	24.15
719.386	4.15
719.412	22.15
719.439	-2.85
719.465	-0.85
719.491	3.15
719.518	19.15
719.544	6.15
719.57	14.15
719.597	11.15
719.623	-8.85
719.649	3.15
719.675	3.15
719.702	18.15
719.728	10.15
719.754	-22.85
719.781	-4.85
719.807	9.15
719.833	2.15
719.86	9.15
719.886	-1.85
719.912	-4.85
719.938	1.15
719.965	6.15
719.991	12.15
720.017	16.15
720.044	-6.85
720.07	8.15
720.096	22.15
720.122	13.15
720.149	16.15
720.175	26.15
720.201	13.15
720.227	9.15
720.254	-0.85
720.28	6.15
720.306	-2.85
720.332	-10.85
720.359	1.15
720.385	13.15
720.411	2.15
720.437	14.15
720.463	14.15
720.49	4.15
720.516	-13.85
720.542	-26.85
720.568	11.15
720.595	19.15
720.621	22.15
720.647	18.15
720.673	19.15
720.699	-3.85
720.725	17.15
720.752	23.15
720.778	18.15
720.804	13.15
720.83	23.15
720.856	-2.85
720.883	-11.85
720.909	-9.85
720.935	4.15
720.961	12.15
720.987	1.15
721.013	24.15
721.04	-2.85
721.066	-3.85
721.092	5.15
721.118	20.15
721.144	9.15
721.17	-1.85
721.196	-4.85
721.223	-5.85
721.249	-1.85
721.275	15.15
721.301	-9.85
721.327	14.15
721.353	7.15
721.379	9.15
721.405	22.15
721.432	3.15
721.458	-0.85
721.484	-1.85
721.51	-24.85
721.536	-13.85
721.562	13.15
721.588	-0.85
721.614	-10.85
721.64	-4.85
721.666	14.15
721.693	-2.85
721.719	7.15
721.745	-6.85
721.771	-0.85
721.797	8.15
721.823	11.15
721.849	17.15
721.875	5.15
721.901	0.15
721.927	-4.85
721.953	-3.85
721.979	15.15
722.005	25.15
722.031	-2.85
722.057	-0.85
722.083	6.15
722.109	19.15
722.135	-0.85
722.161	11.15
722.187	-7.85
722.214	-2.85
722.24	-0.85
722.266	-20.85
722.292	8.15
722.318	4.15
722.344	1.15
722.37	2.15
722.396	14.15
722.422	10.15
722.448	-5.85
722.474	-18.85
722.5	7.15
722.526	4.15
722.552	7.15
722.578	1.15
722.603	7.15
722.629	6.15
722.655	2.15
722.681	-5.85
722.707	-14.85
722.733	-11.85
722.759	-5.85
722.785	-12.85
722.811	14.15
722.837	11.15
722.863	4.15
722.889	10.15
722.915	2.15
722.941	-3.85
722.967	-0.85
722.993	1.15
723.019	7.15
723.045	15.15
723.071	-2.85
723.097	0.15
723.122	14.15
723.148	-8.85
723.174	-0.85
723.2	-9.85
723.226	-0.85
723.252	-1.85
723.278	1.15
723.304	-4.85
723.33	-1.85
723.356	-6.85
723.381	1.15
723.407	-2.85
723.433	12.15
723.459	-4.85
723.485	7.15
723.511	15.15
723.537	-5.85
723.563	22.15
723.588	10.15
723.614	16.15
723.64	9.15
723.666	8.15
723.692	2.15
723.718	2.15
723.744	20.15
723.769	-14.85
723.795	-15.85
723.821	6.15
723.847	-3.85
723.873	9.15
723.899	14.15
723.924	13.15
723.95	26.15
723.976	2.15
724.002	2.15
724.028	9.15
724.053	-19.85
724.079	-4.85
724.105	-2.85
724.131	-6.85
724.157	-1.85
724.182	12.15
724.208	0.15
724.234	6.15
724.26	1.15
724.286	8.15
724.311	-8.85
724.337	-8.85
724.363	-1.85
724.389	14.15
724.415	11.15
724.44	23.15
724.466	6.15
724.492	0.15
724.518	13.15
724.543	-4.85
724.569	7.15
724.595	4.15
724.621	-5.85
724.646	-1.85
724.672	-3.85
724.698	1.15
724.723	-2.85
724.749	9.15
724.775	9.15
724.801	2.15
724.826	1.15
724.852	3.15
724.878	-14.85
724.904	-4.85
724.929	15.15
724.955	-8.85
724.981	1.15
725.006	-9.85
725.032	-9.85
725.058	5.15
725.083	-6.85
725.109	5.15
725.135	1.15
725.161	26.15
725.186	-3.85
725.212	3.15
725.238	3.15
725.263	4.15
725.289	-1.85
725.315	12.15
725.34	-1.85
725.366	18.15
725.392	2.15
725.417	-6.85
725.443	9.15
725.468	12.15
725.494	-0.85
725.52	16.15
725.545	1.15
725.571	-5.85
725.597	3.15
725.622	11.15
725.648	0.15
725.674	7.15
725.699	13.15
725.725	-4.85
725.75	25.15
725.776	8.15
725.802	2.15
725.827	10.15
725.853	-1.85
725.878	6.15
725.904	16.15
725.93	10.15
725.955	-20.85
725.981	-3.85
726.006	1.15
726.032	18.15
726.057	2.15
726.083	-5.85
726.109	6.15
726.134	2.15
726.16	8.15
726.185	7.15
726.211	-10.85
726.236	3.15
726.262	5.15
726.288	1.15
726.313	8.15
726.339	6.15
726.364	9.15
726.39	4.15
726.415	-1.85
726.441	-1.85
726.466	9.15
726.492	-5.85
726.517	0.15
726.543	-7.85
726.568	1.15
726.594	-6.85
726.619	4.15
726.645	7.15
726.67	-0.85
726.696	4.15
726.721	7.15
726.747	0.15
726.772	0.15
726.798	-5.85
726.823	7.15
726.849	-2.85
726.874	3.15
726.9	13.15
726.925	-4.85
726.951	16.15
726.976	1.15
727.002	0.15
727.027	9.15
727.053	2.15
727.078	8.15
727.104	-2.85
727.129	-13.85
727.155	-5.85
727.18	9.15
727.205	15.15
727.231	1.15
727.256	3.15
727.282	0.15
727.307	12.15
727.333	-6.85
727.358	-2.85
727.383	-13.85
727.409	-4.85
727.434	21.15
727.46	10.15
727.485	1.15
727.511	-8.85
727.536	-11.85
727.561	-14.85
727.587	-8.85
727.612	-2.85
727.637	18.15
727.663	2.15
727.688	6.15
727.714	1.15
727.739	-3.85
727.764	-1.85
727.79	10.15
727.815	-2.85
727.841	10.15
727.866	2.15
727.891	10.15
727.917	-7.85
727.942	-19.85
727.967	5.15
727.993	-3.85
728.018	6.15
728.043	3.15
728.069	2.15
728.094	21.15
728.119	10.15
728.145	29.15
728.17	4.15
728.195	-1.85
728.221	17.15
728.246	2.15
728.271	-18.85
728.297	-2.85
728.322	2.15
728.347	6.15
728.373	7.15
728.398	7.15
728.423	9.15
728.448	6.15
728.474	14.15
728.499	3.15
728.524	-13.85
728.55	-10.85
728.575	3.15
728.6	0.15
728.625	-1.85
728.651	9.15
728.676	16.15
728.701	6.15
728.727	-2.85
728.752	-0.85
728.777	7.15
728.802	13.15
728.828	-2.85
728.853	-13.85
728.878	6.15
728.903	6.15
728.929	-0.85
728.954	-4.85
728.979	5.15
729.004	-8.85
729.03	-11.85
729.055	16.15
729.08	-0.85
729.105	-5.85
729.13	18.15
729.156	16.15
729.181	12.15
729.206	-20.85
729.231	-1.85
729.256	4.15
729.282	3.15
729.307	3.15
729.332	-5.85
729.357	-6.85
729.382	-4.85
729.408	-4.85
729.433	21.15
729.458	3.15
729.483	6.15
729.508	39.15
729.533	8.15
729.559	12.15
729.584	-13.85
729.609	6.15
729.634	7.15
729.659	-7.85
729.684	-10.85
729.71	2.15
729.735	0.15
729.76	-10.85
729.785	-1.85
729.81	2.15
729.835	-7.85
729.86	-0.85
729.886	12.15
729.911	14.15
729.936	-10.85
729.961	-0.85
729.986	-2.85
730.011	9.15
730.036	-6.85
730.061	5.15
730.086	21.15
730.112	2.15
730.137	22.15
730.162	2.15
730.187	-10.85
730.212	7.15
730.237	10.15
730.262	8.15
730.287	0.15
730.312	18.15
730.337	9.15
730.362	10.15
730.387	7.15
730.413	-1.85
730.438	-16.85
730.463	-0.85
730.488	-1.85
730.513	-5.85
730.538	3.15
730.563	6.15
730.588	-6.85
730.613	5.15
730.638	3.15
730.663	-5.85
730.688	7.15
730.713	2.15
730.738	22.15
730.763	2.15
730.788	7.15
730.813	11.15
730.838	1.15
730.863	0.15
730.888	1.15
730.913	-9.85
730.938	-21.85
730.963	-13.85
730.988	-11.85
731.013	6.15
731.038	-2.85
731.063	-14.85
731.088	6.15
731.113	3.15
731.138	14.15
731.163	4.15
731.188	-0.85
731.213	4.15
731.238	13.15
731.263	-9.85
731.288	-11.85
731.313	1.15
731.338	-1.85
731.363	-9.85
731.388	-5.85
731.413	1.15
731.438	-7.85
731.463	9.15
731.487	10.15
731.512	8.15
731.537	-4.85
731.562	3.15
731.587	12.15
731.612	-0.85
731.637	5.15
731.662	15.15
731.687	2.15
731.712	-17.85
731.737	15.15
731.762	0.15
731.786	-0.85
731.811	9.15
731.836	6.15
731.861	3.15
731.886	-7.85
731.911	-1.85
731.936	18.15
731.961	1.15
731.986	-4.85
732.01	1.15
732.035	-0.85
732.06	16.15
732.085	2.15
732.11	3.15
732.135	-20.85
732.16	-6.85
732.184	2.15
732.209	2.15
732.234	10.15
732.259	19.15
732.284	21.15
732.309	-0.85
732.334	-2.85
732.358	-12.85
732.383	-9.85
732.408	-11.85
732.433	6.15
732.458	-6.85
732.482	-9.85
732.507	-9.85
732.532	-0.85
732.557	10.15
732.582	14.15
732.607	-0.85
732.631	-5.85
732.656	-3.85
732.681	2.15
732.706	7.15
732.73	11.15
732.755	2.15
732.78	-2.85
732.805	5.15
732.83	2.15
732.854	5.15
732.879	22.15
732.904	-0.85
732.929	-3.85
732.953	2.15
732.978	11.15
733.003	-4.85
733.028	-4.85
733.052	2.15
733.077	5.15
733.102	12.15
733.127	-2.85
733.151	-0.85
733.176	11.15
733.201	-12.85
733.226	-8.85
733.25	-6.85
733.275	2.15
733.3	-2.85
733.324	4.15
733.349	-2.85
733.374	20.15
733.399	7.15
733.423	4.15
733.448	1.15
733.473	-6.85
733.497	2.15
733.522	-1.85
733.547	9.15
733.571	13.15
733.596	-2.85
733.621	17.15
733.646	-1.85
733.67	-5.85
733.695	2.15
733.72	4.15
733.744	8.15
733.769	12.15
733.794	21.15
733.818	4.15
733.843	12.15
733.867	1.15
733.892	7.15
733.917	14.15
733.941	15.15
733.966	10.15
733.991	-0.85
734.015	8.15
734.04	5.15
734.065	-1.85
734.089	26.15
734.114	2.15
734.138	-5.85
734.163	-8.85
734.188	-0.85
734.212	14.15
734.237	2.15
734.261	-3.85
734.286	-2.85
734.311	-2.85
734.335	4.15
734.36	5.15
734.384	0.15
734.409	5.15
734.434	-11.85
734.458	9.15
734.483	5.15
734.507	-17.85
734.532	-6.85
734.556	0.15
734.581	4.15
734.606	8.15
734.63	2.15
734.655	5.15
734.679	-5.85
734.704	-3.85
734.728	0.15
734.753	-11.85
734.777	5.15
734.802	5.15
734.826	3.15
734.851	3.15
734.876	9.15
734.9	9.15
734.925	13.15
734.949	2.15
734.974	14.15
734.998	8.15
735.023	2.15
735.047	-1.85
735.072	2.15
735.096	-5.85
735.121	6.15
735.145	-1.85
735.17	-8.85
735.194	6.15
735.219	18.15
735.243	5.15
735.268	8.15
735.292	10.15
735.317	-3.85
735.341	7.15
735.365	-8.85
735.39	10.15
735.414	13.15
735.439	-0.85
735.463	0.15
735.488	5.15
735.512	3.15
735.537	7.15
735.561	14.15
735.586	4.15
735.61	5.15
735.634	4.15
735.659	1.15
735.683	15.15
735.708	-2.85
735.732	-1.85
735.757	1.15
735.781	13.15
735.805	16.15
735.83	-10.85
735.854	-4.85
735.879	-0.85
735.903	14.15
735.927	7.15
735.952	13.15
735.976	8.15
736.001	5.15
736.025	-4.85
736.049	8.15
736.074	-5.85
736.098	-9.85
736.123	7.15
736.147	-6.85
736.171	3.15
736.196	2.15
736.22	-2.85
736.244	2.15
736.269	-0.85
736.293	-8.85
736.317	5.15
736.342	1.15
736.366	-0.85
736.39	2.15
736.415	4.15
736.439	10.15
736.463	24.15
736.488	14.15
736.512	-7.85
736.536	12.15
736.561	25.15
736.585	-0.85
736.609	7.15
736.634	-17.85
736.658	-5.85
736.682	-15.85
736.707	-11.85
736.731	-3.85
736.755	1.15
736.78	19.15
736.804	3.15
736.828	8.15
736.852	8.15
736.877	5.15
736.901	10.15
736.925	6.15
736.949	7.15
736.974	4.15
736.998	-12.85
737.022	-4.85
737.047	13.15
737.071	-1.85
737.095	21.15
737.119	28.15
737.144	9.15
737.168	-5.85
737.192	1.15
737.216	-4.85
737.241	-14.85
737.265	3.15
737.289	2.15
737.313	7.15
737.337	10.15
737.362	-3.85
737.386	6.15
737.41	-5.85
737.434	1.15
737.459	-7.85
737.483	4.15
737.507	15.15
737.531	6.15
737.555	-2.85
737.58	-1.85
737.604	-6.85
737.628	-10.85
737.652	-5.85
737.676	-9.85
737.701	7.15
737.725	5.15
737.749	22.15
737.773	7.15
737.797	-14.85
737.821	-7.85
737.846	-1.85
737.87	33.15
737.894	18.15
737.918	10.15
737.942	-6.85
737.966	9.15
737.99	2.15
738.015	5.15
738.039	3.15
738.063	-21.85
738.087	5.15
738.111	-3.85
738.135	-0.85
738.159	-3.85
738.184	12.15
738.208	21.15
738.232	9.15
738.256	21.15
738.28	13.15
738.304	14.15
738.328	-2.85
738.352	2.15
738.376	-1.85
738.4	0.15
738.425	2.15
738.449	-6.85
738.473	19.15
738.497	17.15
738.521	4.15
738.545	9.15
738.569	1.15
738.593	10.15
738.617	2.15
738.641	-1.85
738.665	-1.85
738.689	7.15
738.713	-5.85
738.737	4.15
738.762	11.15
738.786	-0.85
738.81	-7.85
738.834	15.15
738.858	5.15
738.882	3.15
738.906	-4.85
738.93	19.15
738.954	6.15
738.978	13.15
739.002	-4.85
739.026	22.15
739.05	8.15
739.074	-4.85
739.098	12.15
739.122	12.15
739.146	11.15
739.17	8.15
739.194	7.15
739.218	-2.85
739.242	-5.85
739.266	3.15
739.29	6.15
739.314	-2.85
739.338	2.15
739.362	3.15
739.386	2.15
739.41	-7.85
739.434	-5.85
739.458	11.15
739.482	2.15
739.506	11.15
739.53	-5.85
739.554	20.15
739.577	1.15
739.601	13.15
739.625	0.15
739.649	9.15
739.673	2.15
739.697	21.15
739.721	-4.85
739.745	10.15
739.769	15.15
739.793	15.15
739.817	18.15
739.841	-9.85
739.865	9.15
739.889	-9.85
739.912	-5.85
739.936	-6.85
739.96	2.15
739.984	26.15
740.008	11.15
740.032	8.15
740.056	9.15
740.08	3.15
740.104	-7.85
740.127	9.15
740.151	16.15
740.175	11.15
740.199	17.15
740.223	61.15
740.247	17.15
740.271	10.15
740.295	-6.85
740.318	-16.85
740.342	-3.85
740.366	-9.85
740.39	11.15
740.414	5.15
740.438	-3.85
740.461	12.15
740.485	13.15
740.509	3.15
740.533	14.15
740.557	9.15
740.581	13.15
740.604	6.15
740.628	2.15
740.652	-2.85
740.676	7.15
740.7	-4.85
740.723	0.15
740.747	1.15
740.771	10.15
740.795	-6.85
740.819	12.15
740.842	9.15
740.866	5.15
740.89	5.15
740.914	12.15
740.938	-13.85
740.961	4.15
740.985	3.15
741.009	8.15
741.033	21.15
741.056	22.15
741.08	-0.85
741.104	2.15
741.128	8.15
741.151	10.15
741.175	6.15
741.199	20.15
741.223	13.15
741.246	3.15
741.27	7.15
741.294	8.15
741.318	11.15
741.341	-2.85
741.365	2.15
741.389	6.15
741.413	17.15
741.436	15.15
741.46	15.15
741.484	20.15
741.507	4.15
741.531	24.15
741.555	10.15
741.579	14.15
741.602	0.15
741.626	7.15
741.65	10.15
741.673	10.15
741.697	20.15
741.721	9.15
741.744	2.15
741.768	7.15
741.792	17.15
741.815	-3.85
741.839	25.15
741.863	11.15
741.886	17.15
741.91	18.15
741.934	4.15
741.957	3.15
741.981	9.15
742.005	12.15
742.028	2.15
742.052	11.15
742.075	0.15
742.099	3.15
742.123	5.15
742.146	14.15
742.17	19.15
742.194	-5.85
742.217	-8.85
742.241	-0.85
742.264	3.15
742.288	25.15
742.312	4.15
742.335	-2.85
742.359	7.15
742.382	9.15
742.406	7.15
742.43	-1.85
742.453	1.15
742.477	-8.85
742.5	17.15
742.524	-1.85
742.548	-0.85
742.571	12.15
742.595	3.15
742.618	-21.85
742.642	1.15
742.665	15.15
742.689	-2.85
742.712	9.15
742.736	15.15
742.76	12.15
742.783	5.15
742.807	11.15
742.83	14.15
742.854	-8.85
742.877	-0.85
742.901	-3.85
742.924	4.15
742.948	23.15
742.971	-1.85
742.995	12.15
743.018	5.15
743.042	2.15
743.065	13.15
743.089	-1.85
743.112	6.15
743.136	-2.85
743.159	-13.85
743.183	-3.85
743.206	18.15
743.23	3.15
743.253	11.15
743.277	3.15
743.3	-4.85
743.324	7.15
743.347	-8.85
743.371	3.15
743.394	10.15
743.418	23.15
743.441	11.15
743.465	16.15
743.488	5.15
743.512	-4.85
743.535	-4.85
743.558	1.15
743.582	7.15
743.605	7.15
743.629	7.15
743.652	7.15
743.676	14.15
743.699	19.15
743.723	15.15
743.746	10.15
743.769	9.15
743.793	0.15
743.816	-2.85
743.84	18.15
743.863	15.15
743.886	20.15
743.91	15.15
743.933	12.15
743.957	7.15
743.98	5.15
744.003	6.15
744.027	-15.85
744.05	6.15
744.074	-0.85
744.097	-4.85
744.12	2.15
744.144	-9.85
744.167	20.15
744.19	-3.85
744.214	21.15
744.237	-2.85
744.26	25.15
744.284	3.15
744.307	-18.85
744.331	12.15
744.354	-9.85
744.377	2.15
744.401	10.15
744.424	5.15
744.447	-5.85
744.471	1.15
