Data from HighRes_H2_15_09_11_07_2024_HR4C61891__94__15-11-05-802.txt Node

Date: Thu Nov 07 15:11:05 EST 2024
User: crc00042
Spectrometer: HR4C6189
Trigger mode: 4
Integration Time (sec): 1.000000E-1
Scans to average: 1
Electric dark correction enabled: true
Nonlinearity correction enabled: false
Boxcar width: 0
XAxis mode: Wavelengths
Number of Pixels in Spectrum: 3648
>>>>>Begin Spectral Data<<<<<
639.567	-23.85
639.602	-23.85
639.636	-23.85
639.67	-49.85
639.704	-20.85
639.738	11.15
639.773	19.15
639.807	-11.85
639.841	-5.85
639.875	3.15
639.909	-1.85
639.943	-17.85
639.978	-6.85
640.012	8.15
640.046	20.15
640.08	17.15
640.114	-9.85
640.148	-24.85
640.182	-8.85
640.217	-4.85
640.251	2.15
640.285	14.15
640.319	6.15
640.353	-3.85
640.387	4.15
640.421	-1.85
640.455	-0.85
640.49	-4.85
640.524	-1.85
640.558	-4.85
640.592	-3.85
640.626	-17.85
640.66	9.15
640.694	-11.85
640.728	5.15
640.762	6.15
640.796	17.15
640.83	14.15
640.865	-5.85
640.899	4.15
640.933	-1.85
640.967	-16.85
641.001	-11.85
641.035	2.15
641.069	8.15
641.103	-1.85
641.137	0.15
641.171	-20.85
641.205	8.15
641.239	-7.85
641.273	7.15
641.307	13.15
641.341	-0.85
641.375	2.15
641.409	-8.85
641.443	-3.85
641.477	-4.85
641.511	5.15
641.545	9.15
641.579	5.15
641.614	0.15
641.648	-6.85
641.682	4.15
641.716	-13.85
641.75	12.15
641.784	4.15
641.818	1.15
641.852	2.15
641.886	-10.85
641.919	20.15
641.953	-2.85
641.987	-9.85
642.021	1.15
642.055	-5.85
642.089	17.15
642.123	-19.85
642.157	-11.85
642.191	-15.85
642.225	6.15
642.259	-2.85
642.293	15.15
642.327	10.15
642.361	-6.85
642.395	3.15
642.429	21.15
642.463	16.15
642.497	11.15
642.531	-5.85
642.565	-25.85
642.599	15.15
642.633	-8.85
642.666	1.15
642.7	5.15
642.734	18.15
642.768	-3.85
642.802	0.15
642.836	-3.85
642.87	-9.85
642.904	8.15
642.938	14.15
642.972	10.15
643.005	2.15
643.039	26.15
643.073	4.15
643.107	5.15
643.141	3.15
643.175	2.15
643.209	-6.85
643.243	-5.85
643.276	2.15
643.31	2.15
643.344	-1.85
643.378	10.15
643.412	5.15
643.446	6.15
643.48	-10.85
643.513	9.15
643.547	3.15
643.581	-5.85
643.615	4.15
643.649	15.15
643.683	9.15
643.716	-16.85
643.75	-6.85
643.784	3.15
643.818	5.15
643.852	-6.85
643.886	11.15
643.919	5.15
643.953	-7.85
643.987	3.15
644.021	9.15
644.055	6.15
644.088	-15.85
644.122	-12.85
644.156	6.15
644.19	3.15
644.224	-7.85
644.257	12.15
644.291	17.15
644.325	-1.85
644.359	-7.85
644.392	19.15
644.426	-3.85
644.46	0.15
644.494	-7.85
644.527	-5.85
644.561	-3.85
644.595	11.15
644.629	0.15
644.662	-13.85
644.696	18.15
644.73	5.15
644.764	10.15
644.797	-1.85
644.831	2.15
644.865	2.15
644.899	-4.85
644.932	1.15
644.966	1.15
645	-2.85
645.033	-1.85
645.067	-4.85
645.101	-2.85
645.135	11.15
645.168	-8.85
645.202	-7.85
645.236	-10.85
645.269	10.15
645.303	-14.85
645.337	-12.85
645.37	-16.85
645.404	-25.85
645.438	-8.85
645.471	-11.85
645.505	6.15
645.539	17.15
645.572	-20.85
645.606	-23.85
645.64	0.15
645.673	-9.85
645.707	7.15
645.741	-4.85
645.774	-13.85
645.808	7.15
645.842	3.15
645.875	0.15
645.909	-25.85
645.943	1.15
645.976	0.15
646.01	11.15
646.043	9.15
646.077	7.15
646.111	2.15
646.144	-7.85
646.178	3.15
646.212	-5.85
646.245	3.15
646.279	17.15
646.312	10.15
646.346	16.15
646.38	3.15
646.413	17.15
646.447	8.15
646.48	7.15
646.514	9.15
646.547	-1.85
646.581	-10.85
646.615	2.15
646.648	-6.85
646.682	7.15
646.715	1.15
646.749	7.15
646.782	1.15
646.816	2.15
646.85	9.15
646.883	5.15
646.917	9.15
646.95	10.15
646.984	-8.85
647.017	-21.85
647.051	-3.85
647.084	14.15
647.118	-10.85
647.151	-9.85
647.185	-1.85
647.218	-7.85
647.252	5.15
647.285	-3.85
647.319	-8.85
647.353	-11.85
647.386	13.15
647.42	4.15
647.453	-14.85
647.487	-6.85
647.52	-3.85
647.553	8.15
647.587	5.15
647.62	0.15
647.654	-6.85
647.687	6.15
647.721	-5.85
647.754	15.15
647.788	9.15
647.821	-6.85
647.855	12.15
647.888	1.15
647.922	10.15
647.955	20.15
647.989	1.15
648.022	9.15
648.055	5.15
648.089	-14.85
648.122	26.15
648.156	5.15
648.189	-8.85
648.223	-2.85
648.256	3.15
648.29	6.15
648.323	-9.85
648.356	12.15
648.39	19.15
648.423	-4.85
648.457	-2.85
648.49	6.15
648.523	10.15
648.557	-0.85
648.59	7.15
648.624	-1.85
648.657	14.15
648.69	7.15
648.724	6.15
648.757	5.15
648.791	9.15
648.824	-7.85
648.857	5.15
648.891	-4.85
648.924	2.15
648.957	22.15
648.991	6.15
649.024	3.15
649.057	-17.85
649.091	-13.85
649.124	2.15
649.158	7.15
649.191	10.15
649.224	-9.85
649.258	1.15
649.291	-2.85
649.324	1.15
649.358	8.15
649.391	5.15
649.424	0.15
649.458	0.15
649.491	-12.85
649.524	-12.85
649.557	-13.85
649.591	-12.85
649.624	15.15
649.657	3.15
649.691	-12.85
649.724	-4.85
649.757	4.15
649.791	-12.85
649.824	6.15
649.857	-9.85
649.89	4.15
649.924	-25.85
649.957	4.15
649.99	2.15
650.023	4.15
650.057	-2.85
650.09	0.15
650.123	-7.85
650.157	16.15
650.19	13.15
650.223	6.15
650.256	-13.85
650.29	-2.85
650.323	18.15
650.356	10.15
650.389	11.15
650.423	-1.85
650.456	-0.85
650.489	10.15
650.522	2.15
650.555	3.15
650.589	6.15
650.622	8.15
650.655	24.15
650.688	2.15
650.721	3.15
650.755	26.15
650.788	2.15
650.821	-8.85
650.854	2.15
650.887	6.15
650.921	4.15
650.954	-14.85
650.987	1.15
651.02	4.15
651.053	-9.85
651.087	-9.85
651.12	19.15
651.153	8.15
651.186	-8.85
651.219	-18.85
651.252	0.15
651.286	4.15
651.319	-5.85
651.352	4.15
651.385	2.15
651.418	5.15
651.451	0.15
651.484	-4.85
651.518	-13.85
651.551	21.15
651.584	-1.85
651.617	10.15
651.65	9.15
651.683	5.15
651.716	7.15
651.749	-15.85
651.783	7.15
651.816	-1.85
651.849	-1.85
651.882	-10.85
651.915	0.15
651.948	7.15
651.981	-8.85
652.014	-5.85
652.047	-3.85
652.08	-7.85
652.114	7.15
652.147	-5.85
652.18	1.15
652.213	34.15
652.246	4.15
652.279	-8.85
652.312	-1.85
652.345	-21.85
652.378	5.15
652.411	14.15
652.444	-8.85
652.477	-0.85
652.51	-14.85
652.543	-1.85
652.576	6.15
652.609	0.15
652.642	2.15
652.675	15.15
652.709	0.15
652.742	2.15
652.775	6.15
652.808	2.15
652.841	-3.85
652.874	8.15
652.907	6.15
652.94	-9.85
652.973	-12.85
653.006	-9.85
653.039	1.15
653.072	14.15
653.105	1.15
653.138	-26.85
653.171	-13.85
653.204	-12.85
653.237	1.15
653.27	-3.85
653.303	5.15
653.336	8.15
653.368	5.15
653.401	-6.85
653.434	1.15
653.467	3.15
653.5	-9.85
653.533	1.15
653.566	3.15
653.599	3.15
653.632	8.15
653.665	15.15
653.698	-15.85
653.731	-1.85
653.764	-2.85
653.797	-11.85
653.83	6.15
653.863	16.15
653.896	8.15
653.929	-5.85
653.961	7.15
653.994	0.15
654.027	-21.85
654.06	4.15
654.093	18.15
654.126	3.15
654.159	-15.85
654.192	2.15
654.225	-7.85
654.258	0.15
654.29	1.15
654.323	-0.85
654.356	-7.85
654.389	-2.85
654.422	-16.85
654.455	7.15
654.488	-0.85
654.521	-16.85
654.553	-14.85
654.586	-0.85
654.619	-14.85
654.652	2.15
654.685	-2.85
654.718	3.15
654.751	14.15
654.783	10.15
654.816	22.15
654.849	-6.85
654.882	3.15
654.915	-10.85
654.948	12.15
654.98	-4.85
655.013	-4.85
655.046	4.15
655.079	-1.85
655.112	17.15
655.144	-3.85
655.177	8.15
655.21	32.15
655.243	24.15
655.276	-0.85
655.308	-7.85
655.341	-16.85
655.374	-11.85
655.407	-15.85
655.44	-11.85
655.472	7.15
655.505	12.15
655.538	-8.85
655.571	32.15
655.603	-7.85
655.636	-2.85
655.669	18.15
655.702	6.15
655.734	-4.85
655.767	8.15
655.8	9.15
655.833	13.15
655.865	31.15
655.898	26.15
655.931	29.15
655.964	49.15
655.996	49.15
656.029	66.15
656.062	43.15
656.095	70.15
656.127	45.15
656.16	107.15
656.193	124.15
656.225	163.15
656.258	255.15
656.291	500.15
656.324	1122.15
656.356	3382.15
656.389	7530.15
656.422	5982.15
656.454	2071.15
656.487	666.15
656.52	269.15
656.552	121.15
656.585	70.15
656.618	64.15
656.65	47.15
656.683	25.15
656.716	23.15
656.748	5.15
656.781	1.15
656.814	0.15
656.846	-0.85
656.879	-1.85
656.912	2.15
656.944	-20.85
656.977	1.15
657.01	-7.85
657.042	-2.85
657.075	1.15
657.108	-14.85
657.14	2.15
657.173	23.15
657.205	21.15
657.238	10.15
657.271	22.15
657.303	-28.85
657.336	14.15
657.369	11.15
657.401	-4.85
657.434	6.15
657.466	7.15
657.499	-1.85
657.532	-8.85
657.564	6.15
657.597	0.15
657.629	7.15
657.662	-1.85
657.694	7.15
657.727	-21.85
657.76	6.15
657.792	-13.85
657.825	-14.85
657.857	-7.85
657.89	1.15
657.922	10.15
657.955	-7.85
657.987	4.15
658.02	-0.85
658.053	1.15
658.085	-1.85
658.118	5.15
658.15	15.15
658.183	17.15
658.215	-4.85
658.248	0.15
658.28	10.15
658.313	22.15
658.345	14.15
658.378	9.15
658.41	-0.85
658.443	20.15
658.475	8.15
658.508	-6.85
658.54	-6.85
658.573	-7.85
658.605	-1.85
658.638	-4.85
658.67	-1.85
658.703	2.15
658.735	-7.85
658.768	2.15
658.8	-12.85
658.833	25.15
658.865	-6.85
658.898	-0.85
658.93	-5.85
658.963	-1.85
658.995	-18.85
659.028	-1.85
659.06	10.15
659.092	5.15
659.125	2.15
659.157	-5.85
659.19	-6.85
659.222	-12.85
659.255	-4.85
659.287	-11.85
659.32	-10.85
659.352	-5.85
659.384	-0.85
659.417	-4.85
659.449	2.15
659.482	9.15
659.514	15.15
659.546	14.15
659.579	-1.85
659.611	2.15
659.644	-0.85
659.676	-5.85
659.708	-18.85
659.741	-13.85
659.773	18.15
659.806	10.15
659.838	11.15
659.87	-0.85
659.903	-20.85
659.935	-0.85
659.967	3.15
660	2.15
660.032	-30.85
660.065	0.15
660.097	-5.85
660.129	-8.85
660.162	-14.85
660.194	12.15
660.226	-17.85
660.259	4.15
660.291	6.15
660.323	-2.85
660.356	7.15
660.388	-10.85
660.42	10.15
660.453	10.15
660.485	8.15
660.517	5.15
660.55	23.15
660.582	-2.85
660.614	6.15
660.647	2.15
660.679	-12.85
660.711	7.15
660.743	-21.85
660.776	-1.85
660.808	4.15
660.84	-13.85
660.873	9.15
660.905	-6.85
660.937	-6.85
660.969	-0.85
661.002	-8.85
661.034	12.15
661.066	-9.85
661.099	0.15
661.131	2.15
661.163	1.15
661.195	5.15
661.228	14.15
661.26	-4.85
661.292	7.15
661.324	-1.85
661.357	6.15
661.389	14.15
661.421	2.15
661.453	3.15
661.485	11.15
661.518	-15.85
661.55	-18.85
661.582	-20.85
661.614	2.15
661.647	1.15
661.679	-1.85
661.711	10.15
661.743	0.15
661.775	-11.85
661.808	11.15
661.84	-24.85
661.872	-9.85
661.904	-14.85
661.936	-9.85
661.969	-16.85
662.001	-3.85
662.033	-3.85
662.065	5.15
662.097	16.15
662.129	2.15
662.162	-5.85
662.194	-7.85
662.226	-6.85
662.258	5.15
662.29	2.15
662.322	-9.85
662.355	-17.85
662.387	14.15
662.419	8.15
662.451	14.15
662.483	4.15
662.515	-5.85
662.547	18.15
662.58	-0.85
662.612	-6.85
662.644	0.15
662.676	2.15
662.708	22.15
662.74	-11.85
662.772	7.15
662.804	8.15
662.836	8.15
662.869	3.15
662.901	15.15
662.933	-8.85
662.965	5.15
662.997	-9.85
663.029	0.15
663.061	-11.85
663.093	-5.85
663.125	-2.85
663.157	18.15
663.189	-6.85
663.221	-0.85
663.254	5.15
663.286	10.15
663.318	7.15
663.35	14.15
663.382	9.15
663.414	12.15
663.446	6.15
663.478	-11.85
663.51	16.15
663.542	-12.85
663.574	-4.85
663.606	16.15
663.638	-22.85
663.67	-18.85
663.702	-1.85
663.734	-7.85
663.766	4.15
663.798	-12.85
663.83	-1.85
663.862	5.15
663.894	7.15
663.926	1.15
663.958	20.15
663.99	-5.85
664.022	-15.85
664.054	-2.85
664.086	3.15
664.118	-11.85
664.15	-4.85
664.182	-0.85
664.214	-1.85
664.246	7.15
664.278	5.15
664.31	7.15
664.342	-5.85
664.374	-3.85
664.406	4.15
664.438	-0.85
664.47	15.15
664.502	-8.85
664.534	4.15
664.566	0.15
664.598	18.15
664.63	-2.85
664.662	19.15
664.693	-0.85
664.725	-16.85
664.757	5.15
664.789	-15.85
664.821	-12.85
664.853	8.15
664.885	16.15
664.917	5.15
664.949	20.15
664.981	9.15
665.013	2.15
665.045	-7.85
665.076	4.15
665.108	10.15
665.14	2.15
665.172	-0.85
665.204	-1.85
665.236	-14.85
665.268	17.15
665.3	-2.85
665.331	-12.85
665.363	-10.85
665.395	-9.85
665.427	-2.85
665.459	6.15
665.491	-15.85
665.523	11.15
665.555	6.15
665.586	1.15
665.618	-6.85
665.65	0.15
665.682	-0.85
665.714	-5.85
665.746	-3.85
665.777	2.15
665.809	-19.85
665.841	-4.85
665.873	-8.85
665.905	-8.85
665.937	2.15
665.968	4.15
666	-2.85
666.032	7.15
666.064	-4.85
666.096	-0.85
666.127	9.15
666.159	21.15
666.191	7.15
666.223	18.15
666.255	6.15
666.286	11.15
666.318	3.15
666.35	8.15
666.382	6.15
666.413	-25.85
666.445	-19.85
666.477	-16.85
666.509	-3.85
666.54	-4.85
666.572	-10.85
666.604	-3.85
666.636	-1.85
666.667	5.15
666.699	10.15
666.731	-3.85
666.763	-8.85
666.794	2.15
666.826	8.15
666.858	-9.85
666.89	12.15
666.921	-1.85
666.953	3.15
666.985	8.15
667.017	16.15
667.048	0.15
667.08	-6.85
667.112	-9.85
667.143	-6.85
667.175	5.15
667.207	5.15
667.238	9.15
667.27	5.15
667.302	6.15
667.334	-0.85
667.365	5.15
667.397	11.15
667.429	-13.85
667.46	15.15
667.492	25.15
667.524	-3.85
667.555	-12.85
667.587	3.15
667.619	-3.85
667.65	0.15
667.682	6.15
667.714	-3.85
667.745	11.15
667.777	9.15
667.808	17.15
667.84	8.15
667.872	-8.85
667.903	24.15
667.935	-4.85
667.967	4.15
667.998	-1.85
668.03	-8.85
668.061	9.15
668.093	11.15
668.125	5.15
668.156	0.15
668.188	-3.85
668.22	-2.85
668.251	2.15
668.283	-0.85
668.314	-6.85
668.346	-9.85
668.377	16.15
668.409	-2.85
668.441	-5.85
668.472	-2.85
668.504	12.15
668.535	6.15
668.567	9.15
668.599	18.15
668.63	3.15
668.662	-12.85
668.693	7.15
668.725	4.15
668.756	21.15
668.788	-4.85
668.819	-4.85
668.851	10.15
668.882	12.15
668.914	-3.85
668.946	-12.85
668.977	-4.85
669.009	-6.85
669.04	-13.85
669.072	10.15
669.103	-2.85
669.135	-11.85
669.166	2.15
669.198	-13.85
669.229	16.15
669.261	-5.85
669.292	-8.85
669.324	7.15
669.355	15.15
669.387	-15.85
669.418	10.15
669.45	-11.85
669.481	-5.85
669.513	-2.85
669.544	-3.85
669.576	0.15
669.607	13.15
669.639	23.15
669.67	-7.85
669.701	4.15
669.733	1.15
669.764	-5.85
669.796	-10.85
669.827	-23.85
669.859	-2.85
669.89	9.15
669.922	26.15
669.953	12.15
669.985	6.15
670.016	0.15
670.047	0.15
670.079	3.15
670.11	10.15
670.142	-2.85
670.173	-8.85
670.204	-15.85
670.236	0.15
670.267	-5.85
670.299	-13.85
670.33	4.15
670.362	2.15
670.393	-1.85
670.424	14.15
670.456	-1.85
670.487	-3.85
670.518	-11.85
670.55	6.15
670.581	2.15
670.613	1.15
670.644	-6.85
670.675	-0.85
670.707	-29.85
670.738	4.15
670.769	-2.85
670.801	-17.85
670.832	5.15
670.864	-8.85
670.895	-11.85
670.926	-2.85
670.958	-7.85
670.989	-6.85
671.02	-4.85
671.052	5.15
671.083	5.15
671.114	6.15
671.146	12.15
671.177	-3.85
671.208	-16.85
671.24	-14.85
671.271	5.15
671.302	-4.85
671.333	-11.85
671.365	-6.85
671.396	-7.85
671.427	7.15
671.459	-4.85
671.49	17.15
671.521	-2.85
671.553	0.15
671.584	25.15
671.615	-10.85
671.646	-0.85
671.678	5.15
671.709	-25.85
671.74	-26.85
671.771	-13.85
671.803	-14.85
671.834	-0.85
671.865	-17.85
671.896	9.15
671.928	-3.85
671.959	1.15
671.99	-1.85
672.021	5.15
672.053	-14.85
672.084	10.15
672.115	4.15
672.146	-1.85
672.178	-16.85
672.209	-8.85
672.24	9.15
672.271	27.15
672.303	11.15
672.334	-11.85
672.365	-2.85
672.396	-4.85
672.427	8.15
672.459	22.15
672.49	15.15
672.521	6.15
672.552	9.15
672.583	-0.85
672.615	-4.85
672.646	2.15
672.677	-8.85
672.708	3.15
672.739	1.15
672.77	12.15
672.802	-6.85
672.833	-0.85
672.864	-0.85
672.895	0.15
672.926	-5.85
672.957	-7.85
672.989	-3.85
673.02	12.15
673.051	-0.85
673.082	7.15
673.113	-2.85
673.144	2.15
673.175	1.15
673.206	-1.85
673.238	-0.85
673.269	-1.85
673.3	-1.85
673.331	3.15
673.362	4.15
673.393	-4.85
673.424	7.15
673.455	17.15
673.487	7.15
673.518	16.15
673.549	4.15
673.58	14.15
673.611	4.15
673.642	2.15
673.673	-10.85
673.704	5.15
673.735	-0.85
673.766	-10.85
673.797	-5.85
673.828	-4.85
673.86	-14.85
673.891	-5.85
673.922	-31.85
673.953	-13.85
673.984	4.15
674.015	0.15
674.046	0.15
674.077	2.15
674.108	-6.85
674.139	2.15
674.17	-4.85
674.201	3.15
674.232	-6.85
674.263	-2.85
674.294	3.15
674.325	-10.85
674.356	8.15
674.387	1.15
674.418	-6.85
674.449	3.15
674.48	-4.85
674.511	0.15
674.542	4.15
674.573	-11.85
674.604	15.15
674.635	5.15
674.666	10.15
674.697	-3.85
674.728	4.15
674.759	19.15
674.79	-3.85
674.821	-0.85
674.852	0.15
674.883	-12.85
674.914	-4.85
674.945	-6.85
674.976	-3.85
675.007	-11.85
675.038	-22.85
675.069	-20.85
675.1	-9.85
675.131	-0.85
675.162	-7.85
675.193	2.15
675.224	-4.85
675.254	13.15
675.285	6.15
675.316	16.15
675.347	-10.85
675.378	-14.85
675.409	-7.85
675.44	1.15
675.471	-1.85
675.502	-9.85
675.533	1.15
675.564	5.15
675.595	-7.85
675.625	3.15
675.656	0.15
675.687	4.15
675.718	-17.85
675.749	16.15
675.78	-4.85
675.811	-6.85
675.842	6.15
675.873	2.15
675.903	-11.85
675.934	10.15
675.965	-7.85
675.996	-11.85
676.027	9.15
676.058	-5.85
676.089	-16.85
676.119	-9.85
676.15	-4.85
676.181	-14.85
676.212	0.15
676.243	0.15
676.274	-2.85
676.304	14.15
676.335	-23.85
676.366	7.15
676.397	-6.85
676.428	-10.85
676.459	-1.85
676.489	17.15
676.52	0.15
676.551	-13.85
676.582	-12.85
676.613	-4.85
676.643	-7.85
676.674	11.15
676.705	0.15
676.736	-2.85
676.767	20.15
676.797	3.15
676.828	9.15
676.859	-5.85
676.89	-15.85
676.92	-0.85
676.951	1.15
676.982	9.15
677.013	3.15
677.044	30.15
677.074	11.15
677.105	-6.85
677.136	-3.85
677.167	-1.85
677.197	4.15
677.228	6.15
677.259	-14.85
677.289	0.15
677.32	-20.85
677.351	2.15
677.382	-6.85
677.412	-4.85
677.443	-5.85
677.474	-5.85
677.505	-7.85
677.535	-5.85
677.566	2.15
677.597	-17.85
677.627	-12.85
677.658	7.15
677.689	-16.85
677.72	-0.85
677.75	-24.85
677.781	-3.85
677.812	-4.85
677.842	-0.85
677.873	8.15
677.904	-4.85
677.934	-12.85
677.965	-21.85
677.996	-33.85
678.026	-3.85
678.057	4.15
678.088	-4.85
678.118	5.15
678.149	-4.85
678.18	-14.85
678.21	-1.85
678.241	-4.85
678.272	-4.85
678.302	-1.85
678.333	-5.85
678.363	6.15
678.394	-1.85
678.425	5.15
678.455	-10.85
678.486	10.15
678.517	2.15
678.547	2.15
678.578	5.15
678.608	-21.85
678.639	-8.85
678.67	19.15
678.7	-4.85
678.731	-7.85
678.761	0.15
678.792	20.15
678.823	-2.85
678.853	-6.85
678.884	-23.85
678.914	6.15
678.945	-3.85
678.975	-14.85
679.006	-2.85
679.037	-16.85
679.067	6.15
679.098	-2.85
679.128	-14.85
679.159	-7.85
679.189	16.15
679.22	-11.85
679.25	-2.85
679.281	-0.85
679.312	0.15
679.342	-0.85
679.373	22.15
679.403	-6.85
679.434	12.15
679.464	5.15
679.495	7.15
679.525	-8.85
679.556	-10.85
679.586	-10.85
679.617	6.15
679.647	-7.85
679.678	-14.85
679.708	-9.85
679.739	-4.85
679.769	-0.85
679.8	-16.85
679.83	0.15
679.861	-1.85
679.891	-24.85
679.922	-26.85
679.952	3.15
679.983	5.15
680.013	4.15
680.044	7.15
680.074	4.15
680.105	1.15
680.135	2.15
680.165	-3.85
680.196	12.15
680.226	15.15
680.257	21.15
680.287	10.15
680.318	-17.85
680.348	-22.85
680.379	6.15
680.409	2.15
680.439	-17.85
680.47	-12.85
680.5	-8.85
680.531	4.15
680.561	10.15
680.592	9.15
680.622	3.15
680.652	-11.85
680.683	1.15
680.713	-8.85
680.744	-13.85
680.774	-9.85
680.804	3.15
680.835	-9.85
680.865	-10.85
680.896	11.15
680.926	6.15
680.956	0.15
680.987	4.15
681.017	-10.85
681.047	-9.85
681.078	-20.85
681.108	-6.85
681.139	-8.85
681.169	-10.85
681.199	2.15
681.23	1.15
681.26	-6.85
681.29	16.15
681.321	6.15
681.351	7.15
681.381	-15.85
681.412	-0.85
681.442	-4.85
681.472	6.15
681.503	13.15
681.533	6.15
681.563	-9.85
681.594	-5.85
681.624	-0.85
681.654	-0.85
681.685	1.15
681.715	-2.85
681.745	-11.85
681.775	-21.85
681.806	-12.85
681.836	2.15
681.866	-7.85
681.897	8.15
681.927	0.15
681.957	-20.85
681.987	6.15
682.018	-16.85
682.048	-0.85
682.078	0.15
682.109	2.15
682.139	8.15
682.169	8.15
682.199	2.15
682.23	-1.85
682.26	6.15
682.29	2.15
682.32	3.15
682.351	12.15
682.381	-6.85
682.411	-10.85
682.441	3.15
682.472	-12.85
682.502	4.15
682.532	-12.85
682.562	5.15
682.592	-1.85
682.623	9.15
682.653	0.15
682.683	3.15
682.713	9.15
682.743	3.15
682.774	-20.85
682.804	-8.85
682.834	6.15
682.864	-17.85
682.894	-24.85
682.925	-9.85
682.955	-5.85
682.985	-11.85
683.015	11.15
683.045	10.15
683.076	-27.85
683.106	0.15
683.136	-9.85
683.166	-0.85
683.196	-20.85
683.226	-6.85
683.257	-10.85
683.287	-17.85
683.317	-13.85
683.347	-0.85
683.377	-12.85
683.407	6.15
683.437	12.15
683.468	11.15
683.498	1.15
683.528	-1.85
683.558	-9.85
683.588	-13.85
683.618	-10.85
683.648	-9.85
683.678	5.15
683.708	12.15
683.739	-17.85
683.769	0.15
683.799	2.15
683.829	6.15
683.859	-6.85
683.889	15.15
683.919	1.15
683.949	4.15
683.979	-10.85
684.009	-10.85
684.039	-4.85
684.07	-15.85
684.1	7.15
684.13	13.15
684.16	-2.85
684.19	-6.85
684.22	-6.85
684.25	15.15
684.28	-2.85
684.31	-5.85
684.34	14.15
684.37	7.15
684.4	-11.85
684.43	-14.85
684.46	7.15
684.49	8.15
684.52	3.15
684.55	16.15
684.58	20.15
684.61	2.15
684.64	9.15
684.67	-3.85
684.7	2.15
684.73	7.15
684.76	-13.85
684.79	-9.85
684.82	-2.85
684.85	-14.85
684.88	1.15
684.91	2.15
684.94	4.15
684.97	-5.85
685	-19.85
685.03	-5.85
685.06	7.15
685.09	8.15
685.12	15.15
685.15	6.15
685.18	12.15
685.21	0.15
685.24	14.15
685.27	10.15
685.3	1.15
685.33	-3.85
685.36	5.15
685.39	4.15
685.42	-5.85
685.45	-1.85
685.48	-0.85
685.51	-14.85
685.54	-2.85
685.569	6.15
685.599	1.15
685.629	21.15
685.659	9.15
685.689	-5.85
685.719	-17.85
685.749	-9.85
685.779	3.15
685.809	5.15
685.839	-8.85
685.869	-8.85
685.898	20.15
685.928	15.15
685.958	3.15
685.988	4.15
686.018	1.15
686.048	10.15
686.078	10.15
686.108	8.15
686.137	7.15
686.167	2.15
686.197	-9.85
686.227	-11.85
686.257	26.15
686.287	15.15
686.317	0.15
686.346	-3.85
686.376	-1.85
686.406	-6.85
686.436	7.15
686.466	-20.85
686.496	5.15
686.525	2.15
686.555	-14.85
686.585	8.15
686.615	20.15
686.645	7.15
686.675	-1.85
686.704	4.15
686.734	5.15
686.764	-0.85
686.794	-8.85
686.824	-10.85
686.853	-7.85
686.883	13.15
686.913	11.15
686.943	4.15
686.973	-3.85
687.002	2.15
687.032	8.15
687.062	-10.85
687.092	-5.85
687.121	-10.85
687.151	7.15
687.181	-2.85
687.211	-0.85
687.24	0.15
687.27	11.15
687.3	2.15
687.33	-5.85
687.359	-12.85
687.389	-5.85
687.419	8.15
687.449	8.15
687.478	11.15
687.508	1.15
687.538	3.15
687.568	10.15
687.597	-1.85
687.627	6.15
687.657	11.15
687.686	15.15
687.716	22.15
687.746	-6.85
687.776	-5.85
687.805	4.15
687.835	6.15
687.865	23.15
687.894	0.15
687.924	4.15
687.954	18.15
687.983	-0.85
688.013	6.15
688.043	7.15
688.072	6.15
688.102	6.15
688.132	14.15
688.161	3.15
688.191	3.15
688.221	18.15
688.25	-13.85
688.28	2.15
688.31	-10.85
688.339	3.15
688.369	-7.85
688.399	-0.85
688.428	-4.85
688.458	-11.85
688.488	-6.85
688.517	-1.85
688.547	0.15
688.576	38.15
688.606	15.15
688.636	-6.85
688.665	12.15
688.695	5.15
688.725	10.15
688.754	6.15
688.784	0.15
688.813	21.15
688.843	8.15
688.873	-0.85
688.902	3.15
688.932	-10.85
688.961	-14.85
688.991	7.15
689.02	2.15
689.05	-13.85
689.08	25.15
689.109	14.15
689.139	-4.85
689.168	-1.85
689.198	1.15
689.227	6.15
689.257	4.15
689.287	9.15
689.316	2.15
689.346	-3.85
689.375	-8.85
689.405	-1.85
689.434	-5.85
689.464	20.15
689.493	-1.85
689.523	-8.85
689.552	2.15
689.582	-0.85
689.611	11.15
689.641	10.15
689.67	8.15
689.7	14.15
689.73	10.15
689.759	7.15
689.789	21.15
689.818	2.15
689.848	-13.85
689.877	6.15
689.906	-5.85
689.936	-7.85
689.965	8.15
689.995	-0.85
690.024	1.15
690.054	-6.85
690.083	-2.85
690.113	4.15
690.142	1.15
690.172	5.15
690.201	-2.85
690.231	-10.85
690.26	1.15
690.29	1.15
690.319	0.15
690.348	3.15
690.378	3.15
690.407	7.15
690.437	-2.85
690.466	-7.85
690.496	-0.85
690.525	5.15
690.555	-8.85
690.584	-9.85
690.613	4.15
690.643	-4.85
690.672	-7.85
690.702	-2.85
690.731	-11.85
690.76	2.15
690.79	0.15
690.819	2.15
690.849	-13.85
690.878	-20.85
690.907	7.15
690.937	4.15
690.966	7.15
690.996	-4.85
691.025	4.15
691.054	-2.85
691.084	3.15
691.113	14.15
691.142	19.15
691.172	22.15
691.201	4.15
691.23	11.15
691.26	0.15
691.289	24.15
691.319	-2.85
691.348	-3.85
691.377	8.15
691.407	10.15
691.436	19.15
691.465	13.15
691.495	-1.85
691.524	-5.85
691.553	-1.85
691.583	3.15
691.612	1.15
691.641	3.15
691.67	-1.85
691.7	7.15
691.729	2.15
691.758	8.15
691.788	6.15
691.817	-0.85
691.846	-9.85
691.876	-1.85
691.905	9.15
691.934	-1.85
691.963	21.15
691.993	10.15
692.022	0.15
692.051	-14.85
692.081	16.15
692.11	15.15
692.139	-12.85
692.168	2.15
692.198	26.15
692.227	3.15
692.256	9.15
692.285	6.15
692.315	-8.85
692.344	-2.85
692.373	1.15
692.402	-18.85
692.432	3.15
692.461	-6.85
692.49	-2.85
692.519	-6.85
692.548	3.15
692.578	13.15
692.607	-11.85
692.636	-8.85
692.665	3.15
692.694	-13.85
692.724	8.15
692.753	16.15
692.782	7.15
692.811	-8.85
692.84	2.15
692.87	3.15
692.899	-2.85
692.928	1.15
692.957	7.15
692.986	3.15
693.016	1.15
693.045	-6.85
693.074	-5.85
693.103	-14.85
693.132	6.15
693.161	20.15
693.191	6.15
693.22	-8.85
693.249	-4.85
693.278	-2.85
693.307	20.15
693.336	9.15
693.365	-1.85
693.395	-12.85
693.424	6.15
693.453	18.15
693.482	7.15
693.511	-7.85
693.54	0.15
693.569	13.15
693.598	-5.85
693.628	7.15
693.657	12.15
693.686	14.15
693.715	2.15
693.744	11.15
693.773	-5.85
693.802	2.15
693.831	6.15
693.86	0.15
693.889	-1.85
693.919	14.15
693.948	5.15
693.977	5.15
694.006	7.15
694.035	3.15
694.064	-12.85
694.093	-1.85
694.122	-1.85
694.151	10.15
694.18	5.15
694.209	14.15
694.238	-1.85
694.267	24.15
694.296	16.15
694.325	4.15
694.354	18.15
694.383	0.15
694.412	-1.85
694.441	20.15
694.471	7.15
694.5	-27.85
694.529	5.15
694.558	12.15
694.587	5.15
694.616	-6.85
694.645	1.15
694.674	13.15
694.703	10.15
694.732	-4.85
694.761	14.15
694.79	17.15
694.819	-0.85
694.848	-1.85
694.877	26.15
694.906	37.15
694.935	12.15
694.963	15.15
694.992	18.15
695.021	2.15
695.05	10.15
695.079	5.15
695.108	7.15
695.137	22.15
695.166	17.15
695.195	-12.85
695.224	6.15
695.253	3.15
695.282	-13.85
695.311	-3.85
695.34	-0.85
695.369	18.15
695.398	3.15
695.427	-1.85
695.456	9.15
695.485	5.15
695.513	5.15
695.542	-3.85
695.571	1.15
695.6	17.15
695.629	1.15
695.658	10.15
695.687	1.15
695.716	2.15
695.745	4.15
695.774	-0.85
695.802	0.15
695.831	3.15
695.86	12.15
695.889	9.15
695.918	2.15
695.947	-1.85
695.976	1.15
696.005	-0.85
696.033	-4.85
696.062	14.15
696.091	9.15
696.12	-9.85
696.149	18.15
696.178	14.15
696.207	0.15
696.235	-2.85
696.264	13.15
696.293	-1.85
696.322	-2.85
696.351	-3.85
696.38	-8.85
696.408	6.15
696.437	1.15
696.466	-10.85
696.495	15.15
696.524	21.15
696.553	21.15
696.581	16.15
696.61	-6.85
696.639	8.15
696.668	4.15
696.697	-13.85
696.725	12.15
696.754	-10.85
696.783	9.15
696.812	-9.85
696.84	6.15
696.869	11.15
696.898	0.15
696.927	-1.85
696.956	11.15
696.984	-5.85
697.013	-4.85
697.042	-0.85
697.071	4.15
697.099	18.15
697.128	-3.85
697.157	-4.85
697.186	-5.85
697.214	-3.85
697.243	-8.85
697.272	2.15
697.301	4.15
697.329	14.15
697.358	21.15
697.387	12.15
697.415	7.15
697.444	9.15
697.473	-12.85
697.502	0.15
697.53	4.15
697.559	-0.85
697.588	5.15
697.616	-1.85
697.645	4.15
697.674	15.15
697.703	8.15
697.731	23.15
697.76	2.15
697.789	5.15
697.817	16.15
697.846	27.15
697.875	-1.85
697.903	8.15
697.932	15.15
697.961	27.15
697.989	3.15
698.018	-3.85
698.047	-3.85
698.075	19.15
698.104	-1.85
698.133	-9.85
698.161	6.15
698.19	-7.85
698.218	-17.85
698.247	-3.85
698.276	-12.85
698.304	-4.85
698.333	1.15
698.362	12.15
698.39	-2.85
698.419	11.15
698.447	13.15
698.476	13.15
698.505	20.15
698.533	-0.85
698.562	-5.85
698.591	-0.85
698.619	1.15
698.648	-3.85
698.676	2.15
698.705	-9.85
698.733	-12.85
698.762	4.15
698.791	18.15
698.819	1.15
698.848	-5.85
698.876	30.15
698.905	9.15
698.933	13.15
698.962	2.15
698.991	-0.85
699.019	2.15
699.048	-2.85
699.076	-17.85
699.105	-9.85
699.133	-8.85
699.162	10.15
699.19	25.15
699.219	2.15
699.248	-0.85
699.276	-0.85
699.305	-15.85
699.333	27.15
699.362	7.15
699.39	22.15
699.419	6.15
699.447	6.15
699.476	6.15
699.504	1.15
699.533	-2.85
699.561	-9.85
699.59	3.15
699.618	-9.85
699.647	11.15
699.675	-0.85
699.704	0.15
699.732	6.15
699.761	18.15
699.789	6.15
699.818	11.15
699.846	12.15
699.874	-0.85
699.903	-9.85
699.931	-6.85
699.96	1.15
699.988	16.15
700.017	12.15
700.045	13.15
700.074	7.15
700.102	-8.85
700.13	-0.85
700.159	20.15
700.187	24.15
700.216	2.15
700.244	0.15
700.273	5.15
700.301	5.15
700.329	14.15
700.358	9.15
700.386	-2.85
700.415	6.15
700.443	6.15
700.472	-1.85
700.5	9.15
700.528	20.15
700.557	2.15
700.585	-6.85
700.614	-0.85
700.642	-7.85
700.67	10.15
700.699	20.15
700.727	-1.85
700.755	-7.85
700.784	-12.85
700.812	-5.85
700.841	11.15
700.869	2.15
700.897	-9.85
700.926	6.15
700.954	18.15
700.982	9.15
701.011	13.15
701.039	3.15
701.067	-8.85
701.096	-13.85
701.124	-24.85
701.152	-9.85
701.181	-5.85
701.209	-9.85
701.237	4.15
701.266	-1.85
701.294	-1.85
701.322	14.15
701.351	-2.85
701.379	9.15
701.407	14.15
701.435	4.15
701.464	13.15
701.492	22.15
701.52	-2.85
701.549	11.15
701.577	2.15
701.605	3.15
701.634	-7.85
701.662	1.15
701.69	-14.85
701.718	-4.85
701.747	5.15
701.775	7.15
701.803	-14.85
701.831	-13.85
701.86	-7.85
701.888	-4.85
701.916	1.15
701.944	8.15
701.973	2.15
702.001	-10.85
702.029	-4.85
702.057	-10.85
702.086	-3.85
702.114	-0.85
702.142	14.15
702.17	-6.85
702.199	-0.85
702.227	0.15
702.255	5.15
702.283	-23.85
702.311	12.15
702.34	6.15
702.368	3.15
702.396	-9.85
702.424	16.15
702.452	1.15
702.481	-5.85
702.509	2.15
702.537	14.15
702.565	12.15
702.593	-15.85
702.621	-4.85
702.65	5.15
702.678	5.15
702.706	5.15
702.734	-1.85
702.762	9.15
702.79	0.15
702.819	-14.85
702.847	1.15
702.875	11.15
702.903	-0.85
702.931	-8.85
702.959	-13.85
702.988	-7.85
703.016	-7.85
703.044	-11.85
703.072	-1.85
703.1	-1.85
703.128	-0.85
703.156	0.15
703.184	-5.85
703.212	4.15
703.241	-1.85
703.269	-3.85
703.297	2.15
703.325	8.15
703.353	-3.85
703.381	-18.85
703.409	-9.85
703.437	-1.85
703.465	-2.85
703.493	-15.85
703.522	4.15
703.55	-1.85
703.578	7.15
703.606	-6.85
703.634	-15.85
703.662	-8.85
703.69	-13.85
703.718	-7.85
703.746	18.15
703.774	4.15
703.802	10.15
703.83	-2.85
703.858	-7.85
703.886	-10.85
703.914	-16.85
703.942	3.15
703.97	-3.85
703.998	3.15
704.027	17.15
704.055	7.15
704.083	1.15
704.111	-14.85
704.139	-1.85
704.167	-29.85
704.195	-12.85
704.223	-14.85
704.251	-6.85
704.279	2.15
704.307	-4.85
704.335	-2.85
704.363	4.15
704.391	-9.85
704.419	-6.85
704.447	-20.85
704.475	-6.85
704.503	-5.85
704.531	-0.85
704.558	-0.85
704.586	1.15
704.614	-8.85
704.642	-7.85
704.67	-10.85
704.698	-8.85
704.726	1.15
704.754	11.15
704.782	-2.85
704.81	-8.85
704.838	17.15
704.866	11.15
704.894	-0.85
704.922	-1.85
704.95	5.15
704.978	1.15
705.006	-1.85
705.034	7.15
705.061	-0.85
705.089	-10.85
705.117	-25.85
705.145	5.15
705.173	-7.85
705.201	-5.85
705.229	9.15
705.257	4.15
705.285	8.15
705.313	7.15
705.34	-4.85
705.368	-5.85
705.396	-3.85
705.424	-5.85
705.452	-7.85
705.48	-2.85
705.508	1.15
705.536	-10.85
705.563	-7.85
705.591	9.15
705.619	-0.85
705.647	-3.85
705.675	-3.85
705.703	12.15
705.731	-2.85
705.758	-4.85
705.786	9.15
705.814	3.15
705.842	-2.85
705.87	7.15
705.898	22.15
705.925	-3.85
705.953	4.15
705.981	-14.85
706.009	-14.85
706.037	-6.85
706.065	-13.85
706.092	-18.85
706.12	1.15
706.148	-0.85
706.176	-1.85
706.204	13.15
706.231	-3.85
706.259	-9.85
706.287	10.15
706.315	-1.85
706.342	-7.85
706.37	11.15
706.398	6.15
706.426	0.15
706.454	-2.85
706.481	-0.85
706.509	-11.85
706.537	-21.85
706.565	-1.85
706.592	16.15
706.62	1.15
706.648	0.15
706.676	-18.85
706.703	-2.85
706.731	7.15
706.759	0.15
706.787	17.15
706.814	-1.85
706.842	-5.85
706.87	-0.85
706.897	2.15
706.925	-7.85
706.953	12.15
706.981	15.15
707.008	-7.85
707.036	-8.85
707.064	-1.85
707.091	-12.85
707.119	4.15
707.147	1.15
707.174	-15.85
707.202	13.15
707.23	-20.85
707.258	5.15
707.285	-2.85
707.313	2.15
707.341	-5.85
707.368	1.15
707.396	-2.85
707.424	0.15
707.451	-1.85
707.479	6.15
707.507	-2.85
707.534	-0.85
707.562	9.15
707.59	-17.85
707.617	-10.85
707.645	-8.85
707.672	-1.85
707.7	9.15
707.728	4.15
707.755	2.15
707.783	1.15
707.811	0.15
707.838	-5.85
707.866	10.15
707.893	9.15
707.921	7.15
707.949	-2.85
707.976	-2.85
708.004	-6.85
708.031	0.15
708.059	-14.85
708.087	-4.85
708.114	2.15
708.142	-12.85
708.169	-3.85
708.197	-2.85
708.225	-2.85
708.252	-7.85
708.28	-1.85
708.307	-1.85
708.335	4.15
708.362	-6.85
708.39	-18.85
708.418	-5.85
708.445	-20.85
708.473	-17.85
708.5	-17.85
708.528	9.15
708.555	1.15
708.583	-1.85
708.61	-20.85
708.638	6.15
708.665	5.15
708.693	1.15
708.72	-9.85
708.748	-15.85
708.776	-3.85
708.803	33.15
708.831	6.15
708.858	17.15
708.886	1.15
708.913	-7.85
708.941	-11.85
708.968	7.15
708.996	-4.85
709.023	26.15
709.051	-2.85
709.078	17.15
709.105	8.15
709.133	11.15
709.16	-8.85
709.188	3.15
709.215	7.15
709.243	0.15
709.27	-4.85
709.298	-6.85
709.325	-7.85
709.353	-6.85
709.38	-10.85
709.408	-4.85
709.435	6.15
709.462	-9.85
709.49	2.15
709.517	-2.85
709.545	-0.85
709.572	-5.85
709.6	2.15
709.627	7.15
709.655	0.15
709.682	-7.85
709.709	1.15
709.737	-3.85
709.764	-2.85
709.792	23.15
709.819	15.15
709.846	-10.85
709.874	6.15
709.901	7.15
709.929	20.15
709.956	7.15
709.983	-8.85
710.011	-9.85
710.038	-10.85
710.066	-3.85
710.093	21.15
710.12	-0.85
710.148	-2.85
710.175	-22.85
710.202	6.15
710.23	2.15
710.257	7.15
710.284	2.15
710.312	-23.85
710.339	-5.85
710.366	-5.85
710.394	-4.85
710.421	-6.85
710.448	5.15
710.476	-13.85
710.503	-0.85
710.53	1.15
710.558	17.15
710.585	5.15
710.612	-0.85
710.64	-1.85
710.667	2.15
710.694	-4.85
710.722	-8.85
710.749	-4.85
710.776	6.15
710.804	6.15
710.831	8.15
710.858	-2.85
710.885	5.15
710.913	6.15
710.94	14.15
710.967	16.15
710.995	9.15
711.022	5.15
711.049	5.15
711.076	-0.85
711.104	-2.85
711.131	-10.85
711.158	-0.85
711.185	8.15
711.213	-6.85
711.24	8.15
711.267	0.15
711.294	6.15
711.322	2.15
711.349	6.15
711.376	-8.85
711.403	6.15
711.431	-2.85
711.458	6.15
711.485	-18.85
711.512	8.15
711.54	-9.85
711.567	-0.85
711.594	-8.85
711.621	-3.85
711.648	-5.85
711.676	8.15
711.703	-17.85
711.73	-10.85
711.757	-0.85
711.784	-4.85
711.812	2.15
711.839	-8.85
711.866	-11.85
711.893	-16.85
711.92	-6.85
711.947	1.15
711.975	-5.85
712.002	-3.85
712.029	22.15
712.056	8.15
712.083	-3.85
712.11	-20.85
712.138	9.15
712.165	-1.85
712.192	-2.85
712.219	-10.85
712.246	-6.85
712.273	-10.85
712.3	-5.85
712.328	-8.85
712.355	5.15
712.382	-2.85
712.409	-1.85
712.436	-11.85
712.463	17.15
712.49	9.15
712.517	14.15
712.544	4.15
712.572	8.15
712.599	-22.85
712.626	2.15
712.653	-2.85
712.68	-10.85
712.707	10.15
712.734	2.15
712.761	-10.85
712.788	14.15
712.815	6.15
712.842	3.15
712.87	2.15
712.897	-9.85
712.924	-17.85
712.951	-3.85
712.978	-4.85
713.005	17.15
713.032	16.15
713.059	-0.85
713.086	1.15
713.113	-2.85
713.14	-3.85
713.167	0.15
713.194	8.15
713.221	-1.85
713.248	17.15
713.275	-1.85
713.302	-15.85
713.329	-4.85
713.356	9.15
713.383	-13.85
713.41	13.15
713.437	-18.85
713.464	-8.85
713.491	11.15
713.518	8.15
713.545	1.15
713.572	-6.85
713.599	8.15
713.626	-4.85
713.653	10.15
713.68	-6.85
713.707	-7.85
713.734	7.15
713.761	6.15
713.788	-0.85
713.815	-6.85
713.842	1.15
713.869	-11.85
713.896	-4.85
713.923	2.15
713.95	-9.85
713.977	-27.85
714.004	-6.85
714.031	0.15
714.058	-7.85
714.085	9.15
714.112	5.15
714.139	-6.85
714.165	4.15
714.192	-7.85
714.219	-4.85
714.246	-0.85
714.273	-1.85
714.3	0.15
714.327	11.15
714.354	0.15
714.381	-2.85
714.408	-6.85
714.435	-13.85
714.461	-7.85
714.488	-1.85
714.515	-9.85
714.542	-13.85
714.569	-21.85
714.596	-18.85
714.623	-6.85
714.65	-3.85
714.677	-6.85
714.703	-1.85
714.73	6.15
714.757	5.15
714.784	6.15
714.811	-8.85
714.838	14.15
714.865	-0.85
714.891	21.15
714.918	2.15
714.945	-17.85
714.972	-15.85
714.999	3.15
715.026	-17.85
715.052	10.15
715.079	8.15
715.106	-0.85
715.133	3.15
715.16	-13.85
715.187	-10.85
715.213	16.15
715.24	-10.85
715.267	-7.85
715.294	-4.85
715.321	-9.85
715.347	-0.85
715.374	-13.85
715.401	-8.85
715.428	-6.85
715.455	-7.85
715.481	-3.85
715.508	-4.85
715.535	-0.85
715.562	6.15
715.588	18.15
715.615	1.15
715.642	5.15
715.669	-5.85
715.695	-13.85
715.722	11.15
715.749	6.15
715.776	1.15
715.802	-3.85
715.829	-5.85
715.856	-2.85
715.883	7.15
715.909	-9.85
715.936	-6.85
715.963	7.15
715.99	-6.85
716.016	0.15
716.043	-7.85
716.07	-7.85
716.096	-20.85
716.123	-15.85
716.15	-4.85
716.177	-2.85
716.203	2.15
716.23	12.15
716.257	10.15
716.283	16.15
716.31	-3.85
716.337	2.15
716.363	1.15
716.39	8.15
716.417	6.15
716.443	17.15
716.47	3.15
716.497	-4.85
716.523	3.15
716.55	1.15
716.577	8.15
716.603	9.15
716.63	9.15
716.657	6.15
716.683	-22.85
716.71	-9.85
716.737	-0.85
716.763	10.15
716.79	4.15
716.817	16.15
716.843	10.15
716.87	-6.85
716.897	-2.85
716.923	9.15
716.95	-13.85
716.976	-16.85
717.003	-2.85
717.03	10.15
717.056	3.15
717.083	-1.85
717.109	-6.85
717.136	6.15
717.163	-0.85
717.189	3.15
717.216	3.15
717.242	1.15
717.269	1.15
717.296	0.15
717.322	-2.85
717.349	7.15
717.375	7.15
717.402	-5.85
717.428	-2.85
717.455	10.15
717.481	7.15
717.508	-4.85
717.535	3.15
717.561	0.15
717.588	2.15
717.614	-7.85
717.641	6.15
717.667	11.15
717.694	7.15
717.72	9.15
717.747	-7.85
717.773	-0.85
717.8	7.15
717.826	9.15
717.853	-6.85
717.88	8.15
717.906	7.15
717.933	-5.85
717.959	-8.85
717.986	-0.85
718.012	-19.85
718.039	-2.85
718.065	1.15
718.092	-0.85
718.118	-12.85
718.144	2.15
718.171	24.15
718.197	14.15
718.224	-1.85
718.25	9.15
718.277	12.15
718.303	4.15
718.33	6.15
718.356	-4.85
718.383	-17.85
718.409	3.15
718.436	-7.85
718.462	-16.85
718.489	-6.85
718.515	-2.85
718.541	9.15
718.568	3.15
718.594	10.15
718.621	5.15
718.647	-5.85
718.674	10.15
718.7	16.15
718.726	-9.85
718.753	-9.85
718.779	4.15
718.806	11.15
718.832	-10.85
718.858	-4.85
718.885	-6.85
718.911	-13.85
718.938	5.15
718.964	0.15
718.99	4.15
719.017	-0.85
719.043	-6.85
719.07	9.15
719.096	-18.85
719.122	7.15
719.149	9.15
719.175	-2.85
719.201	-4.85
719.228	3.15
719.254	-4.85
719.281	-25.85
719.307	1.15
719.333	-20.85
719.36	9.15
719.386	-1.85
719.412	-2.85
719.439	-4.85
719.465	-1.85
719.491	-2.85
719.518	5.15
719.544	-7.85
719.57	-2.85
719.597	3.15
719.623	-18.85
719.649	-1.85
719.675	-5.85
719.702	2.15
719.728	15.15
719.754	3.15
719.781	4.15
719.807	-2.85
719.833	-10.85
719.86	-12.85
719.886	3.15
719.912	-2.85
719.938	-19.85
719.965	-7.85
719.991	6.15
720.017	11.15
720.044	-0.85
720.07	-4.85
720.096	16.15
720.122	-13.85
720.149	1.15
720.175	13.15
720.201	5.15
720.227	-2.85
720.254	2.15
720.28	8.15
720.306	-8.85
720.332	3.15
720.359	0.15
720.385	12.15
720.411	5.15
720.437	-1.85
720.463	2.15
720.49	5.15
720.516	-1.85
720.542	-14.85
720.568	-1.85
720.595	4.15
720.621	2.15
720.647	2.15
720.673	10.15
720.699	-5.85
720.725	19.15
720.752	0.15
720.778	12.15
720.804	16.15
720.83	5.15
720.856	2.15
720.883	-16.85
720.909	-7.85
720.935	3.15
720.961	1.15
720.987	-3.85
721.013	1.15
721.04	-10.85
721.066	-4.85
721.092	-1.85
721.118	3.15
721.144	1.15
721.17	9.15
721.196	-6.85
721.223	5.15
721.249	-9.85
721.275	19.15
721.301	7.15
721.327	17.15
721.353	8.15
721.379	4.15
721.405	4.15
721.432	15.15
721.458	-11.85
721.484	1.15
721.51	-11.85
721.536	3.15
721.562	6.15
721.588	3.15
721.614	3.15
721.64	3.15
721.666	-6.85
721.693	-4.85
721.719	-2.85
721.745	-8.85
721.771	2.15
721.797	17.15
721.823	-4.85
721.849	-3.85
721.875	7.15
721.901	3.15
721.927	-11.85
721.953	-7.85
721.979	18.15
722.005	-8.85
722.031	-4.85
722.057	-5.85
722.083	-0.85
722.109	10.15
722.135	-1.85
722.161	6.15
722.187	-10.85
722.214	-24.85
722.24	-14.85
722.266	-8.85
722.292	9.15
722.318	6.15
722.344	12.15
722.37	1.15
722.396	4.15
722.422	9.15
722.448	8.15
722.474	-7.85
722.5	6.15
722.526	5.15
722.552	-8.85
722.578	4.15
722.603	-3.85
722.629	-13.85
722.655	7.15
722.681	-2.85
722.707	3.15
722.733	-4.85
722.759	-1.85
722.785	7.15
722.811	-6.85
722.837	0.15
722.863	7.15
722.889	10.15
722.915	12.15
722.941	-6.85
722.967	2.15
722.993	3.15
723.019	-6.85
723.045	13.15
723.071	9.15
723.097	-2.85
723.122	3.15
723.148	1.15
723.174	-6.85
723.2	0.15
723.226	-0.85
723.252	-6.85
723.278	-10.85
723.304	11.15
723.33	6.15
723.356	-9.85
723.381	11.15
723.407	-5.85
723.433	0.15
723.459	-18.85
723.485	-20.85
723.511	-2.85
723.537	-15.85
723.563	-0.85
723.588	-5.85
723.614	15.15
723.64	-0.85
723.666	-3.85
723.692	4.15
723.718	-5.85
723.744	6.15
723.769	-2.85
723.795	-1.85
723.821	17.15
723.847	-1.85
723.873	0.15
723.899	-2.85
723.924	-12.85
723.95	-13.85
723.976	-6.85
724.002	2.15
724.028	-8.85
724.053	-12.85
724.079	1.15
724.105	6.15
724.131	-0.85
724.157	4.15
724.182	-0.85
724.208	-7.85
724.234	-5.85
724.26	5.15
724.286	11.15
724.311	8.15
724.337	4.15
724.363	-11.85
724.389	9.15
724.415	2.15
724.44	13.15
724.466	0.15
724.492	7.15
724.518	-7.85
724.543	-0.85
724.569	-9.85
724.595	-0.85
724.621	-8.85
724.646	-2.85
724.672	-3.85
724.698	9.15
724.723	8.15
724.749	-2.85
724.775	3.15
724.801	0.15
724.826	3.15
724.852	-5.85
724.878	7.15
724.904	-6.85
724.929	-0.85
724.955	-18.85
724.981	-20.85
725.006	0.15
725.032	-2.85
725.058	4.15
725.083	-5.85
725.109	-7.85
725.135	-18.85
725.161	-1.85
725.186	-2.85
725.212	-9.85
725.238	6.15
725.263	-0.85
725.289	-10.85
725.315	-8.85
725.34	-6.85
725.366	16.15
725.392	-9.85
725.417	1.15
725.443	4.15
725.468	21.15
725.494	11.15
725.52	14.15
725.545	10.15
725.571	-0.85
725.597	-2.85
725.622	-1.85
725.648	-7.85
725.674	15.15
725.699	8.15
725.725	-6.85
725.75	22.15
725.776	6.15
725.802	8.15
725.827	-1.85
725.853	10.15
725.878	-6.85
725.904	-12.85
725.93	1.15
725.955	-8.85
725.981	-5.85
726.006	-1.85
726.032	3.15
726.057	5.15
726.083	-23.85
726.109	-17.85
726.134	-0.85
726.16	11.15
726.185	-16.85
726.211	-12.85
726.236	-2.85
726.262	-1.85
726.288	14.15
726.313	15.15
726.339	-6.85
726.364	3.15
726.39	10.15
726.415	-3.85
726.441	-10.85
726.466	-3.85
726.492	-4.85
726.517	-9.85
726.543	-8.85
726.568	-12.85
726.594	-5.85
726.619	9.15
726.645	11.15
726.67	-8.85
726.696	-5.85
726.721	4.15
726.747	-11.85
726.772	-1.85
726.798	1.15
726.823	-9.85
726.849	-7.85
726.874	10.15
726.9	25.15
726.925	12.15
726.951	-2.85
726.976	7.15
727.002	-2.85
727.027	4.15
727.053	6.15
727.078	-2.85
727.104	-0.85
727.129	-15.85
727.155	-13.85
727.18	11.15
727.205	9.15
727.231	4.15
727.256	-0.85
727.282	-5.85
727.307	-3.85
727.333	-6.85
727.358	-12.85
727.383	-13.85
727.409	-9.85
727.434	4.15
727.46	-1.85
727.485	1.15
727.511	4.15
727.536	-1.85
727.561	-18.85
727.587	-9.85
727.612	-18.85
727.637	-3.85
727.663	-4.85
727.688	13.15
727.714	-6.85
727.739	-15.85
727.764	-9.85
727.79	3.15
727.815	-8.85
727.841	-2.85
727.866	-1.85
727.891	-6.85
727.917	-10.85
727.942	1.15
727.967	-8.85
727.993	-9.85
728.018	-4.85
728.043	-5.85
728.069	-0.85
728.094	14.15
728.119	-2.85
728.145	7.15
728.17	-2.85
728.195	8.15
728.221	15.15
728.246	-4.85
728.271	-20.85
728.297	1.15
728.322	-13.85
728.347	3.15
728.373	0.15
728.398	12.15
728.423	0.15
728.448	9.15
728.474	-8.85
728.499	-7.85
728.524	-2.85
728.55	-5.85
728.575	6.15
728.6	25.15
728.625	7.15
728.651	9.15
728.676	-11.85
728.701	-1.85
728.727	5.15
728.752	-15.85
728.777	-8.85
728.802	-8.85
728.828	-2.85
728.853	-3.85
728.878	-4.85
728.903	-11.85
728.929	-9.85
728.954	3.15
728.979	15.15
729.004	2.15
729.03	-12.85
729.055	4.15
729.08	-17.85
729.105	-24.85
729.13	2.15
729.156	4.15
729.181	2.15
729.206	-10.85
729.231	-1.85
729.256	6.15
729.282	-2.85
729.307	-7.85
729.332	-8.85
729.357	3.15
729.382	2.15
729.408	-3.85
729.433	-8.85
729.458	0.15
729.483	12.15
729.508	17.15
729.533	-7.85
729.559	1.15
729.584	1.15
729.609	10.15
729.634	6.15
729.659	-9.85
729.684	-7.85
729.71	7.15
729.735	-4.85
729.76	3.15
729.785	8.15
729.81	21.15
729.835	6.15
729.86	4.15
729.886	5.15
729.911	-4.85
729.936	1.15
729.961	4.15
729.986	-14.85
730.011	-0.85
730.036	10.15
730.061	7.15
730.086	-4.85
730.112	-14.85
730.137	25.15
730.162	-0.85
730.187	-8.85
730.212	4.15
730.237	-9.85
730.262	6.15
730.287	1.15
730.312	24.15
730.337	-3.85
730.362	1.15
730.387	-3.85
730.413	-13.85
730.438	-7.85
730.463	2.15
730.488	-1.85
730.513	-0.85
730.538	-9.85
730.563	16.15
730.588	6.15
730.613	6.15
730.638	-10.85
730.663	3.15
730.688	26.15
730.713	15.15
730.738	-1.85
730.763	-3.85
730.788	-10.85
730.813	-2.85
730.838	6.15
730.863	4.15
730.888	-5.85
730.913	-8.85
730.938	-6.85
730.963	16.15
730.988	6.15
731.013	14.15
731.038	4.15
731.063	-9.85
731.088	14.15
731.113	-15.85
731.138	3.15
731.163	-9.85
731.188	-3.85
731.213	5.15
731.238	1.15
731.263	0.15
731.288	-8.85
731.313	-3.85
731.338	-10.85
731.363	6.15
731.388	-0.85
731.413	-6.85
731.438	5.15
731.463	1.15
731.487	9.15
731.512	-9.85
731.537	-19.85
731.562	0.15
731.587	4.15
731.612	-9.85
731.637	-4.85
731.662	3.15
731.687	-8.85
731.712	-11.85
731.737	6.15
731.762	-11.85
731.786	-5.85
731.811	-5.85
731.836	-0.85
731.861	2.15
731.886	-9.85
731.911	-2.85
731.936	5.15
731.961	-8.85
731.986	-5.85
732.01	-14.85
732.035	2.15
732.06	25.15
732.085	-5.85
732.11	-7.85
732.135	-15.85
732.16	-11.85
732.184	-2.85
732.209	-6.85
732.234	-4.85
732.259	-16.85
732.284	13.15
732.309	-2.85
732.334	-1.85
732.358	-13.85
732.383	-21.85
732.408	-1.85
732.433	2.15
732.458	1.15
732.482	-7.85
732.507	-8.85
732.532	9.15
732.557	6.15
732.582	12.15
732.607	-7.85
732.631	-9.85
732.656	-8.85
732.681	10.15
732.706	6.15
732.73	-0.85
732.755	10.15
732.78	5.15
732.805	2.15
732.83	-8.85
732.854	-8.85
732.879	3.15
732.904	-7.85
732.929	-2.85
732.953	-5.85
732.978	-5.85
733.003	6.15
733.028	6.15
733.052	10.15
733.077	-0.85
733.102	7.15
733.127	-1.85
733.151	7.15
733.176	16.15
733.201	-4.85
733.226	-7.85
733.25	-20.85
733.275	-9.85
733.3	8.15
733.324	19.15
733.349	14.15
733.374	3.15
733.399	22.15
733.423	14.15
733.448	-2.85
733.473	-5.85
733.497	-4.85
733.522	-11.85
733.547	16.15
733.571	12.15
733.596	11.15
733.621	12.15
733.646	7.15
733.67	9.15
733.695	-15.85
733.72	2.15
733.744	16.15
733.769	17.15
733.794	11.15
733.818	-0.85
733.843	0.15
733.867	7.15
733.892	-4.85
733.917	-1.85
733.941	3.15
733.966	-10.85
733.991	-5.85
734.015	12.15
734.04	11.15
734.065	18.15
734.089	-1.85
734.114	-1.85
734.138	-8.85
734.163	-7.85
734.188	5.15
734.212	16.15
734.237	3.15
734.261	-4.85
734.286	-0.85
734.311	0.15
734.335	10.15
734.36	10.15
734.384	9.15
734.409	-2.85
734.434	-4.85
734.458	7.15
734.483	9.15
734.507	-13.85
734.532	4.15
734.556	10.15
734.581	4.15
734.606	-5.85
734.63	-13.85
734.655	-0.85
734.679	2.15
734.704	-6.85
734.728	10.15
734.753	-6.85
734.777	7.15
734.802	5.15
734.826	-7.85
734.851	-6.85
734.876	-0.85
734.9	7.15
734.925	-2.85
734.949	-7.85
734.974	1.15
734.998	12.15
735.023	-12.85
735.047	11.15
735.072	17.15
735.096	-1.85
735.121	-13.85
735.145	-6.85
735.17	4.15
735.194	-2.85
735.219	-2.85
735.243	-2.85
735.268	-2.85
735.292	-9.85
735.317	3.15
735.341	-0.85
735.365	-2.85
735.39	5.15
735.414	18.15
735.439	2.15
735.463	0.15
735.488	6.15
735.512	-1.85
735.537	7.15
735.561	1.15
735.586	-9.85
735.61	-0.85
735.634	-5.85
735.659	-5.85
735.683	3.15
735.708	-10.85
735.732	0.15
735.757	-8.85
735.781	5.15
735.805	-2.85
735.83	-6.85
735.854	-5.85
735.879	-6.85
735.903	-1.85
735.927	-9.85
735.952	-1.85
735.976	-8.85
736.001	-14.85
736.025	-6.85
736.049	3.15
736.074	-8.85
736.098	-4.85
736.123	-8.85
736.147	-11.85
736.171	-4.85
736.196	-7.85
736.22	-13.85
736.244	7.15
736.269	-2.85
736.293	2.15
736.317	-1.85
736.342	2.15
736.366	12.15
736.39	0.15
736.415	-10.85
736.439	-10.85
736.463	-2.85
736.488	-6.85
736.512	-8.85
736.536	-4.85
736.561	28.15
736.585	1.15
736.609	12.15
736.634	-1.85
736.658	-4.85
736.682	-16.85
736.707	-9.85
736.731	-16.85
736.755	-2.85
736.78	11.15
736.804	4.15
736.828	14.15
736.852	1.15
736.877	-5.85
736.901	-9.85
736.925	7.15
736.949	4.15
736.974	11.15
736.998	-14.85
737.022	-1.85
737.047	-7.85
737.071	-12.85
737.095	16.15
737.119	27.15
737.144	7.15
737.168	1.15
737.192	-12.85
737.216	6.15
737.241	6.15
737.265	7.15
737.289	5.15
737.313	-10.85
737.337	13.15
737.362	7.15
737.386	-8.85
737.41	-0.85
737.434	-1.85
737.459	-4.85
737.483	11.15
737.507	2.15
737.531	8.15
737.555	-2.85
737.58	-0.85
737.604	9.15
737.628	-12.85
737.652	-20.85
737.676	5.15
737.701	6.15
737.725	4.15
737.749	18.15
737.773	1.15
737.797	0.15
737.821	5.15
737.846	-12.85
737.87	3.15
737.894	0.15
737.918	-1.85
737.942	4.15
737.966	9.15
737.99	6.15
738.015	1.15
738.039	1.15
738.063	2.15
738.087	14.15
738.111	10.15
738.135	8.15
738.159	13.15
738.184	21.15
738.208	6.15
738.232	8.15
738.256	14.15
738.28	19.15
738.304	10.15
738.328	-8.85
738.352	9.15
738.376	-2.85
738.4	8.15
738.425	-0.85
738.449	-14.85
738.473	13.15
738.497	11.15
738.521	-2.85
738.545	9.15
738.569	-2.85
738.593	14.15
738.617	7.15
738.641	-0.85
738.665	9.15
738.689	19.15
738.713	-0.85
738.737	5.15
738.762	4.15
738.786	2.15
738.81	-9.85
738.834	9.15
738.858	-2.85
738.882	4.15
738.906	-14.85
738.93	5.15
738.954	-4.85
738.978	7.15
739.002	3.15
739.026	11.15
739.05	16.15
739.074	6.15
739.098	21.15
739.122	20.15
739.146	4.15
739.17	2.15
739.194	-4.85
739.218	-4.85
739.242	15.15
739.266	2.15
739.29	3.15
739.314	10.15
739.338	-2.85
739.362	4.15
739.386	4.15
739.41	-4.85
739.434	-1.85
739.458	15.15
739.482	1.15
739.506	3.15
739.53	0.15
739.554	15.15
739.577	-0.85
739.601	-5.85
739.625	-12.85
739.649	-8.85
739.673	3.15
739.697	12.15
739.721	-1.85
739.745	9.15
739.769	18.15
739.793	12.15
739.817	8.15
739.841	-11.85
739.865	-5.85
739.889	-2.85
739.912	-2.85
739.936	-6.85
739.96	0.15
739.984	11.15
740.008	5.15
740.032	0.15
740.056	-10.85
740.08	2.15
740.104	-0.85
740.127	5.15
740.151	16.15
740.175	10.15
740.199	14.15
740.223	53.15
740.247	7.15
740.271	-3.85
740.295	-9.85
740.318	-13.85
740.342	-6.85
740.366	8.15
740.39	-12.85
740.414	-8.85
740.438	-7.85
740.461	-1.85
740.485	8.15
740.509	-9.85
740.533	7.15
740.557	-3.85
740.581	-2.85
740.604	-8.85
740.628	1.15
740.652	9.15
740.676	-5.85
740.7	6.15
740.723	6.15
740.747	-6.85
740.771	7.15
740.795	-4.85
740.819	10.15
740.842	7.15
740.866	3.15
740.89	2.15
740.914	-8.85
740.938	-11.85
740.961	9.15
740.985	1.15
741.009	-4.85
741.033	5.15
741.056	-17.85
741.08	-2.85
741.104	-5.85
741.128	-1.85
741.151	6.15
741.175	11.15
741.199	3.15
741.223	0.15
741.246	-4.85
741.27	-1.85
741.294	-8.85
741.318	2.15
741.341	-0.85
741.365	-6.85
741.389	5.15
741.413	4.15
741.436	25.15
741.46	13.15
741.484	12.15
741.507	9.15
741.531	16.15
741.555	9.15
741.579	2.15
741.602	5.15
741.626	-2.85
741.65	6.15
741.673	-2.85
741.697	-11.85
741.721	-8.85
741.744	-18.85
741.768	-1.85
741.792	-15.85
741.815	2.15
741.839	11.15
741.863	5.15
741.886	-5.85
741.91	6.15
741.934	-1.85
741.957	-8.85
741.981	9.15
742.005	-4.85
742.028	1.15
742.052	0.15
742.075	8.15
742.099	12.15
742.123	-4.85
742.146	-0.85
742.17	25.15
742.194	-8.85
742.217	-8.85
742.241	-2.85
742.264	5.15
742.288	9.15
742.312	5.15
742.335	-1.85
742.359	17.15
742.382	17.15
742.406	10.15
742.43	0.15
742.453	7.15
742.477	-4.85
742.5	8.15
742.524	-1.85
742.548	2.15
742.571	-3.85
742.595	-7.85
742.618	2.15
742.642	-2.85
742.665	10.15
742.689	-5.85
742.712	-1.85
742.736	2.15
742.76	-2.85
742.783	-14.85
742.807	5.15
742.83	13.15
742.854	-3.85
742.877	-12.85
742.901	11.15
742.924	6.15
742.948	0.15
742.971	2.15
742.995	1.15
743.018	-14.85
743.042	-2.85
743.065	-5.85
743.089	-2.85
743.112	9.15
743.136	-1.85
743.159	-9.85
743.183	-15.85
743.206	10.15
743.23	5.15
743.253	12.15
743.277	-3.85
743.3	4.15
743.324	16.15
743.347	-9.85
743.371	13.15
743.394	11.15
743.418	22.15
743.441	9.15
743.465	2.15
743.488	1.15
743.512	0.15
743.535	-6.85
743.558	-7.85
743.582	21.15
743.605	21.15
743.629	7.15
743.652	3.15
743.676	7.15
743.699	8.15
743.723	-3.85
743.746	3.15
743.769	-3.85
743.793	18.15
743.816	11.15
743.84	18.15
743.863	-4.85
743.886	4.15
743.91	13.15
743.933	23.15
743.957	14.15
743.98	-11.85
744.003	4.15
744.027	-2.85
744.05	-15.85
744.074	-9.85
744.097	-22.85
744.12	-9.85
744.144	-7.85
744.167	9.15
744.19	-7.85
744.214	-2.85
744.237	-6.85
744.26	8.15
744.284	-1.85
744.307	-14.85
744.331	-2.85
744.354	-4.85
744.377	-0.85
744.401	4.15
744.424	-5.85
744.447	-2.85
744.471	-2.85
