Data from HighRes_H2_15_09_11_07_2024_HR4C61891__82__15-11-04-602.txt Node

Date: Thu Nov 07 15:11:04 EST 2024
User: crc00042
Spectrometer: HR4C6189
Trigger mode: 4
Integration Time (sec): 1.000000E-1
Scans to average: 1
Electric dark correction enabled: true
Nonlinearity correction enabled: false
Boxcar width: 0
XAxis mode: Wavelengths
Number of Pixels in Spectrum: 3648
>>>>>Begin Spectral Data<<<<<
639.567	-30.46
639.602	-30.46
639.636	-30.46
639.67	-41.46
639.704	-37.46
639.738	0.54
639.773	23.54
639.807	-14.46
639.841	2.54
639.875	10.54
639.909	1.54
639.943	-5.46
639.978	-16.46
640.012	6.54
640.046	13.54
640.08	1.54
640.114	-15.46
640.148	-8.46
640.182	-8.46
640.217	-10.46
640.251	4.54
640.285	13.54
640.319	-16.46
640.353	-9.46
640.387	4.54
640.421	-14.46
640.455	-20.46
640.49	-11.46
640.524	1.54
640.558	13.54
640.592	1.54
640.626	-2.46
640.66	14.54
640.694	-8.46
640.728	11.54
640.762	9.54
640.796	9.54
640.83	8.54
640.865	2.54
640.899	14.54
640.933	-10.46
640.967	1.54
641.001	6.54
641.035	1.54
641.069	-8.46
641.103	-16.46
641.137	-8.46
641.171	-26.46
641.205	-1.46
641.239	-13.46
641.273	3.54
641.307	20.54
641.341	7.54
641.375	-5.46
641.409	-14.46
641.443	-2.46
641.477	21.54
641.511	14.54
641.545	0.54
641.579	-6.46
641.614	9.54
641.648	8.54
641.682	-16.46
641.716	-8.46
641.75	-7.46
641.784	-0.46
641.818	2.54
641.852	-0.46
641.886	-2.46
641.919	25.54
641.953	-10.46
641.987	-7.46
642.021	-3.46
642.055	0.54
642.089	-2.46
642.123	4.54
642.157	-2.46
642.191	-11.46
642.225	4.54
642.259	1.54
642.293	12.54
642.327	15.54
642.361	-5.46
642.395	7.54
642.429	-4.46
642.463	2.54
642.497	13.54
642.531	7.54
642.565	1.54
642.599	1.54
642.633	-17.46
642.666	3.54
642.7	-0.46
642.734	7.54
642.768	-2.46
642.802	-3.46
642.836	0.54
642.87	-8.46
642.904	-13.46
642.938	-12.46
642.972	0.54
643.005	-2.46
643.039	7.54
643.073	-6.46
643.107	-6.46
643.141	-2.46
643.175	-6.46
643.209	-13.46
643.243	-2.46
643.276	-0.46
643.31	0.54
643.344	0.54
643.378	-29.46
643.412	0.54
643.446	9.54
643.48	-14.46
643.513	15.54
643.547	-4.46
643.581	-10.46
643.615	16.54
643.649	11.54
643.683	9.54
643.716	1.54
643.75	-5.46
643.784	-2.46
643.818	5.54
643.852	-6.46
643.886	7.54
643.919	22.54
643.953	1.54
643.987	-12.46
644.021	16.54
644.055	1.54
644.088	-7.46
644.122	-5.46
644.156	-9.46
644.19	-0.46
644.224	-2.46
644.257	6.54
644.291	7.54
644.325	-6.46
644.359	-4.46
644.392	10.54
644.426	0.54
644.46	-17.46
644.494	-4.46
644.527	-10.46
644.561	2.54
644.595	7.54
644.629	-0.46
644.662	-7.46
644.696	7.54
644.73	5.54
644.764	4.54
644.797	-8.46
644.831	4.54
644.865	3.54
644.899	6.54
644.932	31.54
644.966	8.54
645	3.54
645.033	13.54
645.067	-3.46
645.101	9.54
645.135	4.54
645.168	-2.46
645.202	-10.46
645.236	1.54
645.269	1.54
645.303	-5.46
645.337	-20.46
645.37	0.54
645.404	5.54
645.438	-2.46
645.471	-1.46
645.505	10.54
645.539	-14.46
645.572	-8.46
645.606	-1.46
645.64	6.54
645.673	15.54
645.707	19.54
645.741	-8.46
645.774	-10.46
645.808	-1.46
645.842	-16.46
645.875	9.54
645.909	-16.46
645.943	1.54
645.976	2.54
646.01	3.54
646.043	0.54
646.077	6.54
646.111	0.54
646.144	-0.46
646.178	27.54
646.212	0.54
646.245	-9.46
646.279	5.54
646.312	-3.46
646.346	-1.46
646.38	1.54
646.413	-2.46
646.447	9.54
646.48	11.54
646.514	7.54
646.547	4.54
646.581	-2.46
646.615	3.54
646.648	-17.46
646.682	-10.46
646.715	-2.46
646.749	9.54
646.782	-9.46
646.816	-1.46
646.85	26.54
646.883	5.54
646.917	2.54
646.95	23.54
646.984	5.54
647.017	9.54
647.051	2.54
647.084	7.54
647.118	-12.46
647.151	-7.46
647.185	11.54
647.218	-16.46
647.252	-0.46
647.285	-7.46
647.319	-13.46
647.353	4.54
647.386	19.54
647.42	2.54
647.453	11.54
647.487	-8.46
647.52	-10.46
647.553	14.54
647.587	10.54
647.62	-1.46
647.654	-8.46
647.687	7.54
647.721	6.54
647.754	13.54
647.788	-14.46
647.821	-15.46
647.855	17.54
647.888	6.54
647.922	11.54
647.955	13.54
647.989	7.54
648.022	6.54
648.055	-3.46
648.089	14.54
648.122	16.54
648.156	-11.46
648.189	11.54
648.223	8.54
648.256	15.54
648.29	7.54
648.323	0.54
648.356	3.54
648.39	8.54
648.423	-3.46
648.457	1.54
648.49	13.54
648.523	12.54
648.557	-4.46
648.59	4.54
648.624	17.54
648.657	-1.46
648.69	11.54
648.724	8.54
648.757	6.54
648.791	7.54
648.824	3.54
648.857	-0.46
648.891	-0.46
648.924	-1.46
648.957	-7.46
648.991	-9.46
649.024	-1.46
649.057	-18.46
649.091	-3.46
649.124	13.54
649.158	16.54
649.191	19.54
649.224	2.54
649.258	10.54
649.291	3.54
649.324	8.54
649.358	-5.46
649.391	8.54
649.424	-7.46
649.458	6.54
649.491	-2.46
649.524	0.54
649.557	-10.46
649.591	-22.46
649.624	2.54
649.657	-18.46
649.691	-9.46
649.724	-7.46
649.757	8.54
649.791	8.54
649.824	-1.46
649.857	7.54
649.89	1.54
649.924	-18.46
649.957	-2.46
649.99	-16.46
650.023	-17.46
650.057	-0.46
650.09	12.54
650.123	6.54
650.157	19.54
650.19	8.54
650.223	-5.46
650.256	6.54
650.29	-14.46
650.323	9.54
650.356	5.54
650.389	5.54
650.423	-6.46
650.456	-0.46
650.489	-6.46
650.522	-16.46
650.555	3.54
650.589	7.54
650.622	2.54
650.655	-5.46
650.688	2.54
650.721	-2.46
650.755	-0.46
650.788	2.54
650.821	7.54
650.854	0.54
650.887	8.54
650.921	-5.46
650.954	-13.46
650.987	-6.46
651.02	-2.46
651.053	-8.46
651.087	0.54
651.12	33.54
651.153	10.54
651.186	-5.46
651.219	-9.46
651.252	8.54
651.286	10.54
651.319	3.54
651.352	-4.46
651.385	0.54
651.418	-8.46
651.451	1.54
651.484	16.54
651.518	-17.46
651.551	16.54
651.584	-12.46
651.617	5.54
651.65	5.54
651.683	1.54
651.716	2.54
651.749	-2.46
651.783	-1.46
651.816	5.54
651.849	0.54
651.882	-3.46
651.915	1.54
651.948	9.54
651.981	-8.46
652.014	-13.46
652.047	3.54
652.08	-13.46
652.114	-8.46
652.147	-2.46
652.18	17.54
652.213	28.54
652.246	6.54
652.279	7.54
652.312	7.54
652.345	-12.46
652.378	-6.46
652.411	8.54
652.444	4.54
652.477	12.54
652.51	1.54
652.543	-9.46
652.576	-6.46
652.609	-22.46
652.642	-6.46
652.675	18.54
652.709	6.54
652.742	4.54
652.775	12.54
652.808	4.54
652.841	3.54
652.874	-5.46
652.907	-2.46
652.94	0.54
652.973	-17.46
653.006	-5.46
653.039	-11.46
653.072	0.54
653.105	-14.46
653.138	-6.46
653.171	-4.46
653.204	0.54
653.237	9.54
653.27	1.54
653.303	1.54
653.336	13.54
653.368	-24.46
653.401	0.54
653.434	-10.46
653.467	-15.46
653.5	-20.46
653.533	-6.46
653.566	-2.46
653.599	-0.46
653.632	14.54
653.665	8.54
653.698	-19.46
653.731	-13.46
653.764	28.54
653.797	3.54
653.83	-4.46
653.863	9.54
653.896	15.54
653.929	-1.46
653.961	-10.46
653.994	1.54
654.027	9.54
654.06	36.54
654.093	-1.46
654.126	5.54
654.159	-8.46
654.192	4.54
654.225	5.54
654.258	4.54
654.29	-12.46
654.323	-1.46
654.356	-2.46
654.389	4.54
654.422	-3.46
654.455	2.54
654.488	-1.46
654.521	-12.46
654.553	-0.46
654.586	-15.46
654.619	-10.46
654.652	-8.46
654.685	9.54
654.718	3.54
654.751	-4.46
654.783	-2.46
654.816	9.54
654.849	-8.46
654.882	-8.46
654.915	-22.46
654.948	9.54
654.98	6.54
655.013	8.54
655.046	-12.46
655.079	-13.46
655.112	4.54
655.144	-17.46
655.177	4.54
655.21	16.54
655.243	21.54
655.276	13.54
655.308	-6.46
655.341	-1.46
655.374	9.54
655.407	-2.46
655.44	-5.46
655.472	20.54
655.505	-4.46
655.538	-5.46
655.571	14.54
655.603	7.54
655.636	4.54
655.669	5.54
655.702	0.54
655.734	-6.46
655.767	6.54
655.8	22.54
655.833	30.54
655.865	33.54
655.898	30.54
655.931	31.54
655.964	39.54
655.996	39.54
656.029	53.54
656.062	71.54
656.095	62.54
656.127	58.54
656.16	88.54
656.193	120.54
656.225	174.54
656.258	293.54
656.291	522.54
656.324	1127.54
656.356	3328.54
656.389	7417.54
656.422	5988.54
656.454	2000.54
656.487	670.54
656.52	245.54
656.552	103.54
656.585	76.54
656.618	58.54
656.65	37.54
656.683	29.54
656.716	13.54
656.748	12.54
656.781	-7.46
656.814	-6.46
656.846	11.54
656.879	2.54
656.912	-6.46
656.944	-15.46
656.977	-0.46
657.01	9.54
657.042	16.54
657.075	4.54
657.108	-13.46
657.14	7.54
657.173	5.54
657.205	28.54
657.238	25.54
657.271	5.54
657.303	-14.46
657.336	-4.46
657.369	-1.46
657.401	-3.46
657.434	0.54
657.466	-0.46
657.499	5.54
657.532	0.54
657.564	22.54
657.597	5.54
657.629	10.54
657.662	4.54
657.694	-10.46
657.727	-32.46
657.76	7.54
657.792	-1.46
657.825	-3.46
657.857	-10.46
657.89	3.54
657.922	-1.46
657.955	-14.46
657.987	-0.46
658.02	-6.46
658.053	27.54
658.085	8.54
658.118	-6.46
658.15	11.54
658.183	31.54
658.215	6.54
658.248	-11.46
658.28	-6.46
658.313	16.54
658.345	9.54
658.378	1.54
658.41	0.54
658.443	16.54
658.475	-1.46
658.508	-14.46
658.54	3.54
658.573	-17.46
658.605	7.54
658.638	-0.46
658.67	-12.46
658.703	-11.46
658.735	-7.46
658.768	12.54
658.8	-5.46
658.833	9.54
658.865	-2.46
658.898	-7.46
658.93	-21.46
658.963	-2.46
658.995	-11.46
659.028	-8.46
659.06	-2.46
659.092	0.54
659.125	-23.46
659.157	2.54
659.19	-16.46
659.222	-9.46
659.255	3.54
659.287	5.54
659.32	16.54
659.352	0.54
659.384	9.54
659.417	-9.46
659.449	9.54
659.482	3.54
659.514	-12.46
659.546	2.54
659.579	-8.46
659.611	4.54
659.644	-5.46
659.676	-8.46
659.708	-10.46
659.741	-2.46
659.773	8.54
659.806	5.54
659.838	8.54
659.87	-7.46
659.903	6.54
659.935	7.54
659.967	6.54
660	0.54
660.032	-24.46
660.065	17.54
660.097	3.54
660.129	-1.46
660.162	-24.46
660.194	6.54
660.226	7.54
660.259	-0.46
660.291	12.54
660.323	-2.46
660.356	0.54
660.388	-15.46
660.42	-3.46
660.453	-4.46
660.485	-8.46
660.517	-5.46
660.55	5.54
660.582	8.54
660.614	15.54
660.647	0.54
660.679	-13.46
660.711	-0.46
660.743	-6.46
660.776	-21.46
660.808	-0.46
660.84	-15.46
660.873	17.54
660.905	7.54
660.937	6.54
660.969	1.54
661.002	8.54
661.034	13.54
661.066	-4.46
661.099	13.54
661.131	18.54
661.163	3.54
661.195	-10.46
661.228	17.54
661.26	-7.46
661.292	-24.46
661.324	-5.46
661.357	9.54
661.389	0.54
661.421	-5.46
661.453	2.54
661.485	3.54
661.518	12.54
661.55	-0.46
661.582	-12.46
661.614	-7.46
661.647	6.54
661.679	-2.46
661.711	11.54
661.743	-21.46
661.775	8.54
661.808	6.54
661.84	-17.46
661.872	-4.46
661.904	-0.46
661.936	6.54
661.969	-8.46
662.001	-2.46
662.033	8.54
662.065	-0.46
662.097	-10.46
662.129	-1.46
662.162	-14.46
662.194	-4.46
662.226	-22.46
662.258	-1.46
662.29	0.54
662.322	-14.46
662.355	-5.46
662.387	13.54
662.419	-9.46
662.451	2.54
662.483	-6.46
662.515	-6.46
662.547	-9.46
662.58	-13.46
662.612	-12.46
662.644	-8.46
662.676	8.54
662.708	8.54
662.74	-1.46
662.772	6.54
662.804	-1.46
662.836	9.54
662.869	4.54
662.901	5.54
662.933	-13.46
662.965	15.54
662.997	3.54
663.029	-5.46
663.061	-16.46
663.093	-6.46
663.125	-2.46
663.157	1.54
663.189	2.54
663.221	6.54
663.254	-6.46
663.286	1.54
663.318	-22.46
663.35	-2.46
663.382	3.54
663.414	17.54
663.446	-2.46
663.478	-5.46
663.51	34.54
663.542	-2.46
663.574	3.54
663.606	13.54
663.638	-7.46
663.67	-17.46
663.702	-1.46
663.734	-0.46
663.766	16.54
663.798	-7.46
663.83	-16.46
663.862	3.54
663.894	4.54
663.926	-6.46
663.958	-1.46
663.99	5.54
664.022	-1.46
664.054	5.54
664.086	-13.46
664.118	-8.46
664.15	-11.46
664.182	-5.46
664.214	16.54
664.246	19.54
664.278	-9.46
664.31	1.54
664.342	0.54
664.374	-4.46
664.406	3.54
664.438	-13.46
664.47	18.54
664.502	4.54
664.534	0.54
664.566	-1.46
664.598	13.54
664.63	-8.46
664.662	-5.46
664.693	0.54
664.725	-21.46
664.757	-8.46
664.789	-9.46
664.821	-11.46
664.853	14.54
664.885	7.54
664.917	5.54
664.949	12.54
664.981	21.54
665.013	0.54
665.045	-4.46
665.076	10.54
665.108	9.54
665.14	0.54
665.172	-2.46
665.204	-10.46
665.236	-8.46
665.268	19.54
665.3	1.54
665.331	-13.46
665.363	4.54
665.395	-18.46
665.427	-4.46
665.459	12.54
665.491	0.54
665.523	-1.46
665.555	12.54
665.586	1.54
665.618	-0.46
665.65	-16.46
665.682	5.54
665.714	-4.46
665.746	0.54
665.777	-3.46
665.809	3.54
665.841	2.54
665.873	-6.46
665.905	-12.46
665.937	3.54
665.968	14.54
666	5.54
666.032	-17.46
666.064	-8.46
666.096	-23.46
666.127	-16.46
666.159	5.54
666.191	2.54
666.223	-4.46
666.255	1.54
666.286	10.54
666.318	6.54
666.35	23.54
666.382	-1.46
666.413	-4.46
666.445	-4.46
666.477	-8.46
666.509	4.54
666.54	2.54
666.572	-3.46
666.604	-3.46
666.636	3.54
666.667	1.54
666.699	11.54
666.731	11.54
666.763	0.54
666.794	-3.46
666.826	8.54
666.858	-11.46
666.89	3.54
666.921	1.54
666.953	-1.46
666.985	7.54
667.017	8.54
667.048	-0.46
667.08	-8.46
667.112	-4.46
667.143	1.54
667.175	-2.46
667.207	-3.46
667.238	6.54
667.27	0.54
667.302	-0.46
667.334	-7.46
667.365	17.54
667.397	-12.46
667.429	-1.46
667.46	-0.46
667.492	1.54
667.524	-3.46
667.555	-6.46
667.587	-14.46
667.619	-0.46
667.65	-12.46
667.682	12.54
667.714	1.54
667.745	-11.46
667.777	1.54
667.808	0.54
667.84	-0.46
667.872	7.54
667.903	18.54
667.935	-2.46
667.967	-2.46
667.998	-7.46
668.03	6.54
668.061	-3.46
668.093	-10.46
668.125	0.54
668.156	5.54
668.188	-8.46
668.22	-19.46
668.251	-6.46
668.283	7.54
668.314	1.54
668.346	7.54
668.377	-17.46
668.409	-17.46
668.441	19.54
668.472	20.54
668.504	5.54
668.535	2.54
668.567	5.54
668.599	13.54
668.63	-8.46
668.662	4.54
668.693	22.54
668.725	16.54
668.756	8.54
668.788	9.54
668.819	-2.46
668.851	11.54
668.882	-2.46
668.914	-2.46
668.946	8.54
668.977	-5.46
669.009	0.54
669.04	-18.46
669.072	-1.46
669.103	17.54
669.135	-2.46
669.166	-17.46
669.198	-12.46
669.229	0.54
669.261	-9.46
669.292	11.54
669.324	12.54
669.355	-3.46
669.387	-17.46
669.418	2.54
669.45	13.54
669.481	-5.46
669.513	-12.46
669.544	-1.46
669.576	-6.46
669.607	8.54
669.639	13.54
669.67	-8.46
669.701	-6.46
669.733	-13.46
669.764	2.54
669.796	-13.46
669.827	-10.46
669.859	-4.46
669.89	16.54
669.922	4.54
669.953	22.54
669.985	6.54
670.016	11.54
670.047	5.54
670.079	-2.46
670.11	5.54
670.142	-5.46
670.173	-6.46
670.204	1.54
670.236	4.54
670.267	1.54
670.299	13.54
670.33	3.54
670.362	10.54
670.393	-5.46
670.424	9.54
670.456	-14.46
670.487	-0.46
670.518	13.54
670.55	16.54
670.581	6.54
670.613	0.54
670.644	-1.46
670.675	-14.46
670.707	-12.46
670.738	-4.46
670.769	-11.46
670.801	-11.46
670.832	-1.46
670.864	4.54
670.895	5.54
670.926	1.54
670.958	-5.46
670.989	0.54
671.02	-13.46
671.052	-6.46
671.083	-0.46
671.114	-6.46
671.146	11.54
671.177	2.54
671.208	-3.46
671.24	-17.46
671.271	-1.46
671.302	-1.46
671.333	-3.46
671.365	-11.46
671.396	-13.46
671.427	6.54
671.459	11.54
671.49	13.54
671.521	1.54
671.553	-0.46
671.584	2.54
671.615	-13.46
671.646	3.54
671.678	5.54
671.709	-25.46
671.74	-4.46
671.771	-5.46
671.803	-17.46
671.834	-8.46
671.865	-13.46
671.896	-7.46
671.928	-15.46
671.959	1.54
671.99	-18.46
672.021	-4.46
672.053	-7.46
672.084	-0.46
672.115	6.54
672.146	-0.46
672.178	-9.46
672.209	-9.46
672.24	3.54
672.271	19.54
672.303	11.54
672.334	3.54
672.365	-1.46
672.396	10.54
672.427	-12.46
672.459	13.54
672.49	15.54
672.521	-1.46
672.552	-6.46
672.583	0.54
672.615	9.54
672.646	0.54
672.677	-11.46
672.708	-10.46
672.739	9.54
672.77	13.54
672.802	15.54
672.833	-7.46
672.864	5.54
672.895	-0.46
672.926	-5.46
672.957	-6.46
672.989	7.54
673.02	8.54
673.051	1.54
673.082	15.54
673.113	-0.46
673.144	5.54
673.175	-7.46
673.206	-3.46
673.238	-10.46
673.269	-3.46
673.3	-18.46
673.331	5.54
673.362	-16.46
673.393	9.54
673.424	12.54
673.455	0.54
673.487	1.54
673.518	14.54
673.549	17.54
673.58	-5.46
673.611	7.54
673.642	3.54
673.673	-23.46
673.704	-0.46
673.735	5.54
673.766	-9.46
673.797	-9.46
673.828	-9.46
673.86	-22.46
673.891	-31.46
673.922	-9.46
673.953	-5.46
673.984	0.54
674.015	6.54
674.046	3.54
674.077	11.54
674.108	-6.46
674.139	-3.46
674.17	6.54
674.201	-6.46
674.232	1.54
674.263	-6.46
674.294	-2.46
674.325	-13.46
674.356	3.54
674.387	18.54
674.418	3.54
674.449	20.54
674.48	-18.46
674.511	-11.46
674.542	12.54
674.573	-6.46
674.604	13.54
674.635	1.54
674.666	0.54
674.697	-4.46
674.728	0.54
674.759	-13.46
674.79	-5.46
674.821	-3.46
674.852	-3.46
674.883	6.54
674.914	2.54
674.945	9.54
674.976	5.54
675.007	-10.46
675.038	-19.46
675.069	-14.46
675.1	0.54
675.131	-2.46
675.162	-7.46
675.193	-21.46
675.224	0.54
675.254	6.54
675.285	4.54
675.316	11.54
675.347	-17.46
675.378	-13.46
675.409	-8.46
675.44	-9.46
675.471	-2.46
675.502	-11.46
675.533	-2.46
675.564	-5.46
675.595	-8.46
675.625	27.54
675.656	-2.46
675.687	1.54
675.718	-13.46
675.749	3.54
675.78	8.54
675.811	9.54
675.842	5.54
675.873	-0.46
675.903	10.54
675.934	-15.46
675.965	-7.46
675.996	-1.46
676.027	-1.46
676.058	6.54
676.089	-26.46
676.119	11.54
676.15	1.54
676.181	-0.46
676.212	2.54
676.243	3.54
676.274	-7.46
676.304	17.54
676.335	-2.46
676.366	10.54
676.397	2.54
676.428	2.54
676.459	4.54
676.489	2.54
676.52	-11.46
676.551	2.54
676.582	2.54
676.613	6.54
676.643	-10.46
676.674	-7.46
676.705	-1.46
676.736	4.54
676.767	9.54
676.797	4.54
676.828	-3.46
676.859	-11.46
676.89	-5.46
676.92	-0.46
676.951	7.54
676.982	21.54
677.013	19.54
677.044	4.54
677.074	-2.46
677.105	1.54
677.136	20.54
677.167	-5.46
677.197	-2.46
677.228	0.54
677.259	-12.46
677.289	-15.46
677.32	-28.46
677.351	-23.46
677.382	1.54
677.412	-2.46
677.443	8.54
677.474	6.54
677.505	-4.46
677.535	12.54
677.566	-3.46
677.597	-23.46
677.627	-1.46
677.658	-6.46
677.689	17.54
677.72	1.54
677.75	-11.46
677.781	9.54
677.812	6.54
677.842	17.54
677.873	6.54
677.904	-11.46
677.934	-1.46
677.965	0.54
677.996	-4.46
678.026	4.54
678.057	-2.46
678.088	-8.46
678.118	-14.46
678.149	-4.46
678.18	-5.46
678.21	5.54
678.241	-5.46
678.272	4.54
678.302	-5.46
678.333	8.54
678.363	15.54
678.394	4.54
678.425	6.54
678.455	3.54
678.486	2.54
678.517	-15.46
678.547	-11.46
678.578	-22.46
678.608	-20.46
678.639	0.54
678.67	-8.46
678.7	-14.46
678.731	3.54
678.761	-3.46
678.792	-7.46
678.823	3.54
678.853	-3.46
678.884	-14.46
678.914	-0.46
678.945	4.54
678.975	-23.46
679.006	-10.46
679.037	-8.46
679.067	6.54
679.098	-13.46
679.128	0.54
679.159	-5.46
679.189	4.54
679.22	-16.46
679.25	-9.46
679.281	-9.46
679.312	-13.46
679.342	3.54
679.373	13.54
679.403	-17.46
679.434	2.54
679.464	-16.46
679.495	-4.46
679.525	1.54
679.556	11.54
679.586	7.54
679.617	25.54
679.647	-1.46
679.678	-18.46
679.708	-13.46
679.739	-12.46
679.769	-3.46
679.8	-4.46
679.83	0.54
679.861	26.54
679.891	-0.46
679.922	-13.46
679.952	6.54
679.983	7.54
680.013	0.54
680.044	-16.46
680.074	1.54
680.105	9.54
680.135	0.54
680.165	14.54
680.196	9.54
680.226	8.54
680.257	4.54
680.287	0.54
680.318	-9.46
680.348	-7.46
680.379	15.54
680.409	6.54
680.439	-14.46
680.47	-8.46
680.5	-0.46
680.531	4.54
680.561	9.54
680.592	16.54
680.622	19.54
680.652	8.54
680.683	11.54
680.713	7.54
680.744	-0.46
680.774	-3.46
680.804	19.54
680.835	-3.46
680.865	-24.46
680.896	3.54
680.926	3.54
680.956	-11.46
680.987	-12.46
681.017	-5.46
681.047	1.54
681.078	-6.46
681.108	-1.46
681.139	-2.46
681.169	-3.46
681.199	-19.46
681.23	-2.46
681.26	-11.46
681.29	6.54
681.321	-27.46
681.351	-1.46
681.381	-24.46
681.412	6.54
681.442	4.54
681.472	4.54
681.503	-0.46
681.533	-5.46
681.563	-3.46
681.594	-5.46
681.624	5.54
681.654	0.54
681.685	-13.46
681.715	-1.46
681.745	-11.46
681.775	-12.46
681.806	2.54
681.836	-1.46
681.866	-8.46
681.897	-12.46
681.927	-5.46
681.957	-15.46
681.987	-6.46
682.018	-11.46
682.048	4.54
682.078	2.54
682.109	20.54
682.139	12.54
682.169	-5.46
682.199	-16.46
682.23	-13.46
682.26	-5.46
682.29	-8.46
682.32	0.54
682.351	-21.46
682.381	-13.46
682.411	-5.46
682.441	1.54
682.472	-3.46
682.502	2.54
682.532	-3.46
682.562	-1.46
682.592	8.54
682.623	-2.46
682.653	-7.46
682.683	0.54
682.713	10.54
682.743	6.54
682.774	6.54
682.804	-14.46
682.834	-0.46
682.864	-9.46
682.894	-20.46
682.925	1.54
682.955	-6.46
682.985	-6.46
683.015	-9.46
683.045	-4.46
683.076	-16.46
683.106	-6.46
683.136	-21.46
683.166	-11.46
683.196	-5.46
683.226	4.54
683.257	-5.46
683.287	-3.46
683.317	-2.46
683.347	-30.46
683.377	-10.46
683.407	4.54
683.437	-1.46
683.468	11.54
683.498	-4.46
683.528	0.54
683.558	5.54
683.588	-6.46
683.618	-9.46
683.648	-7.46
683.678	-1.46
683.708	20.54
683.739	-0.46
683.769	0.54
683.799	2.54
683.829	4.54
683.859	10.54
683.889	20.54
683.919	-14.46
683.949	-5.46
683.979	-16.46
684.009	-10.46
684.039	-7.46
684.07	-12.46
684.1	8.54
684.13	14.54
684.16	5.54
684.19	3.54
684.22	-20.46
684.25	0.54
684.28	-25.46
684.31	10.54
684.34	17.54
684.37	1.54
684.4	-8.46
684.43	-8.46
684.46	-8.46
684.49	-0.46
684.52	8.54
684.55	3.54
684.58	8.54
684.61	0.54
684.64	8.54
684.67	7.54
684.7	-2.46
684.73	-6.46
684.76	-9.46
684.79	7.54
684.82	4.54
684.85	-11.46
684.88	-3.46
684.91	-23.46
684.94	-19.46
684.97	-4.46
685	-11.46
685.03	-22.46
685.06	-4.46
685.09	3.54
685.12	25.54
685.15	-1.46
685.18	-3.46
685.21	7.54
685.24	2.54
685.27	-9.46
685.3	-10.46
685.33	-4.46
685.36	-7.46
685.39	13.54
685.42	1.54
685.45	5.54
685.48	-4.46
685.51	-2.46
685.54	19.54
685.569	4.54
685.599	6.54
685.629	6.54
685.659	-2.46
685.689	-7.46
685.719	-6.46
685.749	-12.46
685.779	-18.46
685.809	3.54
685.839	-12.46
685.869	0.54
685.898	-2.46
685.928	-18.46
685.958	-1.46
685.988	5.54
686.018	-13.46
686.048	-13.46
686.078	2.54
686.108	16.54
686.137	-3.46
686.167	22.54
686.197	-6.46
686.227	-8.46
686.257	14.54
686.287	9.54
686.317	-3.46
686.346	-14.46
686.376	-0.46
686.406	-13.46
686.436	9.54
686.466	-16.46
686.496	1.54
686.525	1.54
686.555	-6.46
686.585	30.54
686.615	13.54
686.645	0.54
686.675	0.54
686.704	10.54
686.734	11.54
686.764	-15.46
686.794	-9.46
686.824	-8.46
686.853	4.54
686.883	4.54
686.913	12.54
686.943	-1.46
686.973	-6.46
687.002	-0.46
687.032	4.54
687.062	-6.46
687.092	8.54
687.121	0.54
687.151	6.54
687.181	-9.46
687.211	6.54
687.24	2.54
687.27	-8.46
687.3	7.54
687.33	12.54
687.359	-19.46
687.389	15.54
687.419	-3.46
687.449	-2.46
687.478	5.54
687.508	-2.46
687.538	0.54
687.568	10.54
687.597	-8.46
687.627	5.54
687.657	3.54
687.686	16.54
687.716	24.54
687.746	-13.46
687.776	0.54
687.805	9.54
687.835	-1.46
687.865	13.54
687.894	0.54
687.924	-16.46
687.954	-14.46
687.983	3.54
688.013	5.54
688.043	13.54
688.072	-2.46
688.102	5.54
688.132	-3.46
688.161	-1.46
688.191	2.54
688.221	13.54
688.25	-1.46
688.28	9.54
688.31	1.54
688.339	-14.46
688.369	-14.46
688.399	5.54
688.428	-18.46
688.458	-3.46
688.488	-14.46
688.517	5.54
688.547	-18.46
688.576	18.54
688.606	3.54
688.636	-21.46
688.665	-3.46
688.695	1.54
688.725	8.54
688.754	2.54
688.784	-9.46
688.813	-3.46
688.843	0.54
688.873	-4.46
688.902	-16.46
688.932	-13.46
688.961	-5.46
688.991	3.54
689.02	6.54
689.05	-1.46
689.08	11.54
689.109	13.54
689.139	-0.46
689.168	1.54
689.198	5.54
689.227	8.54
689.257	-11.46
689.287	14.54
689.316	0.54
689.346	-18.46
689.375	-5.46
689.405	-0.46
689.434	-5.46
689.464	0.54
689.493	-6.46
689.523	-12.46
689.552	-7.46
689.582	1.54
689.611	-3.46
689.641	8.54
689.67	-10.46
689.7	6.54
689.73	2.54
689.759	1.54
689.789	17.54
689.818	10.54
689.848	-13.46
689.877	5.54
689.906	-9.46
689.936	-1.46
689.965	6.54
689.995	-7.46
690.024	-0.46
690.054	-0.46
690.083	11.54
690.113	-2.46
690.142	3.54
690.172	-3.46
690.201	5.54
690.231	-7.46
690.26	-2.46
690.29	-1.46
690.319	1.54
690.348	-20.46
690.378	6.54
690.407	-0.46
690.437	-10.46
690.466	0.54
690.496	-6.46
690.525	6.54
690.555	-10.46
690.584	-2.46
690.613	1.54
690.643	1.54
690.672	-4.46
690.702	18.54
690.731	3.54
690.76	-11.46
690.79	-12.46
690.819	-1.46
690.849	-6.46
690.878	3.54
690.907	-6.46
690.937	15.54
690.966	16.54
690.996	-6.46
691.025	-5.46
691.054	-3.46
691.084	-5.46
691.113	2.54
691.142	-6.46
691.172	0.54
691.201	4.54
691.23	-2.46
691.26	8.54
691.289	0.54
691.319	-15.46
691.348	0.54
691.377	20.54
691.407	5.54
691.436	29.54
691.465	12.54
691.495	-7.46
691.524	-10.46
691.553	-5.46
691.583	-11.46
691.612	-9.46
691.641	-4.46
691.67	-7.46
691.7	9.54
691.729	-15.46
691.758	12.54
691.788	-3.46
691.817	-13.46
691.846	-12.46
691.876	-5.46
691.905	-0.46
691.934	2.54
691.963	7.54
691.993	10.54
692.022	-7.46
692.051	-12.46
692.081	8.54
692.11	11.54
692.139	-6.46
692.168	0.54
692.198	11.54
692.227	17.54
692.256	-9.46
692.285	-10.46
692.315	-7.46
692.344	1.54
692.373	0.54
692.402	-13.46
692.432	-16.46
692.461	-6.46
692.49	5.54
692.519	-6.46
692.548	-2.46
692.578	1.54
692.607	-6.46
692.636	-13.46
692.665	-2.46
692.694	-2.46
692.724	-1.46
692.753	-11.46
692.782	4.54
692.811	-2.46
692.84	-1.46
692.87	11.54
692.899	13.54
692.928	-3.46
692.957	12.54
692.986	4.54
693.016	-8.46
693.045	-3.46
693.074	15.54
693.103	4.54
693.132	-5.46
693.161	-1.46
693.191	2.54
693.22	-1.46
693.249	0.54
693.278	0.54
693.307	7.54
693.336	-13.46
693.365	-8.46
693.395	-3.46
693.424	-11.46
693.453	1.54
693.482	4.54
693.511	10.54
693.54	-8.46
693.569	2.54
693.598	-12.46
693.628	3.54
693.657	6.54
693.686	17.54
693.715	8.54
693.744	8.54
693.773	1.54
693.802	-9.46
693.831	-1.46
693.86	9.54
693.889	-11.46
693.919	5.54
693.948	-6.46
693.977	-5.46
694.006	-2.46
694.035	-10.46
694.064	-5.46
694.093	-5.46
694.122	-2.46
694.151	-3.46
694.18	-4.46
694.209	13.54
694.238	9.54
694.267	12.54
694.296	7.54
694.325	3.54
694.354	5.54
694.383	-12.46
694.412	5.54
694.441	6.54
694.471	-2.46
694.5	-19.46
694.529	-3.46
694.558	17.54
694.587	13.54
694.616	4.54
694.645	-8.46
694.674	5.54
694.703	7.54
694.732	7.54
694.761	1.54
694.79	0.54
694.819	-10.46
694.848	-8.46
694.877	15.54
694.906	25.54
694.935	18.54
694.963	16.54
694.992	-1.46
695.021	-1.46
695.05	-5.46
695.079	6.54
695.108	-1.46
695.137	23.54
695.166	2.54
695.195	-9.46
695.224	6.54
695.253	-4.46
695.282	5.54
695.311	24.54
695.34	14.54
695.369	5.54
695.398	-8.46
695.427	14.54
695.456	-9.46
695.485	-2.46
695.513	2.54
695.542	13.54
695.571	5.54
695.6	20.54
695.629	7.54
695.658	8.54
695.687	0.54
695.716	-3.46
695.745	12.54
695.774	-3.46
695.802	-7.46
695.831	12.54
695.86	-2.46
695.889	6.54
695.918	9.54
695.947	-1.46
695.976	-4.46
696.005	7.54
696.033	13.54
696.062	25.54
696.091	8.54
696.12	1.54
696.149	5.54
696.178	5.54
696.207	2.54
696.235	-11.46
696.264	23.54
696.293	-3.46
696.322	11.54
696.351	15.54
696.38	4.54
696.408	-3.46
696.437	6.54
696.466	-7.46
696.495	8.54
696.524	8.54
696.553	11.54
696.581	6.54
696.61	-3.46
696.639	-7.46
696.668	7.54
696.697	-2.46
696.725	9.54
696.754	3.54
696.783	-12.46
696.812	-14.46
696.84	-2.46
696.869	10.54
696.898	8.54
696.927	-7.46
696.956	10.54
696.984	-23.46
697.013	-9.46
697.042	-3.46
697.071	-3.46
697.099	5.54
697.128	-3.46
697.157	9.54
697.186	2.54
697.214	6.54
697.243	-9.46
697.272	-5.46
697.301	19.54
697.329	10.54
697.358	11.54
697.387	11.54
697.415	1.54
697.444	5.54
697.473	-13.46
697.502	-16.46
697.53	8.54
697.559	5.54
697.588	5.54
697.616	-2.46
697.645	-10.46
697.674	17.54
697.703	3.54
697.731	14.54
697.76	16.54
697.789	-9.46
697.817	16.54
697.846	15.54
697.875	2.54
697.903	20.54
697.932	15.54
697.961	8.54
697.989	3.54
698.018	10.54
698.047	8.54
698.075	18.54
698.104	-11.46
698.133	-8.46
698.161	4.54
698.19	-5.46
698.218	-5.46
698.247	-0.46
698.276	-17.46
698.304	-2.46
698.333	15.54
698.362	3.54
698.39	9.54
698.419	-1.46
698.447	-14.46
698.476	-14.46
698.505	15.54
698.533	-0.46
698.562	-3.46
698.591	-21.46
698.619	-10.46
698.648	-3.46
698.676	-13.46
698.705	0.54
698.733	9.54
698.762	9.54
698.791	-7.46
698.819	-2.46
698.848	4.54
698.876	-8.46
698.905	6.54
698.933	7.54
698.962	5.54
698.991	-2.46
699.019	13.54
699.048	0.54
699.076	1.54
699.105	-11.46
699.133	-5.46
699.162	1.54
699.19	18.54
699.219	23.54
699.248	-2.46
699.276	-4.46
699.305	-11.46
699.333	16.54
699.362	15.54
699.39	16.54
699.419	-2.46
699.447	10.54
699.476	4.54
699.504	-4.46
699.533	-2.46
699.561	-3.46
699.59	3.54
699.618	7.54
699.647	0.54
699.675	1.54
699.704	0.54
699.732	4.54
699.761	11.54
699.789	-13.46
699.818	13.54
699.846	4.54
699.874	-5.46
699.903	6.54
699.931	-4.46
699.96	-2.46
699.988	-6.46
700.017	-10.46
700.045	14.54
700.074	11.54
700.102	0.54
700.13	-12.46
700.159	-7.46
700.187	0.54
700.216	-5.46
700.244	-3.46
700.273	13.54
700.301	3.54
700.329	14.54
700.358	22.54
700.386	-0.46
700.415	-4.46
700.443	3.54
700.472	-0.46
700.5	-5.46
700.528	-6.46
700.557	0.54
700.585	-6.46
700.614	5.54
700.642	16.54
700.67	10.54
700.699	-0.46
700.727	14.54
700.755	2.54
700.784	1.54
700.812	9.54
700.841	6.54
700.869	-0.46
700.897	-15.46
700.926	-1.46
700.954	6.54
700.982	-2.46
701.011	-3.46
701.039	16.54
701.067	1.54
701.096	7.54
701.124	-11.46
701.152	0.54
701.181	10.54
701.209	-8.46
701.237	-5.46
701.266	-3.46
701.294	-17.46
701.322	-8.46
701.351	-1.46
701.379	-14.46
701.407	-14.46
701.435	4.54
701.464	12.54
701.492	13.54
701.52	-12.46
701.549	10.54
701.577	-0.46
701.605	-12.46
701.634	-6.46
701.662	8.54
701.69	-14.46
701.718	-11.46
701.747	-3.46
701.775	1.54
701.803	-6.46
701.831	-2.46
701.86	-6.46
701.888	2.54
701.916	-5.46
701.944	9.54
701.973	-0.46
702.001	-10.46
702.029	-4.46
702.057	-9.46
702.086	-6.46
702.114	-8.46
702.142	-6.46
702.17	-12.46
702.199	-5.46
702.227	-5.46
702.255	7.54
702.283	-2.46
702.311	-2.46
702.34	-12.46
702.368	-9.46
702.396	-10.46
702.424	17.54
702.452	-2.46
702.481	1.54
702.509	-13.46
702.537	6.54
702.565	1.54
702.593	-10.46
702.621	-0.46
702.65	14.54
702.678	9.54
702.706	16.54
702.734	-0.46
702.762	3.54
702.79	3.54
702.819	11.54
702.847	10.54
702.875	13.54
702.903	12.54
702.931	-14.46
702.959	-7.46
702.988	8.54
703.016	-7.46
703.044	3.54
703.072	-15.46
703.1	-14.46
703.128	-1.46
703.156	0.54
703.184	-13.46
703.212	15.54
703.241	30.54
703.269	-12.46
703.297	-7.46
703.325	7.54
703.353	-21.46
703.381	6.54
703.409	-11.46
703.437	-5.46
703.465	-0.46
703.493	4.54
703.522	3.54
703.55	-5.46
703.578	-3.46
703.606	-2.46
703.634	-7.46
703.662	-9.46
703.69	5.54
703.718	6.54
703.746	14.54
703.774	-8.46
703.802	18.54
703.83	7.54
703.858	-8.46
703.886	-21.46
703.914	-6.46
703.942	7.54
703.97	-11.46
703.998	-30.46
704.027	-3.46
704.055	12.54
704.083	-11.46
704.111	-8.46
704.139	-3.46
704.167	-8.46
704.195	15.54
704.223	-5.46
704.251	0.54
704.279	-7.46
704.307	-8.46
704.335	2.54
704.363	-2.46
704.391	-5.46
704.419	-9.46
704.447	-2.46
704.475	-1.46
704.503	0.54
704.531	31.54
704.558	1.54
704.586	-2.46
704.614	14.54
704.642	-2.46
704.67	-11.46
704.698	-1.46
704.726	-11.46
704.754	-5.46
704.782	-6.46
704.81	2.54
704.838	12.54
704.866	3.54
704.894	-18.46
704.922	-1.46
704.95	-5.46
704.978	8.54
705.006	8.54
705.034	-4.46
705.061	-18.46
705.089	-4.46
705.117	2.54
705.145	-2.46
705.173	6.54
705.201	-1.46
705.229	8.54
705.257	12.54
705.285	16.54
705.313	0.54
705.34	4.54
705.368	-2.46
705.396	21.54
705.424	0.54
705.452	-13.46
705.48	-1.46
705.508	-2.46
705.536	7.54
705.563	-5.46
705.591	19.54
705.619	11.54
705.647	-14.46
705.675	-4.46
705.703	-5.46
705.731	5.54
705.758	12.54
705.786	-3.46
705.814	10.54
705.842	26.54
705.87	25.54
705.898	0.54
705.925	-3.46
705.953	-1.46
705.981	-13.46
706.009	0.54
706.037	14.54
706.065	3.54
706.092	-13.46
706.12	-0.46
706.148	-13.46
706.176	-11.46
706.204	5.54
706.231	5.54
706.259	-9.46
706.287	-6.46
706.315	5.54
706.342	10.54
706.37	10.54
706.398	10.54
706.426	-5.46
706.454	-14.46
706.481	-6.46
706.509	-7.46
706.537	-14.46
706.565	-5.46
706.592	7.54
706.62	-6.46
706.648	2.54
706.676	-7.46
706.703	-8.46
706.731	-8.46
706.759	-9.46
706.787	-1.46
706.814	-5.46
706.842	-4.46
706.87	-1.46
706.897	13.54
706.925	-3.46
706.953	16.54
706.981	11.54
707.008	0.54
707.036	-2.46
707.064	-0.46
707.091	-9.46
707.119	8.54
707.147	19.54
707.174	0.54
707.202	-2.46
707.23	-23.46
707.258	-4.46
707.285	-11.46
707.313	6.54
707.341	-2.46
707.368	-4.46
707.396	-4.46
707.424	15.54
707.451	4.54
707.479	-8.46
707.507	-13.46
707.534	-6.46
707.562	0.54
707.59	-9.46
707.617	2.54
707.645	10.54
707.672	-3.46
707.7	1.54
707.728	18.54
707.755	9.54
707.783	-18.46
707.811	9.54
707.838	-16.46
707.866	6.54
707.893	-5.46
707.921	-9.46
707.949	-7.46
707.976	-6.46
708.004	2.54
708.031	-7.46
708.059	-8.46
708.087	-0.46
708.114	-6.46
708.142	-6.46
708.169	-11.46
708.197	-18.46
708.225	-11.46
708.252	-6.46
708.28	10.54
708.307	-3.46
708.335	9.54
708.362	-16.46
708.39	-9.46
708.418	6.54
708.445	-11.46
708.473	-1.46
708.5	9.54
708.528	9.54
708.555	-9.46
708.583	10.54
708.61	3.54
708.638	2.54
708.665	-23.46
708.693	0.54
708.72	-13.46
708.748	-10.46
708.776	-9.46
708.803	-0.46
708.831	6.54
708.858	25.54
708.886	-4.46
708.913	-21.46
708.941	-3.46
708.968	16.54
708.996	-3.46
709.023	17.54
709.051	-3.46
709.078	-8.46
709.105	-2.46
709.133	1.54
709.16	8.54
709.188	20.54
709.215	9.54
709.243	5.54
709.27	-8.46
709.298	-8.46
709.325	-7.46
709.353	4.54
709.38	-6.46
709.408	-12.46
709.435	-2.46
709.462	6.54
709.49	5.54
709.517	-1.46
709.545	1.54
709.572	-3.46
709.6	-5.46
709.627	6.54
709.655	-5.46
709.682	-1.46
709.709	5.54
709.737	-3.46
709.764	-18.46
709.792	-0.46
709.819	6.54
709.846	-2.46
709.874	-9.46
709.901	3.54
709.929	24.54
709.956	20.54
709.983	-13.46
710.011	-6.46
710.038	-7.46
710.066	-2.46
710.093	6.54
710.12	-13.46
710.148	-13.46
710.175	-20.46
710.202	-10.46
710.23	10.54
710.257	8.54
710.284	-2.46
710.312	-2.46
710.339	7.54
710.366	-7.46
710.394	-19.46
710.421	1.54
710.448	-13.46
710.476	-3.46
710.503	10.54
710.53	9.54
710.558	-11.46
710.585	7.54
710.612	-9.46
710.64	-11.46
710.667	-7.46
710.694	-0.46
710.722	3.54
710.749	1.54
710.776	-16.46
710.804	6.54
710.831	16.54
710.858	1.54
710.885	12.54
710.913	-4.46
710.94	21.54
710.967	17.54
710.995	-15.46
711.022	-1.46
711.049	-5.46
711.076	-20.46
711.104	6.54
711.131	-12.46
711.158	14.54
711.185	12.54
711.213	-22.46
711.24	-19.46
711.267	-14.46
711.294	-2.46
711.322	6.54
711.349	0.54
711.376	-9.46
711.403	6.54
711.431	-14.46
711.458	-3.46
711.485	-3.46
711.512	2.54
711.54	1.54
711.567	2.54
711.594	-9.46
711.621	-5.46
711.648	-7.46
711.676	8.54
711.703	18.54
711.73	-1.46
711.757	4.54
711.784	5.54
711.812	-2.46
711.839	-10.46
711.866	-8.46
711.893	-14.46
711.92	5.54
711.947	2.54
711.975	12.54
712.002	-0.46
712.029	10.54
712.056	3.54
712.083	19.54
712.11	-5.46
712.138	-6.46
712.165	-8.46
712.192	-1.46
712.219	-3.46
712.246	-4.46
712.273	-9.46
712.3	-10.46
712.328	-7.46
712.355	3.54
712.382	-7.46
712.409	8.54
712.436	-5.46
712.463	4.54
712.49	15.54
712.517	-2.46
712.544	-9.46
712.572	-5.46
712.599	-17.46
712.626	-1.46
712.653	-10.46
712.68	-21.46
712.707	12.54
712.734	11.54
712.761	0.54
712.788	9.54
712.815	3.54
712.842	11.54
712.87	-15.46
712.897	-8.46
712.924	-12.46
712.951	12.54
712.978	8.54
713.005	0.54
713.032	21.54
713.059	-0.46
713.086	7.54
713.113	-13.46
713.14	-23.46
713.167	-1.46
713.194	6.54
713.221	-0.46
713.248	7.54
713.275	0.54
713.302	-3.46
713.329	-6.46
713.356	8.54
713.383	-3.46
713.41	3.54
713.437	-2.46
713.464	-2.46
713.491	-0.46
713.518	-1.46
713.545	-10.46
713.572	-16.46
713.599	21.54
713.626	8.54
713.653	12.54
713.68	-6.46
713.707	-14.46
713.734	-3.46
713.761	-12.46
713.788	-11.46
713.815	-5.46
713.842	-10.46
713.869	-15.46
713.896	-4.46
713.923	0.54
713.95	-8.46
713.977	-0.46
714.004	-21.46
714.031	-10.46
714.058	-9.46
714.085	-9.46
714.112	9.54
714.139	-10.46
714.165	-10.46
714.192	-7.46
714.219	-2.46
714.246	-8.46
714.273	0.54
714.3	-10.46
714.327	22.54
714.354	3.54
714.381	-14.46
714.408	-3.46
714.435	-5.46
714.461	-7.46
714.488	0.54
714.515	6.54
714.542	-6.46
714.569	10.54
714.596	-26.46
714.623	-19.46
714.65	3.54
714.677	3.54
714.703	2.54
714.73	-0.46
714.757	8.54
714.784	2.54
714.811	-14.46
714.838	-10.46
714.865	-0.46
714.891	19.54
714.918	-5.46
714.945	-18.46
714.972	1.54
714.999	-3.46
715.026	-11.46
715.052	8.54
715.079	-13.46
715.106	-5.46
715.133	-12.46
715.16	-12.46
715.187	1.54
715.213	4.54
715.24	-1.46
715.267	-9.46
715.294	-9.46
715.321	-6.46
715.347	-21.46
715.374	-8.46
715.401	3.54
715.428	2.54
715.455	-1.46
715.481	-11.46
715.508	13.54
715.535	10.54
715.562	16.54
715.588	2.54
715.615	4.54
715.642	-7.46
715.669	-1.46
715.695	-16.46
715.722	-9.46
715.749	-2.46
715.776	-3.46
715.802	-3.46
715.829	-2.46
715.856	-19.46
715.883	0.54
715.909	-13.46
715.936	-10.46
715.963	-1.46
715.99	-6.46
716.016	8.54
716.043	3.54
716.07	-3.46
716.096	-8.46
716.123	2.54
716.15	-1.46
716.177	-3.46
716.203	15.54
716.23	4.54
716.257	-1.46
716.283	10.54
716.31	4.54
716.337	5.54
716.363	-16.46
716.39	0.54
716.417	-0.46
716.443	-0.46
716.47	3.54
716.497	-5.46
716.523	7.54
716.55	-4.46
716.577	5.54
716.603	-0.46
716.63	4.54
716.657	7.54
716.683	-14.46
716.71	-25.46
716.737	-19.46
716.763	-4.46
716.79	5.54
716.817	-1.46
716.843	18.54
716.87	-5.46
716.897	-7.46
716.923	7.54
716.95	-3.46
716.976	-10.46
717.003	-17.46
717.03	5.54
717.056	10.54
717.083	33.54
717.109	13.54
717.136	4.54
717.163	-6.46
717.189	-5.46
717.216	6.54
717.242	-1.46
717.269	3.54
717.296	0.54
717.322	13.54
717.349	16.54
717.375	2.54
717.402	-8.46
717.428	-6.46
717.455	-1.46
717.481	0.54
717.508	7.54
717.535	3.54
717.561	-8.46
717.588	-11.46
717.614	-5.46
717.641	1.54
717.667	7.54
717.694	16.54
717.72	1.54
717.747	1.54
717.773	-15.46
717.8	4.54
717.826	-2.46
717.853	-4.46
717.88	8.54
717.906	-7.46
717.933	4.54
717.959	3.54
717.986	-6.46
718.012	-0.46
718.039	5.54
718.065	-0.46
718.092	3.54
718.118	-2.46
718.144	-5.46
718.171	16.54
718.197	21.54
718.224	-12.46
718.25	-9.46
718.277	-7.46
718.303	9.54
718.33	-1.46
718.356	-27.46
718.383	-5.46
718.409	-7.46
718.436	-15.46
718.462	-9.46
718.489	-4.46
718.515	-3.46
718.541	10.54
718.568	-0.46
718.594	-4.46
718.621	3.54
718.647	0.54
718.674	7.54
718.7	1.54
718.726	-0.46
718.753	-0.46
718.779	0.54
718.806	7.54
718.832	2.54
718.858	5.54
718.885	-6.46
718.911	-0.46
718.938	-0.46
718.964	-2.46
718.99	6.54
719.017	-1.46
719.043	4.54
719.07	3.54
719.096	-6.46
719.122	3.54
719.149	3.54
719.175	9.54
719.201	3.54
719.228	-6.46
719.254	8.54
719.281	-19.46
719.307	-4.46
719.333	-10.46
719.36	11.54
719.386	-7.46
719.412	1.54
719.439	-16.46
719.465	-19.46
719.491	4.54
719.518	1.54
719.544	-9.46
719.57	-10.46
719.597	-0.46
719.623	-1.46
719.649	-11.46
719.675	-14.46
719.702	-4.46
719.728	16.54
719.754	-3.46
719.781	-8.46
719.807	-3.46
719.833	0.54
719.86	1.54
719.886	-9.46
719.912	-3.46
719.938	-7.46
719.965	-9.46
719.991	-0.46
720.017	8.54
720.044	-3.46
720.07	-2.46
720.096	4.54
720.122	-0.46
720.149	1.54
720.175	12.54
720.201	0.54
720.227	-9.46
720.254	-0.46
720.28	-7.46
720.306	-13.46
720.332	-1.46
720.359	-0.46
720.385	1.54
720.411	12.54
720.437	-0.46
720.463	-5.46
720.49	-3.46
720.516	-9.46
720.542	-4.46
720.568	-5.46
720.595	-2.46
720.621	-6.46
720.647	-0.46
720.673	11.54
720.699	-2.46
720.725	-9.46
720.752	2.54
720.778	7.54
720.804	-0.46
720.83	2.54
720.856	-0.46
720.883	-24.46
720.909	-6.46
720.935	15.54
720.961	13.54
720.987	5.54
721.013	-4.46
721.04	-10.46
721.066	-8.46
721.092	-3.46
721.118	11.54
721.144	4.54
721.17	3.54
721.196	-5.46
721.223	-18.46
721.249	-17.46
721.275	20.54
721.301	-6.46
721.327	9.54
721.353	-5.46
721.379	-0.46
721.405	0.54
721.432	-1.46
721.458	-9.46
721.484	-1.46
721.51	-11.46
721.536	-7.46
721.562	-2.46
721.588	2.54
721.614	-2.46
721.64	-15.46
721.666	-7.46
721.693	-0.46
721.719	-11.46
721.745	-8.46
721.771	-13.46
721.797	-8.46
721.823	-13.46
721.849	9.54
721.875	4.54
721.901	12.54
721.927	-15.46
721.953	-1.46
721.979	13.54
722.005	11.54
722.031	-1.46
722.057	10.54
722.083	9.54
722.109	19.54
722.135	10.54
722.161	13.54
722.187	-25.46
722.214	-15.46
722.24	-17.46
722.266	-2.46
722.292	-8.46
722.318	3.54
722.344	2.54
722.37	-4.46
722.396	2.54
722.422	-7.46
722.448	4.54
722.474	-22.46
722.5	17.54
722.526	12.54
722.552	6.54
722.578	0.54
722.603	11.54
722.629	10.54
722.655	8.54
722.681	-10.46
722.707	-6.46
722.733	-12.46
722.759	-4.46
722.785	-3.46
722.811	-10.46
722.837	-0.46
722.863	4.54
722.889	5.54
722.915	2.54
722.941	5.54
722.967	4.54
722.993	3.54
723.019	8.54
723.045	8.54
723.071	-0.46
723.097	1.54
723.122	-10.46
723.148	-22.46
723.174	2.54
723.2	4.54
723.226	3.54
723.252	13.54
723.278	-3.46
723.304	-22.46
723.33	-10.46
723.356	-5.46
723.381	-7.46
723.407	-13.46
723.433	11.54
723.459	-3.46
723.485	-11.46
723.511	5.54
723.537	-2.46
723.563	0.54
723.588	-9.46
723.614	8.54
723.64	-7.46
723.666	-0.46
723.692	4.54
723.718	0.54
723.744	2.54
723.769	-0.46
723.795	-8.46
723.821	-1.46
723.847	-1.46
723.873	-2.46
723.899	-8.46
723.924	-13.46
723.95	-8.46
723.976	-17.46
724.002	-13.46
724.028	3.54
724.053	-8.46
724.079	-6.46
724.105	1.54
724.131	-5.46
724.157	-7.46
724.182	4.54
724.208	-14.46
724.234	-23.46
724.26	-16.46
724.286	4.54
724.311	-6.46
724.337	-3.46
724.363	-5.46
724.389	10.54
724.415	-4.46
724.44	8.54
724.466	-2.46
724.492	-1.46
724.518	-6.46
724.543	-17.46
724.569	-5.46
724.595	4.54
724.621	-9.46
724.646	3.54
724.672	-7.46
724.698	3.54
724.723	-1.46
724.749	6.54
724.775	9.54
724.801	-9.46
724.826	-6.46
724.852	9.54
724.878	3.54
724.904	-12.46
724.929	2.54
724.955	-3.46
724.981	0.54
725.006	-11.46
725.032	-2.46
725.058	-1.46
725.083	-8.46
725.109	-7.46
725.135	-11.46
725.161	-10.46
725.186	-8.46
725.212	0.54
725.238	9.54
725.263	-6.46
725.289	-10.46
725.315	-13.46
725.34	-13.46
725.366	3.54
725.392	-12.46
725.417	-7.46
725.443	1.54
725.468	18.54
725.494	3.54
725.52	15.54
725.545	-8.46
725.571	1.54
725.597	-5.46
725.622	-3.46
725.648	-0.46
725.674	-7.46
725.699	-9.46
725.725	-8.46
725.75	9.54
725.776	-12.46
725.802	3.54
725.827	-6.46
725.853	7.54
725.878	5.54
725.904	-7.46
725.93	-0.46
725.955	-5.46
725.981	0.54
726.006	-2.46
726.032	1.54
726.057	3.54
726.083	-1.46
726.109	-13.46
726.134	-7.46
726.16	-1.46
726.185	-6.46
726.211	1.54
726.236	-10.46
726.262	-5.46
726.288	4.54
726.313	-0.46
726.339	4.54
726.364	6.54
726.39	4.54
726.415	-2.46
726.441	-4.46
726.466	-7.46
726.492	-23.46
726.517	-6.46
726.543	-3.46
726.568	-5.46
726.594	-1.46
726.619	1.54
726.645	4.54
726.67	10.54
726.696	0.54
726.721	-2.46
726.747	-24.46
726.772	-8.46
726.798	-9.46
726.823	6.54
726.849	0.54
726.874	-0.46
726.9	21.54
726.925	4.54
726.951	-13.46
726.976	10.54
727.002	-8.46
727.027	13.54
727.053	22.54
727.078	-2.46
727.104	-10.46
727.129	-26.46
727.155	-9.46
727.18	2.54
727.205	-5.46
727.231	2.54
727.256	-7.46
727.282	2.54
727.307	1.54
727.333	-9.46
727.358	-7.46
727.383	-13.46
727.409	-9.46
727.434	0.54
727.46	-0.46
727.485	-9.46
727.511	-5.46
727.536	-21.46
727.561	-7.46
727.587	13.54
727.612	6.54
727.637	-7.46
727.663	-7.46
727.688	4.54
727.714	2.54
727.739	-5.46
727.764	-11.46
727.79	-3.46
727.815	5.54
727.841	11.54
727.866	5.54
727.891	2.54
727.917	-24.46
727.942	-6.46
727.967	-9.46
727.993	-16.46
728.018	-8.46
728.043	0.54
728.069	0.54
728.094	5.54
728.119	-12.46
728.145	19.54
728.17	2.54
728.195	5.54
728.221	-0.46
728.246	-15.46
728.271	-8.46
728.297	0.54
728.322	-5.46
728.347	-7.46
728.373	12.54
728.398	-5.46
728.423	-6.46
728.448	-9.46
728.474	5.54
728.499	6.54
728.524	-5.46
728.55	-5.46
728.575	-24.46
728.6	-2.46
728.625	-8.46
728.651	3.54
728.676	4.54
728.701	12.54
728.727	-7.46
728.752	-21.46
728.777	-9.46
728.802	4.54
728.828	2.54
728.853	-6.46
728.878	-2.46
728.903	-14.46
728.929	-17.46
728.954	-17.46
728.979	9.54
729.004	-8.46
729.03	-12.46
729.055	0.54
729.08	-6.46
729.105	-0.46
729.13	35.54
729.156	7.54
729.181	-4.46
729.206	-17.46
729.231	-13.46
729.256	4.54
729.282	-9.46
729.307	-2.46
729.332	-3.46
729.357	-11.46
729.382	-11.46
729.408	-1.46
729.433	-7.46
729.458	0.54
729.483	14.54
729.508	17.54
729.533	0.54
729.559	2.54
729.584	-18.46
729.609	6.54
729.634	3.54
729.659	-9.46
729.684	-11.46
729.71	2.54
729.735	1.54
729.76	-3.46
729.785	5.54
729.81	14.54
729.835	-9.46
729.86	-2.46
729.886	-3.46
729.911	-3.46
729.936	0.54
729.961	5.54
729.986	-29.46
730.011	-13.46
730.036	-1.46
730.061	-2.46
730.086	-7.46
730.112	-5.46
730.137	9.54
730.162	-1.46
730.187	-11.46
730.212	3.54
730.237	-8.46
730.262	-11.46
730.287	-6.46
730.312	4.54
730.337	-10.46
730.362	-10.46
730.387	1.54
730.413	0.54
730.438	-13.46
730.463	5.54
730.488	-14.46
730.513	-8.46
730.538	-6.46
730.563	25.54
730.588	-0.46
730.613	24.54
730.638	-0.46
730.663	-3.46
730.688	4.54
730.713	1.54
730.738	-0.46
730.763	4.54
730.788	-3.46
730.813	-0.46
730.838	-2.46
730.863	4.54
730.888	-15.46
730.913	-22.46
730.938	-21.46
730.963	-9.46
730.988	2.54
731.013	20.54
731.038	-12.46
731.063	-1.46
731.088	-0.46
731.113	-13.46
731.138	-8.46
731.163	-1.46
731.188	-7.46
731.213	-5.46
731.238	4.54
731.263	-11.46
731.288	-10.46
731.313	-3.46
731.338	-10.46
731.363	-3.46
731.388	1.54
731.413	10.54
731.438	-2.46
731.463	7.54
731.487	-2.46
731.512	-8.46
731.537	-5.46
731.562	3.54
731.587	-3.46
731.612	-0.46
731.637	-6.46
731.662	0.54
731.687	-7.46
731.712	-11.46
731.737	0.54
731.762	1.54
731.786	6.54
731.811	-1.46
731.836	4.54
731.861	1.54
731.886	-19.46
731.911	-10.46
731.936	13.54
731.961	-11.46
731.986	-18.46
732.01	-2.46
732.035	8.54
732.06	7.54
732.085	-6.46
732.11	-0.46
732.135	-26.46
732.16	-8.46
732.184	-11.46
732.209	-8.46
732.234	9.54
732.259	-3.46
732.284	15.54
732.309	-19.46
732.334	-13.46
732.358	-3.46
732.383	-18.46
732.408	-1.46
732.433	-8.46
732.458	-11.46
732.482	-9.46
732.507	-8.46
732.532	-3.46
732.557	-4.46
732.582	-5.46
732.607	-13.46
732.631	-23.46
732.656	-11.46
732.681	-4.46
732.706	-2.46
732.73	2.54
732.755	-5.46
732.78	-4.46
732.805	2.54
732.83	-1.46
732.854	-2.46
732.879	7.54
732.904	-3.46
732.929	-2.46
732.953	-3.46
732.978	1.54
733.003	-6.46
733.028	-22.46
733.052	20.54
733.077	2.54
733.102	3.54
733.127	0.54
733.151	3.54
733.176	14.54
733.201	-5.46
733.226	-13.46
733.25	-5.46
733.275	-8.46
733.3	3.54
733.324	2.54
733.349	-7.46
733.374	8.54
733.399	-3.46
733.423	-21.46
733.448	-18.46
733.473	-10.46
733.497	-5.46
733.522	-9.46
733.547	2.54
733.571	11.54
733.596	-5.46
733.621	0.54
733.646	-14.46
733.67	-7.46
733.695	-17.46
733.72	-1.46
733.744	5.54
733.769	20.54
733.794	20.54
733.818	-0.46
733.843	-2.46
733.867	-5.46
733.892	2.54
733.917	-15.46
733.941	-11.46
733.966	-6.46
733.991	-3.46
734.015	10.54
734.04	-6.46
734.065	-4.46
734.089	4.54
734.114	-11.46
734.138	11.54
734.163	8.54
734.188	-0.46
734.212	-5.46
734.237	5.54
734.261	3.54
734.286	-6.46
734.311	-0.46
734.335	-2.46
734.36	-16.46
734.384	-0.46
734.409	4.54
734.434	-13.46
734.458	-3.46
734.483	2.54
734.507	-7.46
734.532	-6.46
734.556	9.54
734.581	-3.46
734.606	-9.46
734.63	2.54
734.655	16.54
734.679	1.54
734.704	5.54
734.728	2.54
734.753	-9.46
734.777	11.54
734.802	2.54
734.826	9.54
734.851	4.54
734.876	14.54
734.9	0.54
734.925	7.54
734.949	16.54
734.974	-8.46
734.998	8.54
735.023	-7.46
735.047	-21.46
735.072	14.54
735.096	1.54
735.121	9.54
735.145	-2.46
735.17	2.54
735.194	11.54
735.219	9.54
735.243	-5.46
735.268	-6.46
735.292	-6.46
735.317	-7.46
735.341	7.54
735.365	-18.46
735.39	0.54
735.414	-10.46
735.439	-11.46
735.463	0.54
735.488	-0.46
735.512	-7.46
735.537	4.54
735.561	11.54
735.586	3.54
735.61	-10.46
735.634	-14.46
735.659	-8.46
735.683	16.54
735.708	-19.46
735.732	-6.46
735.757	-9.46
735.781	4.54
735.805	1.54
735.83	0.54
735.854	-3.46
735.879	-13.46
735.903	8.54
735.927	-10.46
735.952	-7.46
735.976	5.54
736.001	-7.46
736.025	-17.46
736.049	-12.46
736.074	-17.46
736.098	11.54
736.123	1.54
736.147	-7.46
736.171	12.54
736.196	8.54
736.22	2.54
736.244	2.54
736.269	-24.46
736.293	-6.46
736.317	-2.46
736.342	4.54
736.366	12.54
736.39	9.54
736.415	-3.46
736.439	-1.46
736.463	11.54
736.488	11.54
736.512	-8.46
736.536	-9.46
736.561	17.54
736.585	-3.46
736.609	-3.46
736.634	-0.46
736.658	-1.46
736.682	-1.46
736.707	-10.46
736.731	-11.46
736.755	9.54
736.78	24.54
736.804	12.54
736.828	14.54
736.852	2.54
736.877	-0.46
736.901	-7.46
736.925	-6.46
736.949	6.54
736.974	11.54
736.998	-9.46
737.022	9.54
737.047	-7.46
737.071	-15.46
737.095	1.54
737.119	26.54
737.144	8.54
737.168	-8.46
737.192	-3.46
737.216	6.54
737.241	4.54
737.265	2.54
737.289	0.54
737.313	-6.46
737.337	3.54
737.362	12.54
737.386	7.54
737.41	-21.46
737.434	-2.46
737.459	-13.46
737.483	-2.46
737.507	9.54
737.531	15.54
737.555	9.54
737.58	17.54
737.604	6.54
737.628	-12.46
737.652	-6.46
737.676	-5.46
737.701	5.54
737.725	1.54
737.749	6.54
737.773	-11.46
737.797	-10.46
737.821	-0.46
737.846	0.54
737.87	25.54
737.894	6.54
737.918	-1.46
737.942	-23.46
737.966	8.54
737.99	2.54
738.015	9.54
738.039	-5.46
738.063	-5.46
738.087	7.54
738.111	-1.46
738.135	16.54
738.159	0.54
738.184	-12.46
738.208	-2.46
738.232	-6.46
738.256	21.54
738.28	9.54
738.304	-3.46
738.328	-19.46
738.352	5.54
738.376	-13.46
738.4	5.54
738.425	-9.46
738.449	-7.46
738.473	22.54
738.497	-0.46
738.521	2.54
738.545	3.54
738.569	13.54
738.593	13.54
738.617	11.54
738.641	5.54
738.665	0.54
738.689	-1.46
738.713	0.54
738.737	17.54
738.762	22.54
738.786	4.54
738.81	-7.46
738.834	15.54
738.858	0.54
738.882	-2.46
738.906	-6.46
738.93	9.54
738.954	-6.46
738.978	-5.46
739.002	-15.46
739.026	-1.46
739.05	1.54
739.074	-3.46
739.098	22.54
739.122	6.54
739.146	2.54
739.17	9.54
739.194	-2.46
739.218	-5.46
739.242	-15.46
739.266	-5.46
739.29	9.54
739.314	14.54
739.338	-2.46
739.362	0.54
739.386	-7.46
739.41	8.54
739.434	-14.46
739.458	26.54
739.482	20.54
739.506	4.54
739.53	-6.46
739.554	8.54
739.577	0.54
739.601	5.54
739.625	-2.46
739.649	-6.46
739.673	-9.46
739.697	3.54
739.721	-9.46
739.745	-4.46
739.769	-1.46
739.793	12.54
739.817	13.54
739.841	-3.46
739.865	-3.46
739.889	-8.46
739.912	13.54
739.936	-5.46
739.96	-5.46
739.984	9.54
740.008	7.54
740.032	-2.46
740.056	1.54
740.08	-3.46
740.104	-5.46
740.127	0.54
740.151	-0.46
740.175	11.54
740.199	-7.46
740.223	63.54
740.247	13.54
740.271	-3.46
740.295	-7.46
740.318	-18.46
740.342	-10.46
740.366	-2.46
740.39	1.54
740.414	0.54
740.438	-9.46
740.461	1.54
740.485	3.54
740.509	1.54
740.533	2.54
740.557	1.54
740.581	-7.46
740.604	-25.46
740.628	-7.46
740.652	14.54
740.676	0.54
740.7	2.54
740.723	-12.46
740.747	-2.46
740.771	-3.46
740.795	-5.46
740.819	5.54
740.842	2.54
740.866	7.54
740.89	12.54
740.914	-12.46
740.938	-6.46
740.961	6.54
740.985	9.54
741.009	-5.46
741.033	14.54
741.056	-6.46
741.08	-7.46
741.104	-7.46
741.128	3.54
741.151	4.54
741.175	18.54
741.199	-5.46
741.223	25.54
741.246	-3.46
741.27	-10.46
741.294	0.54
741.318	-2.46
741.341	-7.46
741.365	-7.46
741.389	1.54
741.413	1.54
741.436	6.54
741.46	10.54
741.484	19.54
741.507	3.54
741.531	0.54
741.555	16.54
741.579	1.54
741.602	16.54
741.626	20.54
741.65	8.54
741.673	-5.46
741.697	10.54
741.721	4.54
741.744	-21.46
741.768	-1.46
741.792	0.54
741.815	5.54
741.839	23.54
741.863	15.54
741.886	-7.46
741.91	0.54
741.934	-2.46
741.957	-9.46
741.981	19.54
742.005	-6.46
742.028	-8.46
742.052	-5.46
742.075	25.54
742.099	13.54
742.123	-11.46
742.146	0.54
742.17	-9.46
742.194	-9.46
742.217	-7.46
742.241	-1.46
742.264	-6.46
742.288	17.54
742.312	-8.46
742.335	-9.46
742.359	3.54
742.382	13.54
742.406	2.54
742.43	-16.46
742.453	-5.46
742.477	-3.46
742.5	11.54
742.524	-19.46
742.548	-19.46
742.571	4.54
742.595	-8.46
742.618	4.54
742.642	-6.46
742.665	25.54
742.689	-15.46
742.712	0.54
742.736	-7.46
742.76	-1.46
742.783	-16.46
742.807	10.54
742.83	20.54
742.854	-9.46
742.877	0.54
742.901	-6.46
742.924	-8.46
742.948	1.54
742.971	4.54
742.995	-3.46
743.018	-13.46
743.042	-9.46
743.065	-0.46
743.089	-6.46
743.112	1.54
743.136	-14.46
743.159	2.54
743.183	-9.46
743.206	-1.46
743.23	9.54
743.253	19.54
743.277	5.54
743.3	-8.46
743.324	-7.46
743.347	3.54
743.371	15.54
743.394	1.54
743.418	18.54
743.441	1.54
743.465	8.54
743.488	19.54
743.512	5.54
743.535	13.54
743.558	-7.46
743.582	17.54
743.605	-10.46
743.629	18.54
743.652	7.54
743.676	-6.46
743.699	8.54
743.723	12.54
743.746	9.54
743.769	-2.46
743.793	0.54
743.816	-16.46
743.84	-1.46
743.863	0.54
743.886	11.54
743.91	17.54
743.933	18.54
743.957	5.54
743.98	-6.46
744.003	9.54
744.027	-2.46
744.05	-8.46
744.074	5.54
744.097	-14.46
744.12	7.54
744.144	-6.46
744.167	8.54
744.19	4.54
744.214	9.54
744.237	-16.46
744.26	26.54
744.284	4.54
744.307	6.54
744.331	-6.46
744.354	3.54
744.377	-4.46
744.401	4.54
744.424	-10.46
744.447	-9.46
744.471	-17.46
