Data from HighRes_H2_15_09_11_07_2024_HR4C61891__75__15-11-03-902.txt Node

Date: Thu Nov 07 15:11:03 EST 2024
User: crc00042
Spectrometer: HR4C6189
Trigger mode: 4
Integration Time (sec): 1.000000E-1
Scans to average: 1
Electric dark correction enabled: true
Nonlinearity correction enabled: false
Boxcar width: 0
XAxis mode: Wavelengths
Number of Pixels in Spectrum: 3648
>>>>>Begin Spectral Data<<<<<
639.567	-32.77
639.602	-32.77
639.636	-32.77
639.67	-51.77
639.704	-38.77
639.738	-3.77
639.773	18.23
639.807	1.23
639.841	9.23
639.875	6.23
639.909	-6.77
639.943	-4.77
639.978	-20.77
640.012	-3.77
640.046	15.23
640.08	7.23
640.114	-6.77
640.148	-10.77
640.182	4.23
640.217	-1.77
640.251	11.23
640.285	31.23
640.319	-9.77
640.353	2.23
640.387	7.23
640.421	2.23
640.455	1.23
640.49	-10.77
640.524	4.23
640.558	7.23
640.592	3.23
640.626	-0.77
640.66	-0.77
640.694	-16.77
640.728	3.23
640.762	7.23
640.796	10.23
640.83	22.23
640.865	-3.77
640.899	14.23
640.933	-19.77
640.967	6.23
641.001	-1.77
641.035	5.23
641.069	-6.77
641.103	1.23
641.137	13.23
641.171	-21.77
641.205	-3.77
641.239	-12.77
641.273	10.23
641.307	6.23
641.341	-5.77
641.375	-13.77
641.409	-10.77
641.443	10.23
641.477	8.23
641.511	4.23
641.545	17.23
641.579	1.23
641.614	7.23
641.648	8.23
641.682	0.23
641.716	4.23
641.75	-1.77
641.784	-5.77
641.818	7.23
641.852	-2.77
641.886	6.23
641.919	6.23
641.953	0.23
641.987	-23.77
642.021	-1.77
642.055	3.23
642.089	3.23
642.123	-9.77
642.157	-3.77
642.191	6.23
642.225	13.23
642.259	-16.77
642.293	6.23
642.327	-1.77
642.361	-0.77
642.395	11.23
642.429	15.23
642.463	-0.77
642.497	23.23
642.531	2.23
642.565	-14.77
642.599	8.23
642.633	-13.77
642.666	10.23
642.7	-2.77
642.734	10.23
642.768	-16.77
642.802	-12.77
642.836	21.23
642.87	20.23
642.904	4.23
642.938	4.23
642.972	-2.77
643.005	0.23
643.039	-0.77
643.073	-3.77
643.107	1.23
643.141	2.23
643.175	10.23
643.209	23.23
643.243	2.23
643.276	8.23
643.31	-1.77
643.344	6.23
643.378	12.23
643.412	7.23
643.446	5.23
643.48	9.23
643.513	12.23
643.547	5.23
643.581	1.23
643.615	21.23
643.649	-1.77
643.683	8.23
643.716	1.23
643.75	-0.77
643.784	-9.77
643.818	7.23
643.852	-7.77
643.886	22.23
643.919	16.23
643.953	-3.77
643.987	-0.77
644.021	1.23
644.055	20.23
644.088	8.23
644.122	2.23
644.156	10.23
644.19	7.23
644.224	3.23
644.257	0.23
644.291	4.23
644.325	6.23
644.359	5.23
644.392	22.23
644.426	8.23
644.46	-1.77
644.494	3.23
644.527	-2.77
644.561	4.23
644.595	9.23
644.629	-9.77
644.662	-4.77
644.696	18.23
644.73	1.23
644.764	5.23
644.797	-0.77
644.831	-6.77
644.865	10.23
644.899	-2.77
644.932	15.23
644.966	-8.77
645	9.23
645.033	2.23
645.067	-0.77
645.101	2.23
645.135	2.23
645.168	-13.77
645.202	-4.77
645.236	6.23
645.269	7.23
645.303	-11.77
645.337	-4.77
645.37	-6.77
645.404	17.23
645.438	-11.77
645.471	1.23
645.505	18.23
645.539	-11.77
645.572	-4.77
645.606	0.23
645.64	-3.77
645.673	6.23
645.707	21.23
645.741	-2.77
645.774	-16.77
645.808	0.23
645.842	-19.77
645.875	-3.77
645.909	-2.77
645.943	-15.77
645.976	-3.77
646.01	9.23
646.043	9.23
646.077	21.23
646.111	6.23
646.144	13.23
646.178	7.23
646.212	6.23
646.245	-4.77
646.279	2.23
646.312	3.23
646.346	10.23
646.38	0.23
646.413	-0.77
646.447	-4.77
646.48	11.23
646.514	11.23
646.547	-6.77
646.581	-13.77
646.615	8.23
646.648	-15.77
646.682	-5.77
646.715	-0.77
646.749	0.23
646.782	0.23
646.816	-3.77
646.85	-2.77
646.883	-2.77
646.917	3.23
646.95	1.23
646.984	1.23
647.017	0.23
647.051	6.23
647.084	8.23
647.118	-5.77
647.151	-5.77
647.185	-2.77
647.218	-8.77
647.252	6.23
647.285	-11.77
647.319	-4.77
647.353	8.23
647.386	14.23
647.42	-4.77
647.453	3.23
647.487	-2.77
647.52	-1.77
647.553	-5.77
647.587	-6.77
647.62	-8.77
647.654	2.23
647.687	17.23
647.721	14.23
647.754	1.23
647.788	-2.77
647.821	1.23
647.855	0.23
647.888	-0.77
647.922	6.23
647.955	9.23
647.989	-3.77
648.022	7.23
648.055	0.23
648.089	16.23
648.122	13.23
648.156	4.23
648.189	7.23
648.223	1.23
648.256	18.23
648.29	12.23
648.323	-1.77
648.356	23.23
648.39	7.23
648.423	2.23
648.457	-4.77
648.49	-4.77
648.523	-11.77
648.557	1.23
648.59	-6.77
648.624	9.23
648.657	7.23
648.69	14.23
648.724	15.23
648.757	19.23
648.791	3.23
648.824	-4.77
648.857	14.23
648.891	-4.77
648.924	7.23
648.957	2.23
648.991	-1.77
649.024	3.23
649.057	1.23
649.091	5.23
649.124	9.23
649.158	20.23
649.191	18.23
649.224	-0.77
649.258	13.23
649.291	7.23
649.324	12.23
649.358	4.23
649.391	10.23
649.424	12.23
649.458	-9.77
649.491	7.23
649.524	-3.77
649.557	-3.77
649.591	-12.77
649.624	19.23
649.657	-1.77
649.691	-13.77
649.724	2.23
649.757	2.23
649.791	-5.77
649.824	6.23
649.857	16.23
649.89	-13.77
649.924	-5.77
649.957	7.23
649.99	-14.77
650.023	-9.77
650.057	-6.77
650.09	14.23
650.123	3.23
650.157	25.23
650.19	19.23
650.223	5.23
650.256	-18.77
650.29	0.23
650.323	3.23
650.356	10.23
650.389	0.23
650.423	-1.77
650.456	-2.77
650.489	-11.77
650.522	6.23
650.555	22.23
650.589	11.23
650.622	3.23
650.655	9.23
650.688	5.23
650.721	6.23
650.755	0.23
650.788	27.23
650.821	-0.77
650.854	-3.77
650.887	-8.77
650.921	0.23
650.954	3.23
650.987	2.23
651.02	5.23
651.053	-0.77
651.087	-10.77
651.12	19.23
651.153	2.23
651.186	-5.77
651.219	-24.77
651.252	-0.77
651.286	-6.77
651.319	-3.77
651.352	12.23
651.385	12.23
651.418	11.23
651.451	5.23
651.484	14.23
651.518	-14.77
651.551	21.23
651.584	1.23
651.617	14.23
651.65	2.23
651.683	8.23
651.716	22.23
651.749	-19.77
651.783	4.23
651.816	4.23
651.849	23.23
651.882	8.23
651.915	-16.77
651.948	7.23
651.981	-0.77
652.014	0.23
652.047	-6.77
652.08	2.23
652.114	-2.77
652.147	-13.77
652.18	3.23
652.213	25.23
652.246	2.23
652.279	-0.77
652.312	15.23
652.345	-5.77
652.378	7.23
652.411	14.23
652.444	-2.77
652.477	9.23
652.51	3.23
652.543	-5.77
652.576	1.23
652.609	8.23
652.642	0.23
652.675	7.23
652.709	1.23
652.742	-1.77
652.775	7.23
652.808	16.23
652.841	9.23
652.874	-9.77
652.907	-9.77
652.94	-6.77
652.973	-16.77
653.006	2.23
653.039	6.23
653.072	10.23
653.105	3.23
653.138	-12.77
653.171	-5.77
653.204	-11.77
653.237	-0.77
653.27	-18.77
653.303	6.23
653.336	5.23
653.368	-7.77
653.401	1.23
653.434	4.23
653.467	2.23
653.5	-8.77
653.533	2.23
653.566	7.23
653.599	-2.77
653.632	4.23
653.665	-1.77
653.698	-15.77
653.731	-19.77
653.764	7.23
653.797	7.23
653.83	8.23
653.863	-3.77
653.896	1.23
653.929	3.23
653.961	4.23
653.994	3.23
654.027	-3.77
654.06	0.23
654.093	-4.77
654.126	4.23
654.159	-16.77
654.192	-14.77
654.225	-1.77
654.258	-3.77
654.29	-9.77
654.323	4.23
654.356	-5.77
654.389	0.23
654.422	10.23
654.455	-8.77
654.488	-9.77
654.521	-19.77
654.553	3.23
654.586	17.23
654.619	-11.77
654.652	-8.77
654.685	-4.77
654.718	23.23
654.751	14.23
654.783	-12.77
654.816	19.23
654.849	4.23
654.882	-19.77
654.915	-4.77
654.948	6.23
654.98	-15.77
655.013	1.23
655.046	0.23
655.079	-0.77
655.112	3.23
655.144	-19.77
655.177	10.23
655.21	24.23
655.243	15.23
655.276	7.23
655.308	-7.77
655.341	-3.77
655.374	19.23
655.407	-10.77
655.44	-8.77
655.472	1.23
655.505	5.23
655.538	2.23
655.571	15.23
655.603	5.23
655.636	17.23
655.669	11.23
655.702	8.23
655.734	-0.77
655.767	19.23
655.8	22.23
655.833	8.23
655.865	35.23
655.898	13.23
655.931	39.23
655.964	48.23
655.996	60.23
656.029	70.23
656.062	53.23
656.095	70.23
656.127	53.23
656.16	103.23
656.193	148.23
656.225	175.23
656.258	298.23
656.291	516.23
656.324	1156.23
656.356	3457.23
656.389	7745.23
656.422	6259.23
656.454	2145.23
656.487	700.23
656.52	264.23
656.552	136.23
656.585	86.23
656.618	60.23
656.65	52.23
656.683	32.23
656.716	25.23
656.748	16.23
656.781	2.23
656.814	4.23
656.846	16.23
656.879	-0.77
656.912	6.23
656.944	-25.77
656.977	-4.77
657.01	13.23
657.042	20.23
657.075	18.23
657.108	3.23
657.14	7.23
657.173	22.23
657.205	26.23
657.238	23.23
657.271	26.23
657.303	-6.77
657.336	9.23
657.369	3.23
657.401	-7.77
657.434	1.23
657.466	11.23
657.499	-0.77
657.532	-8.77
657.564	1.23
657.597	-2.77
657.629	-3.77
657.662	2.23
657.694	9.23
657.727	-22.77
657.76	-3.77
657.792	-6.77
657.825	-1.77
657.857	3.23
657.89	-1.77
657.922	9.23
657.955	-13.77
657.987	7.23
658.02	14.23
658.053	6.23
658.085	12.23
658.118	8.23
658.15	23.23
658.183	5.23
658.215	-5.77
658.248	-9.77
658.28	-12.77
658.313	6.23
658.345	10.23
658.378	4.23
658.41	-5.77
658.443	11.23
658.475	9.23
658.508	-15.77
658.54	-5.77
658.573	-4.77
658.605	0.23
658.638	-8.77
658.67	1.23
658.703	3.23
658.735	-2.77
658.768	6.23
658.8	-17.77
658.833	20.23
658.865	3.23
658.898	2.23
658.93	-1.77
658.963	-4.77
658.995	-13.77
659.028	12.23
659.06	0.23
659.092	-7.77
659.125	-22.77
659.157	-7.77
659.19	-3.77
659.222	-20.77
659.255	15.23
659.287	6.23
659.32	-15.77
659.352	-1.77
659.384	3.23
659.417	-4.77
659.449	3.23
659.482	18.23
659.514	7.23
659.546	-11.77
659.579	-7.77
659.611	10.23
659.644	-6.77
659.676	-8.77
659.708	4.23
659.741	-7.77
659.773	2.23
659.806	2.23
659.838	-5.77
659.87	2.23
659.903	-5.77
659.935	-0.77
659.967	12.23
660	15.23
660.032	-18.77
660.065	17.23
660.097	-5.77
660.129	-0.77
660.162	-14.77
660.194	7.23
660.226	-5.77
660.259	6.23
660.291	-12.77
660.323	-6.77
660.356	-0.77
660.388	10.23
660.42	-7.77
660.453	1.23
660.485	6.23
660.517	6.23
660.55	2.23
660.582	-2.77
660.614	10.23
660.647	-3.77
660.679	-25.77
660.711	-5.77
660.743	-5.77
660.776	-8.77
660.808	-9.77
660.84	6.23
660.873	-0.77
660.905	-1.77
660.937	3.23
660.969	2.23
661.002	7.23
661.034	20.23
661.066	5.23
661.099	14.23
661.131	17.23
661.163	-1.77
661.195	-8.77
661.228	17.23
661.26	-9.77
661.292	5.23
661.324	12.23
661.357	7.23
661.389	5.23
661.421	9.23
661.453	-2.77
661.485	17.23
661.518	5.23
661.55	-7.77
661.582	-12.77
661.614	-3.77
661.647	6.23
661.679	-5.77
661.711	5.23
661.743	-10.77
661.775	-2.77
661.808	10.23
661.84	-11.77
661.872	3.23
661.904	-24.77
661.936	3.23
661.969	-6.77
662.001	-6.77
662.033	0.23
662.065	-0.77
662.097	3.23
662.129	5.23
662.162	-1.77
662.194	8.23
662.226	-3.77
662.258	0.23
662.29	1.23
662.322	-13.77
662.355	-13.77
662.387	12.23
662.419	0.23
662.451	5.23
662.483	9.23
662.515	-18.77
662.547	-10.77
662.58	-12.77
662.612	-0.77
662.644	-16.77
662.676	22.23
662.708	22.23
662.74	3.23
662.772	0.23
662.804	3.23
662.836	16.23
662.869	0.23
662.901	16.23
662.933	4.23
662.965	21.23
662.997	4.23
663.029	-4.77
663.061	2.23
663.093	1.23
663.125	-4.77
663.157	11.23
663.189	-10.77
663.221	-8.77
663.254	-5.77
663.286	15.23
663.318	-8.77
663.35	5.23
663.382	12.23
663.414	8.23
663.446	-4.77
663.478	-5.77
663.51	16.23
663.542	8.23
663.574	7.23
663.606	9.23
663.638	-21.77
663.67	-6.77
663.702	7.23
663.734	-7.77
663.766	-10.77
663.798	-5.77
663.83	-8.77
663.862	3.23
663.894	7.23
663.926	-0.77
663.958	0.23
663.99	1.23
664.022	-9.77
664.054	1.23
664.086	3.23
664.118	-8.77
664.15	-3.77
664.182	12.23
664.214	-2.77
664.246	4.23
664.278	10.23
664.31	6.23
664.342	1.23
664.374	-4.77
664.406	-16.77
664.438	-20.77
664.47	18.23
664.502	-1.77
664.534	5.23
664.566	-3.77
664.598	1.23
664.63	0.23
664.662	-4.77
664.693	7.23
664.725	6.23
664.757	-3.77
664.789	0.23
664.821	6.23
664.853	16.23
664.885	-1.77
664.917	-0.77
664.949	16.23
664.981	33.23
665.013	3.23
665.045	-5.77
665.076	-12.77
665.108	-4.77
665.14	-9.77
665.172	-10.77
665.204	5.23
665.236	3.23
665.268	10.23
665.3	-25.77
665.331	-12.77
665.363	-16.77
665.395	10.23
665.427	7.23
665.459	10.23
665.491	7.23
665.523	12.23
665.555	-12.77
665.586	-7.77
665.618	1.23
665.65	-7.77
665.682	9.23
665.714	-2.77
665.746	-2.77
665.777	0.23
665.809	-1.77
665.841	10.23
665.873	-9.77
665.905	-3.77
665.937	20.23
665.968	8.23
666	2.23
666.032	4.23
666.064	-5.77
666.096	-6.77
666.127	6.23
666.159	13.23
666.191	6.23
666.223	-0.77
666.255	7.23
666.286	2.23
666.318	-5.77
666.35	10.23
666.382	-8.77
666.413	-16.77
666.445	-18.77
666.477	-24.77
666.509	-1.77
666.54	7.23
666.572	-13.77
666.604	-7.77
666.636	-6.77
666.667	11.23
666.699	20.23
666.731	10.23
666.763	-1.77
666.794	-8.77
666.826	3.23
666.858	-4.77
666.89	12.23
666.921	4.23
666.953	-5.77
666.985	31.23
667.017	19.23
667.048	-0.77
667.08	-5.77
667.112	-7.77
667.143	-9.77
667.175	7.23
667.207	2.23
667.238	19.23
667.27	7.23
667.302	3.23
667.334	3.23
667.365	27.23
667.397	12.23
667.429	-2.77
667.46	6.23
667.492	6.23
667.524	-5.77
667.555	-5.77
667.587	2.23
667.619	12.23
667.65	-3.77
667.682	4.23
667.714	19.23
667.745	2.23
667.777	-2.77
667.808	18.23
667.84	2.23
667.872	-2.77
667.903	23.23
667.935	2.23
667.967	4.23
667.998	0.23
668.03	-0.77
668.061	-3.77
668.093	1.23
668.125	-0.77
668.156	-6.77
668.188	-1.77
668.22	-8.77
668.251	3.23
668.283	5.23
668.314	19.23
668.346	-15.77
668.377	-10.77
668.409	-7.77
668.441	6.23
668.472	15.23
668.504	10.23
668.535	6.23
668.567	14.23
668.599	9.23
668.63	-9.77
668.662	-4.77
668.693	18.23
668.725	6.23
668.756	-4.77
668.788	9.23
668.819	10.23
668.851	4.23
668.882	-9.77
668.914	-13.77
668.946	5.23
668.977	-13.77
669.009	-20.77
669.04	-24.77
669.072	-3.77
669.103	2.23
669.135	-6.77
669.166	-7.77
669.198	-11.77
669.229	-0.77
669.261	-11.77
669.292	0.23
669.324	-0.77
669.355	11.23
669.387	-13.77
669.418	3.23
669.45	-11.77
669.481	7.23
669.513	14.23
669.544	3.23
669.576	10.23
669.607	-0.77
669.639	11.23
669.67	-12.77
669.701	0.23
669.733	-17.77
669.764	-1.77
669.796	19.23
669.827	-7.77
669.859	3.23
669.89	-6.77
669.922	0.23
669.953	12.23
669.985	3.23
670.016	3.23
670.047	-3.77
670.079	-8.77
670.11	12.23
670.142	15.23
670.173	-13.77
670.204	6.23
670.236	13.23
670.267	-6.77
670.299	3.23
670.33	3.23
670.362	10.23
670.393	3.23
670.424	5.23
670.456	-7.77
670.487	2.23
670.518	-9.77
670.55	-5.77
670.581	9.23
670.613	9.23
670.644	-4.77
670.675	-7.77
670.707	-2.77
670.738	9.23
670.769	-2.77
670.801	-21.77
670.832	4.23
670.864	-2.77
670.895	4.23
670.926	-9.77
670.958	-19.77
670.989	-4.77
671.02	1.23
671.052	-6.77
671.083	13.23
671.114	-5.77
671.146	1.23
671.177	-5.77
671.208	9.23
671.24	-13.77
671.271	-7.77
671.302	-10.77
671.333	-3.77
671.365	-1.77
671.396	-3.77
671.427	9.23
671.459	3.23
671.49	10.23
671.521	5.23
671.553	-2.77
671.584	7.23
671.615	-7.77
671.646	8.23
671.678	19.23
671.709	5.23
671.74	-16.77
671.771	-22.77
671.803	-4.77
671.834	-1.77
671.865	-3.77
671.896	5.23
671.928	8.23
671.959	-8.77
671.99	-8.77
672.021	1.23
672.053	-23.77
672.084	15.23
672.115	-8.77
672.146	1.23
672.178	-1.77
672.209	-7.77
672.24	-0.77
672.271	17.23
672.303	5.23
672.334	2.23
672.365	-3.77
672.396	-3.77
672.427	5.23
672.459	2.23
672.49	19.23
672.521	8.23
672.552	16.23
672.583	11.23
672.615	4.23
672.646	2.23
672.677	3.23
672.708	-8.77
672.739	0.23
672.77	-6.77
672.802	-1.77
672.833	0.23
672.864	1.23
672.895	4.23
672.926	2.23
672.957	-4.77
672.989	-10.77
673.02	-3.77
673.051	2.23
673.082	25.23
673.113	5.23
673.144	0.23
673.175	13.23
673.206	-5.77
673.238	6.23
673.269	-11.77
673.3	1.23
673.331	15.23
673.362	16.23
673.393	18.23
673.424	11.23
673.455	9.23
673.487	1.23
673.518	11.23
673.549	-1.77
673.58	-1.77
673.611	2.23
673.642	1.23
673.673	-17.77
673.704	1.23
673.735	8.23
673.766	0.23
673.797	0.23
673.828	2.23
673.86	0.23
673.891	-9.77
673.922	-20.77
673.953	-10.77
673.984	-3.77
674.015	16.23
674.046	0.23
674.077	8.23
674.108	-5.77
674.139	2.23
674.17	-10.77
674.201	-6.77
674.232	-6.77
674.263	-11.77
674.294	-10.77
674.325	-0.77
674.356	3.23
674.387	10.23
674.418	4.23
674.449	2.23
674.48	0.23
674.511	12.23
674.542	21.23
674.573	-12.77
674.604	7.23
674.635	-8.77
674.666	17.23
674.697	18.23
674.728	10.23
674.759	4.23
674.79	-8.77
674.821	-7.77
674.852	6.23
674.883	1.23
674.914	3.23
674.945	-3.77
674.976	8.23
675.007	-0.77
675.038	-2.77
675.069	-10.77
675.1	1.23
675.131	1.23
675.162	2.23
675.193	-0.77
675.224	6.23
675.254	12.23
675.285	8.23
675.316	24.23
675.347	-5.77
675.378	15.23
675.409	-7.77
675.44	15.23
675.471	-2.77
675.502	-3.77
675.533	-5.77
675.564	2.23
675.595	4.23
675.625	22.23
675.656	17.23
675.687	2.23
675.718	-21.77
675.749	4.23
675.78	11.23
675.811	3.23
675.842	1.23
675.873	-1.77
675.903	-13.77
675.934	-2.77
675.965	-10.77
675.996	-15.77
676.027	7.23
676.058	-7.77
676.089	-30.77
676.119	-4.77
676.15	-0.77
676.181	4.23
676.212	8.23
676.243	-4.77
676.274	-3.77
676.304	2.23
676.335	4.23
676.366	-9.77
676.397	-0.77
676.428	5.23
676.459	1.23
676.489	2.23
676.52	-1.77
676.551	10.23
676.582	-5.77
676.613	-10.77
676.643	-4.77
676.674	1.23
676.705	-3.77
676.736	24.23
676.767	21.23
676.797	14.23
676.828	6.23
676.859	2.23
676.89	-2.77
676.92	9.23
676.951	-6.77
676.982	-7.77
677.013	2.23
677.044	12.23
677.074	5.23
677.105	-2.77
677.136	15.23
677.167	-2.77
677.197	11.23
677.228	-10.77
677.259	-16.77
677.289	-8.77
677.32	-24.77
677.351	-9.77
677.382	-6.77
677.412	-13.77
677.443	-3.77
677.474	-10.77
677.505	-8.77
677.535	-2.77
677.566	-8.77
677.597	-24.77
677.627	-16.77
677.658	-17.77
677.689	-10.77
677.72	4.23
677.75	-6.77
677.781	-3.77
677.812	3.23
677.842	5.23
677.873	3.23
677.904	-6.77
677.934	2.23
677.965	-9.77
677.996	-8.77
678.026	6.23
678.057	2.23
678.088	-14.77
678.118	3.23
678.149	-4.77
678.18	-6.77
678.21	-7.77
678.241	-15.77
678.272	-8.77
678.302	-11.77
678.333	-1.77
678.363	8.23
678.394	-5.77
678.425	-22.77
678.455	2.23
678.486	0.23
678.517	-11.77
678.547	-12.77
678.578	1.23
678.608	-14.77
678.639	4.23
678.67	-1.77
678.7	-6.77
678.731	-14.77
678.761	3.23
678.792	1.23
678.823	15.23
678.853	5.23
678.884	-2.77
678.914	9.23
678.945	0.23
678.975	-21.77
679.006	-10.77
679.037	-16.77
679.067	8.23
679.098	10.23
679.128	-16.77
679.159	-12.77
679.189	4.23
679.22	-8.77
679.25	-4.77
679.281	-14.77
679.312	-0.77
679.342	-5.77
679.373	7.23
679.403	-11.77
679.434	-12.77
679.464	-2.77
679.495	19.23
679.525	-6.77
679.556	-6.77
679.586	13.23
679.617	13.23
679.647	-0.77
679.678	3.23
679.708	-19.77
679.739	-7.77
679.769	10.23
679.8	-6.77
679.83	-4.77
679.861	6.23
679.891	-1.77
679.922	-12.77
679.952	-9.77
679.983	12.23
680.013	-7.77
680.044	-11.77
680.074	10.23
680.105	7.23
680.135	3.23
680.165	1.23
680.196	8.23
680.226	-2.77
680.257	-3.77
680.287	1.23
680.318	-18.77
680.348	-9.77
680.379	18.23
680.409	10.23
680.439	-8.77
680.47	-9.77
680.5	2.23
680.531	-1.77
680.561	10.23
680.592	-9.77
680.622	17.23
680.652	-1.77
680.683	15.23
680.713	10.23
680.744	-9.77
680.774	-5.77
680.804	17.23
680.835	-12.77
680.865	-5.77
680.896	10.23
680.926	11.23
680.956	1.23
680.987	2.23
681.017	4.23
681.047	1.23
681.078	-21.77
681.108	-11.77
681.139	1.23
681.169	-1.77
681.199	1.23
681.23	6.23
681.26	10.23
681.29	1.23
681.321	-10.77
681.351	9.23
681.381	-10.77
681.412	0.23
681.442	-3.77
681.472	4.23
681.503	-15.77
681.533	-2.77
681.563	-3.77
681.594	-2.77
681.624	-4.77
681.654	-7.77
681.685	4.23
681.715	3.23
681.745	-4.77
681.775	-10.77
681.806	-11.77
681.836	4.23
681.866	-1.77
681.897	-0.77
681.927	-3.77
681.957	-19.77
681.987	16.23
682.018	9.23
682.048	4.23
682.078	-0.77
682.109	14.23
682.139	14.23
682.169	-8.77
682.199	-1.77
682.23	0.23
682.26	-3.77
682.29	0.23
682.32	-12.77
682.351	-0.77
682.381	-7.77
682.411	2.23
682.441	-24.77
682.472	0.23
682.502	-7.77
682.532	-8.77
682.562	-13.77
682.592	1.23
682.623	16.23
682.653	-1.77
682.683	-13.77
682.713	1.23
682.743	-17.77
682.774	-4.77
682.804	7.23
682.834	17.23
682.864	-8.77
682.894	14.23
682.925	-13.77
682.955	0.23
682.985	-6.77
683.015	14.23
683.045	-0.77
683.076	-10.77
683.106	-4.77
683.136	-4.77
683.166	0.23
683.196	-5.77
683.226	-9.77
683.257	-1.77
683.287	-23.77
683.317	-1.77
683.347	-14.77
683.377	-1.77
683.407	-3.77
683.437	-12.77
683.468	4.23
683.498	1.23
683.528	12.23
683.558	3.23
683.588	-0.77
683.618	-13.77
683.648	3.23
683.678	-1.77
683.708	4.23
683.739	0.23
683.769	-6.77
683.799	4.23
683.829	0.23
683.859	-5.77
683.889	2.23
683.919	5.23
683.949	10.23
683.979	8.23
684.009	-18.77
684.039	-0.77
684.07	-20.77
684.1	5.23
684.13	4.23
684.16	0.23
684.19	-7.77
684.22	-7.77
684.25	1.23
684.28	-9.77
684.31	15.23
684.34	-0.77
684.37	6.23
684.4	-10.77
684.43	8.23
684.46	-0.77
684.49	-2.77
684.52	7.23
684.55	-2.77
684.58	-9.77
684.61	-2.77
684.64	13.23
684.67	11.23
684.7	0.23
684.73	13.23
684.76	6.23
684.79	19.23
684.82	0.23
684.85	-1.77
684.88	-1.77
684.91	-4.77
684.94	12.23
684.97	-15.77
685	7.23
685.03	-12.77
685.06	-6.77
685.09	4.23
685.12	0.23
685.15	-7.77
685.18	8.23
685.21	2.23
685.24	-2.77
685.27	2.23
685.3	1.23
685.33	3.23
685.36	3.23
685.39	-10.77
685.42	-16.77
685.45	-2.77
685.48	-7.77
685.51	-3.77
685.54	-1.77
685.569	8.23
685.599	-10.77
685.629	-1.77
685.659	-8.77
685.689	1.23
685.719	-13.77
685.749	-4.77
685.779	4.23
685.809	1.23
685.839	-6.77
685.869	4.23
685.898	-4.77
685.928	11.23
685.958	2.23
685.988	9.23
686.018	-11.77
686.048	9.23
686.078	2.23
686.108	-0.77
686.137	-4.77
686.167	-2.77
686.197	-0.77
686.227	-3.77
686.257	41.23
686.287	2.23
686.317	7.23
686.346	-2.77
686.376	-22.77
686.406	-1.77
686.436	6.23
686.466	-23.77
686.496	-5.77
686.525	9.23
686.555	-0.77
686.585	25.23
686.615	15.23
686.645	3.23
686.675	-7.77
686.704	-6.77
686.734	-2.77
686.764	7.23
686.794	6.23
686.824	8.23
686.853	2.23
686.883	15.23
686.913	19.23
686.943	0.23
686.973	0.23
687.002	0.23
687.032	1.23
687.062	-13.77
687.092	11.23
687.121	4.23
687.151	4.23
687.181	-3.77
687.211	6.23
687.24	1.23
687.27	5.23
687.3	2.23
687.33	-3.77
687.359	-19.77
687.389	6.23
687.419	-0.77
687.449	9.23
687.478	5.23
687.508	-6.77
687.538	8.23
687.568	-7.77
687.597	-14.77
687.627	-5.77
687.657	4.23
687.686	-0.77
687.716	9.23
687.746	-4.77
687.776	-4.77
687.805	-0.77
687.835	-12.77
687.865	14.23
687.894	11.23
687.924	-1.77
687.954	-0.77
687.983	2.23
688.013	-4.77
688.043	-4.77
688.072	3.23
688.102	12.23
688.132	-13.77
688.161	0.23
688.191	-3.77
688.221	10.23
688.25	5.23
688.28	16.23
688.31	1.23
688.339	-3.77
688.369	0.23
688.399	-5.77
688.428	-9.77
688.458	-6.77
688.488	-0.77
688.517	13.23
688.547	3.23
688.576	30.23
688.606	11.23
688.636	-21.77
688.665	2.23
688.695	10.23
688.725	18.23
688.754	-0.77
688.784	12.23
688.813	21.23
688.843	16.23
688.873	-3.77
688.902	1.23
688.932	6.23
688.961	6.23
688.991	23.23
689.02	12.23
689.05	-3.77
689.08	7.23
689.109	23.23
689.139	-10.77
689.168	8.23
689.198	5.23
689.227	9.23
689.257	7.23
689.287	12.23
689.316	-0.77
689.346	-9.77
689.375	3.23
689.405	5.23
689.434	0.23
689.464	-4.77
689.493	-10.77
689.523	3.23
689.552	-12.77
689.582	-0.77
689.611	-13.77
689.641	-0.77
689.67	1.23
689.7	11.23
689.73	25.23
689.759	-2.77
689.789	15.23
689.818	5.23
689.848	-7.77
689.877	15.23
689.906	-8.77
689.936	-8.77
689.965	13.23
689.995	19.23
690.024	11.23
690.054	0.23
690.083	-0.77
690.113	2.23
690.142	-2.77
690.172	4.23
690.201	10.23
690.231	3.23
690.26	-6.77
690.29	12.23
690.319	8.23
690.348	3.23
690.378	9.23
690.407	0.23
690.437	-7.77
690.466	-1.77
690.496	2.23
690.525	5.23
690.555	-16.77
690.584	-8.77
690.613	4.23
690.643	8.23
690.672	13.23
690.702	4.23
690.731	-2.77
690.76	-3.77
690.79	0.23
690.819	4.23
690.849	-5.77
690.878	-3.77
690.907	-9.77
690.937	7.23
690.966	9.23
690.996	7.23
691.025	-0.77
691.054	5.23
691.084	4.23
691.113	-2.77
691.142	14.23
691.172	21.23
691.201	28.23
691.23	0.23
691.26	18.23
691.289	-12.77
691.319	2.23
691.348	-3.77
691.377	20.23
691.407	11.23
691.436	13.23
691.465	25.23
691.495	-6.77
691.524	-17.77
691.553	3.23
691.583	0.23
691.612	16.23
691.641	3.23
691.67	9.23
691.7	11.23
691.729	-2.77
691.758	13.23
691.788	-14.77
691.817	-7.77
691.846	-1.77
691.876	-3.77
691.905	-4.77
691.934	-0.77
691.963	10.23
691.993	7.23
692.022	-5.77
692.051	-10.77
692.081	-4.77
692.11	11.23
692.139	4.23
692.168	16.23
692.198	12.23
692.227	1.23
692.256	-7.77
692.285	-3.77
692.315	-3.77
692.344	5.23
692.373	-4.77
692.402	-17.77
692.432	-7.77
692.461	-11.77
692.49	-7.77
692.519	1.23
692.548	22.23
692.578	16.23
692.607	-5.77
692.636	1.23
692.665	14.23
692.694	2.23
692.724	-10.77
692.753	4.23
692.782	-0.77
692.811	-0.77
692.84	-8.77
692.87	5.23
692.899	-7.77
692.928	-8.77
692.957	-6.77
692.986	10.23
693.016	8.23
693.045	17.23
693.074	9.23
693.103	0.23
693.132	12.23
693.161	13.23
693.191	-3.77
693.22	-10.77
693.249	1.23
693.278	3.23
693.307	27.23
693.336	-3.77
693.365	-1.77
693.395	-9.77
693.424	-2.77
693.453	12.23
693.482	4.23
693.511	13.23
693.54	11.23
693.569	6.23
693.598	-23.77
693.628	2.23
693.657	3.23
693.686	6.23
693.715	-4.77
693.744	16.23
693.773	11.23
693.802	-7.77
693.831	-0.77
693.86	20.23
693.889	3.23
693.919	5.23
693.948	4.23
693.977	4.23
694.006	4.23
694.035	-3.77
694.064	1.23
694.093	0.23
694.122	-7.77
694.151	-9.77
694.18	9.23
694.209	10.23
694.238	-7.77
694.267	27.23
694.296	12.23
694.325	22.23
694.354	23.23
694.383	10.23
694.412	0.23
694.441	8.23
694.471	-0.77
694.5	-16.77
694.529	10.23
694.558	7.23
694.587	-3.77
694.616	-1.77
694.645	4.23
694.674	0.23
694.703	13.23
694.732	1.23
694.761	5.23
694.79	8.23
694.819	-9.77
694.848	-1.77
694.877	0.23
694.906	24.23
694.935	-11.77
694.963	16.23
694.992	-4.77
695.021	-11.77
695.05	-3.77
695.079	6.23
695.108	-1.77
695.137	16.23
695.166	16.23
695.195	-0.77
695.224	4.23
695.253	-4.77
695.282	-9.77
695.311	19.23
695.34	20.23
695.369	6.23
695.398	7.23
695.427	23.23
695.456	-4.77
695.485	-3.77
695.513	-0.77
695.542	3.23
695.571	-5.77
695.6	9.23
695.629	-6.77
695.658	23.23
695.687	-1.77
695.716	10.23
695.745	25.23
695.774	0.23
695.802	-5.77
695.831	15.23
695.86	23.23
695.889	9.23
695.918	3.23
695.947	-17.77
695.976	-5.77
696.005	1.23
696.033	3.23
696.062	-1.77
696.091	6.23
696.12	-1.77
696.149	17.23
696.178	15.23
696.207	22.23
696.235	2.23
696.264	19.23
696.293	-3.77
696.322	21.23
696.351	7.23
696.38	-6.77
696.408	8.23
696.437	3.23
696.466	3.23
696.495	16.23
696.524	16.23
696.553	5.23
696.581	6.23
696.61	-5.77
696.639	-26.77
696.668	18.23
696.697	1.23
696.725	25.23
696.754	0.23
696.783	10.23
696.812	1.23
696.84	16.23
696.869	5.23
696.898	3.23
696.927	-9.77
696.956	19.23
696.984	-4.77
697.013	1.23
697.042	22.23
697.071	12.23
697.099	23.23
697.128	-3.77
697.157	10.23
697.186	-4.77
697.214	1.23
697.243	3.23
697.272	-5.77
697.301	6.23
697.329	-1.77
697.358	-1.77
697.387	10.23
697.415	4.23
697.444	2.23
697.473	-2.77
697.502	-16.77
697.53	10.23
697.559	6.23
697.588	-0.77
697.616	-5.77
697.645	-7.77
697.674	11.23
697.703	2.23
697.731	7.23
697.76	3.23
697.789	10.23
697.817	8.23
697.846	14.23
697.875	-4.77
697.903	35.23
697.932	16.23
697.961	5.23
697.989	17.23
698.018	9.23
698.047	6.23
698.075	8.23
698.104	-15.77
698.133	0.23
698.161	0.23
698.19	3.23
698.218	-6.77
698.247	-5.77
698.276	1.23
698.304	16.23
698.333	9.23
698.362	16.23
698.39	10.23
698.419	13.23
698.447	4.23
698.476	-0.77
698.505	11.23
698.533	4.23
698.562	4.23
698.591	0.23
698.619	0.23
698.648	-8.77
698.676	8.23
698.705	0.23
698.733	-0.77
698.762	5.23
698.791	6.23
698.819	4.23
698.848	-2.77
698.876	17.23
698.905	8.23
698.933	5.23
698.962	17.23
698.991	4.23
699.019	26.23
699.048	8.23
699.076	5.23
699.105	-7.77
699.133	-0.77
699.162	3.23
699.19	14.23
699.219	4.23
699.248	15.23
699.276	3.23
699.305	7.23
699.333	2.23
699.362	-3.77
699.39	3.23
699.419	-11.77
699.447	-8.77
699.476	-0.77
699.504	-1.77
699.533	5.23
699.561	-7.77
699.59	6.23
699.618	-0.77
699.647	-0.77
699.675	7.23
699.704	3.23
699.732	9.23
699.761	16.23
699.789	-6.77
699.818	12.23
699.846	-8.77
699.874	4.23
699.903	-3.77
699.931	0.23
699.96	3.23
699.988	-1.77
700.017	-0.77
700.045	7.23
700.074	3.23
700.102	2.23
700.13	-18.77
700.159	-8.77
700.187	3.23
700.216	-4.77
700.244	-7.77
700.273	7.23
700.301	0.23
700.329	23.23
700.358	21.23
700.386	-4.77
700.415	11.23
700.443	-4.77
700.472	-13.77
700.5	4.23
700.528	30.23
700.557	5.23
700.585	-12.77
700.614	-4.77
700.642	19.23
700.67	8.23
700.699	2.23
700.727	10.23
700.755	4.23
700.784	7.23
700.812	15.23
700.841	18.23
700.869	-4.77
700.897	-8.77
700.926	3.23
700.954	-3.77
700.982	2.23
701.011	-13.77
701.039	0.23
701.067	7.23
701.096	17.23
701.124	0.23
701.152	-0.77
701.181	-6.77
701.209	-13.77
701.237	4.23
701.266	-3.77
701.294	0.23
701.322	13.23
701.351	2.23
701.379	-9.77
701.407	-17.77
701.435	-12.77
701.464	17.23
701.492	22.23
701.52	2.23
701.549	13.23
701.577	2.23
701.605	-4.77
701.634	0.23
701.662	9.23
701.69	7.23
701.718	-9.77
701.747	4.23
701.775	1.23
701.803	1.23
701.831	5.23
701.86	-0.77
701.888	18.23
701.916	8.23
701.944	5.23
701.973	1.23
702.001	-16.77
702.029	-12.77
702.057	-6.77
702.086	-8.77
702.114	-17.77
702.142	25.23
702.17	-9.77
702.199	10.23
702.227	9.23
702.255	-3.77
702.283	-7.77
702.311	5.23
702.34	5.23
702.368	-7.77
702.396	-3.77
702.424	-4.77
702.452	1.23
702.481	11.23
702.509	0.23
702.537	2.23
702.565	-2.77
702.593	-13.77
702.621	-4.77
702.65	-0.77
702.678	-3.77
702.706	9.23
702.734	6.23
702.762	17.23
702.79	-6.77
702.819	5.23
702.847	2.23
702.875	3.23
702.903	2.23
702.931	-15.77
702.959	8.23
702.988	-0.77
703.016	-5.77
703.044	-2.77
703.072	3.23
703.1	-12.77
703.128	-7.77
703.156	-4.77
703.184	-4.77
703.212	6.23
703.241	-6.77
703.269	-13.77
703.297	-6.77
703.325	1.23
703.353	-7.77
703.381	-0.77
703.409	3.23
703.437	-1.77
703.465	-5.77
703.493	0.23
703.522	10.23
703.55	11.23
703.578	17.23
703.606	-9.77
703.634	2.23
703.662	-7.77
703.69	-0.77
703.718	12.23
703.746	5.23
703.774	-14.77
703.802	4.23
703.83	0.23
703.858	-8.77
703.886	-4.77
703.914	-10.77
703.942	-0.77
703.97	-1.77
703.998	-0.77
704.027	16.23
704.055	11.23
704.083	4.23
704.111	-6.77
704.139	11.23
704.167	8.23
704.195	7.23
704.223	-1.77
704.251	0.23
704.279	7.23
704.307	-5.77
704.335	-19.77
704.363	4.23
704.391	10.23
704.419	-1.77
704.447	-12.77
704.475	-1.77
704.503	10.23
704.531	17.23
704.558	3.23
704.586	-0.77
704.614	-5.77
704.642	3.23
704.67	-9.77
704.698	-0.77
704.726	2.23
704.754	-4.77
704.782	-4.77
704.81	-4.77
704.838	13.23
704.866	10.23
704.894	0.23
704.922	-4.77
704.95	10.23
704.978	22.23
705.006	-3.77
705.034	-4.77
705.061	-11.77
705.089	-3.77
705.117	0.23
705.145	0.23
705.173	7.23
705.201	12.23
705.229	3.23
705.257	11.23
705.285	10.23
705.313	7.23
705.34	-15.77
705.368	-6.77
705.396	-0.77
705.424	-3.77
705.452	-4.77
705.48	-8.77
705.508	10.23
705.536	3.23
705.563	-7.77
705.591	13.23
705.619	4.23
705.647	-8.77
705.675	3.23
705.703	-1.77
705.731	-4.77
705.758	-5.77
705.786	-13.77
705.814	15.23
705.842	4.23
705.87	10.23
705.898	13.23
705.925	0.23
705.953	-1.77
705.981	-4.77
706.009	5.23
706.037	-1.77
706.065	-4.77
706.092	-11.77
706.12	-0.77
706.148	-3.77
706.176	-26.77
706.204	1.23
706.231	-6.77
706.259	-4.77
706.287	-3.77
706.315	-9.77
706.342	-9.77
706.37	19.23
706.398	3.23
706.426	6.23
706.454	11.23
706.481	16.23
706.509	-7.77
706.537	-9.77
706.565	2.23
706.592	10.23
706.62	-0.77
706.648	10.23
706.676	-4.77
706.703	2.23
706.731	2.23
706.759	5.23
706.787	10.23
706.814	-0.77
706.842	-1.77
706.87	-9.77
706.897	-1.77
706.925	-5.77
706.953	13.23
706.981	18.23
707.008	-3.77
707.036	17.23
707.064	3.23
707.091	-4.77
707.119	6.23
707.147	-2.77
707.174	-7.77
707.202	3.23
707.23	-9.77
707.258	13.23
707.285	-19.77
707.313	4.23
707.341	-14.77
707.368	-9.77
707.396	-2.77
707.424	21.23
707.451	1.23
707.479	-7.77
707.507	-3.77
707.534	-14.77
707.562	-14.77
707.59	-4.77
707.617	-16.77
707.645	2.23
707.672	5.23
707.7	-6.77
707.728	15.23
707.755	-1.77
707.783	7.23
707.811	10.23
707.838	-3.77
707.866	-1.77
707.893	-11.77
707.921	-9.77
707.949	-8.77
707.976	9.23
708.004	2.23
708.031	4.23
708.059	-8.77
708.087	-10.77
708.114	7.23
708.142	-2.77
708.169	2.23
708.197	-8.77
708.225	-6.77
708.252	-13.77
708.28	-3.77
708.307	-1.77
708.335	-9.77
708.362	-3.77
708.39	-4.77
708.418	2.23
708.445	-8.77
708.473	-21.77
708.5	-15.77
708.528	0.23
708.555	4.23
708.583	-3.77
708.61	-5.77
708.638	6.23
708.665	-12.77
708.693	8.23
708.72	-12.77
708.748	-1.77
708.776	3.23
708.803	8.23
708.831	-9.77
708.858	9.23
708.886	-4.77
708.913	11.23
708.941	-8.77
708.968	9.23
708.996	-7.77
709.023	16.23
709.051	-1.77
709.078	-21.77
709.105	-4.77
709.133	1.23
709.16	2.23
709.188	8.23
709.215	19.23
709.243	1.23
709.27	6.23
709.298	0.23
709.325	-11.77
709.353	5.23
709.38	4.23
709.408	19.23
709.435	-7.77
709.462	-10.77
709.49	-7.77
709.517	-9.77
709.545	-6.77
709.572	4.23
709.6	-3.77
709.627	-11.77
709.655	-17.77
709.682	-9.77
709.709	-4.77
709.737	-14.77
709.764	-2.77
709.792	8.23
709.819	-1.77
709.846	-5.77
709.874	-13.77
709.901	15.23
709.929	20.23
709.956	2.23
709.983	-5.77
710.011	-12.77
710.038	-13.77
710.066	-1.77
710.093	3.23
710.12	5.23
710.148	-4.77
710.175	8.23
710.202	12.23
710.23	-0.77
710.257	-2.77
710.284	1.23
710.312	-0.77
710.339	-5.77
710.366	-4.77
710.394	-12.77
710.421	-12.77
710.448	-14.77
710.476	-17.77
710.503	0.23
710.53	7.23
710.558	6.23
710.585	6.23
710.612	-7.77
710.64	-12.77
710.667	3.23
710.694	-6.77
710.722	1.23
710.749	-4.77
710.776	16.23
710.804	27.23
710.831	3.23
710.858	-8.77
710.885	-3.77
710.913	-7.77
710.94	24.23
710.967	8.23
710.995	2.23
711.022	-0.77
711.049	9.23
711.076	-32.77
711.104	-0.77
711.131	-25.77
711.158	6.23
711.185	8.23
711.213	-7.77
711.24	-5.77
711.267	-6.77
711.294	1.23
711.322	23.23
711.349	-14.77
711.376	6.23
711.403	19.23
711.431	-6.77
711.458	-24.77
711.485	-12.77
711.512	10.23
711.54	0.23
711.567	-13.77
711.594	-8.77
711.621	5.23
711.648	15.23
711.676	9.23
711.703	9.23
711.73	-8.77
711.757	1.23
711.784	-2.77
711.812	-5.77
711.839	2.23
711.866	-12.77
711.893	-15.77
711.92	-8.77
711.947	7.23
711.975	0.23
712.002	0.23
712.029	4.23
712.056	9.23
712.083	8.23
712.11	-11.77
712.138	-1.77
712.165	-4.77
712.192	-3.77
712.219	-7.77
712.246	2.23
712.273	-25.77
712.3	-13.77
712.328	2.23
712.355	-11.77
712.382	-14.77
712.409	17.23
712.436	-14.77
712.463	11.23
712.49	8.23
712.517	-7.77
712.544	2.23
712.572	4.23
712.599	-13.77
712.626	-6.77
712.653	-15.77
712.68	-13.77
712.707	-3.77
712.734	6.23
712.761	-8.77
712.788	3.23
712.815	5.23
712.842	19.23
712.87	5.23
712.897	-3.77
712.924	-17.77
712.951	10.23
712.978	9.23
713.005	22.23
713.032	10.23
713.059	-6.77
713.086	-12.77
713.113	-6.77
713.14	-12.77
713.167	-6.77
713.194	4.23
713.221	-5.77
713.248	10.23
713.275	-4.77
713.302	-8.77
713.329	3.23
713.356	4.23
713.383	0.23
713.41	4.23
713.437	-13.77
713.464	6.23
713.491	1.23
713.518	9.23
713.545	0.23
713.572	-0.77
713.599	18.23
713.626	12.23
713.653	-9.77
713.68	-8.77
713.707	-1.77
713.734	-1.77
713.761	-0.77
713.788	-6.77
713.815	-4.77
713.842	-3.77
713.869	2.23
713.896	-6.77
713.923	7.23
713.95	-12.77
713.977	-6.77
714.004	0.23
714.031	-4.77
714.058	-1.77
714.085	-1.77
714.112	27.23
714.139	1.23
714.165	9.23
714.192	-17.77
714.219	18.23
714.246	3.23
714.273	-6.77
714.3	-10.77
714.327	2.23
714.354	12.23
714.381	-0.77
714.408	-7.77
714.435	-4.77
714.461	-2.77
714.488	21.23
714.515	-16.77
714.542	-8.77
714.569	-15.77
714.596	-23.77
714.623	8.23
714.65	-6.77
714.677	-8.77
714.703	-8.77
714.73	14.23
714.757	3.23
714.784	-0.77
714.811	-8.77
714.838	-14.77
714.865	-1.77
714.891	-3.77
714.918	-2.77
714.945	2.23
714.972	-8.77
714.999	3.23
715.026	0.23
715.052	-7.77
715.079	4.23
715.106	12.23
715.133	2.23
715.16	-7.77
715.187	4.23
715.213	4.23
715.24	-7.77
715.267	-5.77
715.294	-12.77
715.321	-2.77
715.347	-9.77
715.374	-6.77
715.401	1.23
715.428	-7.77
715.455	-10.77
715.481	-12.77
715.508	4.23
715.535	-8.77
715.562	25.23
715.588	2.23
715.615	-6.77
715.642	-4.77
715.669	1.23
715.695	-10.77
715.722	-3.77
715.749	14.23
715.776	6.23
715.802	-1.77
715.829	17.23
715.856	-7.77
715.883	-0.77
715.909	-4.77
715.936	7.23
715.963	0.23
715.99	-6.77
716.016	3.23
716.043	-5.77
716.07	-11.77
716.096	-11.77
716.123	2.23
716.15	0.23
716.177	4.23
716.203	10.23
716.23	26.23
716.257	-3.77
716.283	7.23
716.31	0.23
716.337	-0.77
716.363	9.23
716.39	-7.77
716.417	1.23
716.443	0.23
716.47	6.23
716.497	4.23
716.523	15.23
716.55	9.23
716.577	15.23
716.603	-8.77
716.63	-1.77
716.657	0.23
716.683	-11.77
716.71	3.23
716.737	3.23
716.763	15.23
716.79	5.23
716.817	3.23
716.843	16.23
716.87	9.23
716.897	-2.77
716.923	6.23
716.95	0.23
716.976	-0.77
717.003	-8.77
717.03	3.23
717.056	3.23
717.083	1.23
717.109	13.23
717.136	-4.77
717.163	-5.77
717.189	-11.77
717.216	-9.77
717.242	-19.77
717.269	2.23
717.296	-5.77
717.322	-3.77
717.349	11.23
717.375	2.23
717.402	-4.77
717.428	7.23
717.455	0.23
717.481	-1.77
717.508	23.23
717.535	-25.77
717.561	4.23
717.588	-5.77
717.614	-0.77
717.641	8.23
717.667	10.23
717.694	10.23
717.72	2.23
717.747	5.23
717.773	-11.77
717.8	6.23
717.826	8.23
717.853	-7.77
717.88	17.23
717.906	1.23
717.933	8.23
717.959	-0.77
717.986	-1.77
718.012	-11.77
718.039	7.23
718.065	5.23
718.092	5.23
718.118	-12.77
718.144	-3.77
718.171	22.23
718.197	23.23
718.224	-1.77
718.25	-3.77
718.277	-7.77
718.303	8.23
718.33	6.23
718.356	-8.77
718.383	-13.77
718.409	0.23
718.436	-4.77
718.462	3.23
718.489	1.23
718.515	11.23
718.541	8.23
718.568	14.23
718.594	7.23
718.621	5.23
718.647	7.23
718.674	3.23
718.7	10.23
718.726	0.23
718.753	0.23
718.779	8.23
718.806	-11.77
718.832	-16.77
718.858	-2.77
718.885	-7.77
718.911	-2.77
718.938	3.23
718.964	-11.77
718.99	7.23
719.017	5.23
719.043	3.23
719.07	-1.77
719.096	-16.77
719.122	8.23
719.149	0.23
719.175	3.23
719.201	6.23
719.228	-10.77
719.254	8.23
719.281	-14.77
719.307	9.23
719.333	6.23
719.36	8.23
719.386	-9.77
719.412	2.23
719.439	-16.77
719.465	0.23
719.491	-14.77
719.518	8.23
719.544	2.23
719.57	2.23
719.597	4.23
719.623	-0.77
719.649	1.23
719.675	-8.77
719.702	-7.77
719.728	16.23
719.754	-1.77
719.781	-15.77
719.807	-6.77
719.833	-1.77
719.86	3.23
719.886	-1.77
719.912	-12.77
719.938	-6.77
719.965	11.23
719.991	12.23
720.017	3.23
720.044	7.23
720.07	3.23
720.096	5.23
720.122	0.23
720.149	22.23
720.175	18.23
720.201	7.23
720.227	0.23
720.254	1.23
720.28	-1.77
720.306	2.23
720.332	13.23
720.359	23.23
720.385	25.23
720.411	10.23
720.437	-1.77
720.463	1.23
720.49	14.23
720.516	3.23
720.542	-8.77
720.568	1.23
720.595	17.23
720.621	12.23
720.647	0.23
720.673	8.23
720.699	15.23
720.725	13.23
720.752	1.23
720.778	-10.77
720.804	13.23
720.83	1.23
720.856	-4.77
720.883	-5.77
720.909	2.23
720.935	-6.77
720.961	15.23
720.987	7.23
721.013	4.23
721.04	0.23
721.066	-1.77
721.092	-3.77
721.118	1.23
721.144	-6.77
721.17	-7.77
721.196	4.23
721.223	-4.77
721.249	-1.77
721.275	17.23
721.301	-3.77
721.327	13.23
721.353	17.23
721.379	16.23
721.405	9.23
721.432	7.23
721.458	-1.77
721.484	8.23
721.51	-12.77
721.536	-6.77
721.562	-4.77
721.588	-19.77
721.614	2.23
721.64	2.23
721.666	-3.77
721.693	-3.77
721.719	-6.77
721.745	-15.77
721.771	-8.77
721.797	-5.77
721.823	2.23
721.849	8.23
721.875	-5.77
721.901	-6.77
721.927	10.23
721.953	0.23
721.979	12.23
722.005	14.23
722.031	-11.77
722.057	-6.77
722.083	-2.77
722.109	-2.77
722.135	9.23
722.161	0.23
722.187	-3.77
722.214	7.23
722.24	-1.77
722.266	2.23
722.292	16.23
722.318	9.23
722.344	-4.77
722.37	-4.77
722.396	10.23
722.422	-1.77
722.448	-3.77
722.474	0.23
722.5	11.23
722.526	1.23
722.552	4.23
722.578	2.23
722.603	4.23
722.629	-5.77
722.655	6.23
722.681	-4.77
722.707	-1.77
722.733	-0.77
722.759	5.23
722.785	1.23
722.811	8.23
722.837	-5.77
722.863	11.23
722.889	11.23
722.915	-12.77
722.941	-7.77
722.967	8.23
722.993	3.23
723.019	-3.77
723.045	-9.77
723.071	4.23
723.097	12.23
723.122	-4.77
723.148	-1.77
723.174	-3.77
723.2	9.23
723.226	-1.77
723.252	-6.77
723.278	-4.77
723.304	6.23
723.33	8.23
723.356	-4.77
723.381	-0.77
723.407	-10.77
723.433	1.23
723.459	4.23
723.485	-12.77
723.511	3.23
723.537	1.23
723.563	-1.77
723.588	-0.77
723.614	12.23
723.64	-3.77
723.666	-0.77
723.692	1.23
723.718	23.23
723.744	8.23
723.769	4.23
723.795	-7.77
723.821	8.23
723.847	-4.77
723.873	-1.77
723.899	-3.77
723.924	0.23
723.95	2.23
723.976	-6.77
724.002	5.23
724.028	10.23
724.053	-8.77
724.079	-8.77
724.105	-10.77
724.131	0.23
724.157	-0.77
724.182	13.23
724.208	-4.77
724.234	-3.77
724.26	-4.77
724.286	-1.77
724.311	2.23
724.337	-12.77
724.363	3.23
724.389	6.23
724.415	2.23
724.44	6.23
724.466	13.23
724.492	7.23
724.518	0.23
724.543	15.23
724.569	-1.77
724.595	3.23
724.621	-3.77
724.646	-7.77
724.672	-18.77
724.698	-3.77
724.723	13.23
724.749	2.23
724.775	14.23
724.801	6.23
724.826	-6.77
724.852	-21.77
724.878	3.23
724.904	-3.77
724.929	7.23
724.955	-12.77
724.981	15.23
725.006	-13.77
725.032	-9.77
725.058	0.23
725.083	-2.77
725.109	-4.77
725.135	-2.77
725.161	2.23
725.186	-21.77
725.212	-14.77
725.238	10.23
725.263	2.23
725.289	-4.77
725.315	-6.77
725.34	-1.77
725.366	-0.77
725.392	12.23
725.417	-3.77
725.443	-7.77
725.468	2.23
725.494	11.23
725.52	11.23
725.545	0.23
725.571	0.23
725.597	-0.77
725.622	-2.77
725.648	-10.77
725.674	7.23
725.699	-9.77
725.725	-9.77
725.75	26.23
725.776	-3.77
725.802	1.23
725.827	3.23
725.853	-0.77
725.878	-10.77
725.904	-1.77
725.93	8.23
725.955	-8.77
725.981	-5.77
726.006	-4.77
726.032	7.23
726.057	-3.77
726.083	7.23
726.109	-0.77
726.134	9.23
726.16	-3.77
726.185	-1.77
726.211	-9.77
726.236	13.23
726.262	-4.77
726.288	-5.77
726.313	3.23
726.339	7.23
726.364	-8.77
726.39	10.23
726.415	-11.77
726.441	-13.77
726.466	-1.77
726.492	6.23
726.517	16.23
726.543	-4.77
726.568	-17.77
726.594	-7.77
726.619	3.23
726.645	4.23
726.67	10.23
726.696	6.23
726.721	-10.77
726.747	-6.77
726.772	12.23
726.798	-4.77
726.823	2.23
726.849	-8.77
726.874	8.23
726.9	26.23
726.925	14.23
726.951	-7.77
726.976	2.23
727.002	9.23
727.027	12.23
727.053	7.23
727.078	-5.77
727.104	7.23
727.129	-13.77
727.155	6.23
727.18	11.23
727.205	7.23
727.231	-12.77
727.256	5.23
727.282	-4.77
727.307	15.23
727.333	10.23
727.358	-3.77
727.383	2.23
727.409	-19.77
727.434	-2.77
727.46	9.23
727.485	4.23
727.511	2.23
727.536	-11.77
727.561	-3.77
727.587	-20.77
727.612	-22.77
727.637	2.23
727.663	1.23
727.688	2.23
727.714	-1.77
727.739	-7.77
727.764	-12.77
727.79	2.23
727.815	-18.77
727.841	1.23
727.866	3.23
727.891	-2.77
727.917	-6.77
727.942	-13.77
727.967	-6.77
727.993	-9.77
728.018	3.23
728.043	-11.77
728.069	1.23
728.094	14.23
728.119	-8.77
728.145	4.23
728.17	-8.77
728.195	10.23
728.221	12.23
728.246	7.23
728.271	-12.77
728.297	-1.77
728.322	14.23
728.347	14.23
728.373	7.23
728.398	5.23
728.423	-1.77
728.448	8.23
728.474	-8.77
728.499	-3.77
728.524	-1.77
728.55	-1.77
728.575	6.23
728.6	9.23
728.625	2.23
728.651	12.23
728.676	9.23
728.701	12.23
728.727	2.23
728.752	3.23
728.777	1.23
728.802	1.23
728.828	3.23
728.853	4.23
728.878	-3.77
728.903	-5.77
728.929	-18.77
728.954	-3.77
728.979	8.23
729.004	-5.77
729.03	-20.77
729.055	7.23
729.08	-10.77
729.105	-6.77
729.13	12.23
729.156	17.23
729.181	13.23
729.206	-22.77
729.231	-0.77
729.256	11.23
729.282	-5.77
729.307	-15.77
729.332	-1.77
729.357	-4.77
729.382	-11.77
729.408	-2.77
729.433	-0.77
729.458	15.23
729.483	0.23
729.508	23.23
729.533	8.23
729.559	-1.77
729.584	-6.77
729.609	5.23
729.634	15.23
729.659	-4.77
729.684	-8.77
729.71	12.23
729.735	6.23
729.76	1.23
729.785	15.23
729.81	8.23
729.835	-9.77
729.86	6.23
729.886	-1.77
729.911	4.23
729.936	-8.77
729.961	-4.77
729.986	-4.77
730.011	-8.77
730.036	7.23
730.061	-15.77
730.086	-1.77
730.112	3.23
730.137	20.23
730.162	-6.77
730.187	-3.77
730.212	4.23
730.237	-19.77
730.262	0.23
730.287	-12.77
730.312	-4.77
730.337	-5.77
730.362	9.23
730.387	7.23
730.413	-12.77
730.438	-20.77
730.463	-0.77
730.488	-5.77
730.513	-6.77
730.538	-8.77
730.563	8.23
730.588	14.23
730.613	10.23
730.638	-3.77
730.663	-4.77
730.688	5.23
730.713	1.23
730.738	-8.77
730.763	2.23
730.788	-12.77
730.813	-1.77
730.838	-9.77
730.863	-9.77
730.888	-4.77
730.913	-11.77
730.938	-4.77
730.963	-7.77
730.988	3.23
731.013	4.23
731.038	-6.77
731.063	-12.77
731.088	-0.77
731.113	-11.77
731.138	-8.77
731.163	-4.77
731.188	-5.77
731.213	6.23
731.238	4.23
731.263	0.23
731.288	-13.77
731.313	-3.77
731.338	6.23
731.363	-5.77
731.388	-8.77
731.413	-5.77
731.438	6.23
731.463	0.23
731.487	2.23
731.512	-1.77
731.537	-5.77
731.562	-8.77
731.587	0.23
731.612	-6.77
731.637	-9.77
731.662	0.23
731.687	-12.77
731.712	-19.77
731.737	-9.77
731.762	18.23
731.786	3.23
731.811	-2.77
731.836	-6.77
731.861	-12.77
731.886	-4.77
731.911	5.23
731.936	2.23
731.961	-0.77
731.986	-0.77
732.01	-0.77
732.035	-2.77
732.06	24.23
732.085	3.23
732.11	6.23
732.135	-20.77
732.16	0.23
732.184	-3.77
732.209	-8.77
732.234	14.23
732.259	0.23
732.284	5.23
732.309	1.23
732.334	-11.77
732.358	-25.77
732.383	-20.77
732.408	-12.77
732.433	0.23
732.458	15.23
732.482	-4.77
732.507	6.23
732.532	5.23
732.557	11.23
732.582	8.23
732.607	4.23
732.631	0.23
732.656	12.23
732.681	-7.77
732.706	-1.77
732.73	-9.77
732.755	-11.77
732.78	0.23
732.805	2.23
732.83	-2.77
732.854	-10.77
732.879	3.23
732.904	1.23
732.929	0.23
732.953	10.23
732.978	3.23
733.003	2.23
733.028	0.23
733.052	16.23
733.077	1.23
733.102	23.23
733.127	-5.77
733.151	0.23
733.176	3.23
733.201	-12.77
733.226	-1.77
733.25	-6.77
733.275	-9.77
733.3	-7.77
733.324	17.23
733.349	9.23
733.374	7.23
733.399	6.23
733.423	-6.77
733.448	-5.77
733.473	-0.77
733.497	15.23
733.522	-8.77
733.547	0.23
733.571	6.23
733.596	-2.77
733.621	17.23
733.646	1.23
733.67	-5.77
733.695	-19.77
733.72	-1.77
733.744	-5.77
733.769	-12.77
733.794	9.23
733.818	-4.77
733.843	-3.77
733.867	2.23
733.892	-9.77
733.917	-6.77
733.941	-11.77
733.966	-13.77
733.991	-4.77
734.015	10.23
734.04	1.23
734.065	-0.77
734.089	8.23
734.114	-10.77
734.138	-0.77
734.163	0.23
734.188	2.23
734.212	9.23
734.237	-1.77
734.261	-1.77
734.286	6.23
734.311	2.23
734.335	22.23
734.36	-6.77
734.384	2.23
734.409	7.23
734.434	-7.77
734.458	-0.77
734.483	-3.77
734.507	3.23
734.532	13.23
734.556	-7.77
734.581	-11.77
734.606	-4.77
734.63	-12.77
734.655	-3.77
734.679	-6.77
734.704	-10.77
734.728	3.23
734.753	-4.77
734.777	-4.77
734.802	-7.77
734.826	16.23
734.851	4.23
734.876	14.23
734.9	2.23
734.925	-2.77
734.949	-2.77
734.974	3.23
734.998	11.23
735.023	-22.77
735.047	-11.77
735.072	11.23
735.096	3.23
735.121	-10.77
735.145	-3.77
735.17	-10.77
735.194	14.23
735.219	8.23
735.243	-0.77
735.268	7.23
735.292	-8.77
735.317	3.23
735.341	9.23
735.365	-17.77
735.39	4.23
735.414	2.23
735.439	1.23
735.463	1.23
735.488	10.23
735.512	-7.77
735.537	-10.77
735.561	-1.77
735.586	-9.77
735.61	14.23
735.634	-0.77
735.659	-3.77
735.683	11.23
735.708	-14.77
735.732	-0.77
735.757	4.23
735.781	-4.77
735.805	-5.77
735.83	-13.77
735.854	-3.77
735.879	-9.77
735.903	2.23
735.927	-3.77
735.952	0.23
735.976	-3.77
736.001	3.23
736.025	4.23
736.049	9.23
736.074	1.23
736.098	-0.77
736.123	-1.77
736.147	0.23
736.171	7.23
736.196	0.23
736.22	-23.77
736.244	-8.77
736.269	7.23
736.293	0.23
736.317	-8.77
736.342	5.23
736.366	12.23
736.39	2.23
736.415	-1.77
736.439	-1.77
736.463	14.23
736.488	11.23
736.512	3.23
736.536	16.23
736.561	32.23
736.585	-0.77
736.609	-2.77
736.634	-10.77
736.658	-9.77
736.682	-17.77
736.707	-17.77
736.731	-8.77
736.755	-7.77
736.78	21.23
736.804	24.23
736.828	-5.77
736.852	-1.77
736.877	-0.77
736.901	8.23
736.925	7.23
736.949	-0.77
736.974	-1.77
736.998	-3.77
737.022	-13.77
737.047	-13.77
737.071	-1.77
737.095	0.23
737.119	22.23
737.144	16.23
737.168	-3.77
737.192	-3.77
737.216	11.23
737.241	-8.77
737.265	4.23
737.289	-6.77
737.313	-5.77
737.337	4.23
737.362	0.23
737.386	-5.77
737.41	-7.77
737.434	3.23
737.459	4.23
737.483	7.23
737.507	6.23
737.531	6.23
737.555	4.23
737.58	4.23
737.604	-10.77
737.628	-15.77
737.652	-17.77
737.676	-6.77
737.701	-0.77
737.725	-4.77
737.749	14.23
737.773	-3.77
737.797	-10.77
737.821	3.23
737.846	7.23
737.87	15.23
737.894	0.23
737.918	-1.77
737.942	0.23
737.966	15.23
737.99	7.23
738.015	19.23
738.039	7.23
738.063	0.23
738.087	3.23
738.111	3.23
738.135	2.23
738.159	2.23
738.184	-6.77
738.208	11.23
738.232	-4.77
738.256	3.23
738.28	11.23
738.304	11.23
738.328	-0.77
738.352	-4.77
738.376	-11.77
738.4	-6.77
738.425	-9.77
738.449	-11.77
738.473	-6.77
738.497	-7.77
738.521	1.23
738.545	-8.77
738.569	11.23
738.593	-1.77
738.617	15.23
738.641	-1.77
738.665	-8.77
738.689	6.23
738.713	5.23
738.737	-11.77
738.762	5.23
738.786	14.23
738.81	-15.77
738.834	9.23
738.858	-5.77
738.882	5.23
738.906	-4.77
738.93	19.23
738.954	4.23
738.978	-2.77
739.002	0.23
739.026	6.23
739.05	1.23
739.074	-14.77
739.098	19.23
739.122	16.23
739.146	5.23
739.17	-2.77
739.194	0.23
739.218	-12.77
739.242	5.23
739.266	1.23
739.29	-3.77
739.314	-4.77
739.338	11.23
739.362	8.23
739.386	4.23
739.41	2.23
739.434	0.23
739.458	15.23
739.482	4.23
739.506	7.23
739.53	-9.77
739.554	18.23
739.577	0.23
739.601	3.23
739.625	-11.77
739.649	-15.77
739.673	-3.77
739.697	3.23
739.721	1.23
739.745	10.23
739.769	18.23
739.793	4.23
739.817	12.23
739.841	-9.77
739.865	-11.77
739.889	-7.77
739.912	-0.77
739.936	-0.77
739.96	-3.77
739.984	8.23
740.008	-9.77
740.032	-5.77
740.056	7.23
740.08	-4.77
740.104	-6.77
740.127	-0.77
740.151	0.23
740.175	13.23
740.199	1.23
740.223	37.23
740.247	6.23
740.271	13.23
740.295	4.23
740.318	-14.77
740.342	0.23
740.366	-3.77
740.39	-4.77
740.414	-2.77
740.438	-16.77
740.461	5.23
740.485	6.23
740.509	4.23
740.533	-5.77
740.557	-21.77
740.581	-7.77
740.604	-13.77
740.628	-5.77
740.652	7.23
740.676	4.23
740.7	14.23
740.723	8.23
740.747	10.23
740.771	-4.77
740.795	-8.77
740.819	11.23
740.842	3.23
740.866	-3.77
740.89	-10.77
740.914	3.23
740.938	-12.77
740.961	10.23
740.985	11.23
741.009	0.23
741.033	17.23
741.056	4.23
741.08	-7.77
741.104	-14.77
741.128	-10.77
741.151	18.23
741.175	1.23
741.199	21.23
741.223	12.23
741.246	-9.77
741.27	-0.77
741.294	9.23
741.318	-10.77
741.341	-5.77
741.365	14.23
741.389	1.23
741.413	5.23
741.436	15.23
741.46	6.23
741.484	7.23
741.507	-16.77
741.531	8.23
741.555	-0.77
741.579	4.23
741.602	-2.77
741.626	11.23
741.65	3.23
741.673	10.23
741.697	9.23
741.721	-7.77
741.744	-9.77
741.768	3.23
741.792	3.23
741.815	-3.77
741.839	9.23
741.863	10.23
741.886	8.23
741.91	7.23
741.934	-2.77
741.957	-26.77
741.981	4.23
742.005	-5.77
742.028	-13.77
742.052	-9.77
742.075	6.23
742.099	3.23
742.123	-2.77
742.146	1.23
742.17	18.23
742.194	-13.77
742.217	0.23
742.241	-1.77
742.264	3.23
742.288	19.23
742.312	9.23
742.335	3.23
742.359	7.23
742.382	10.23
742.406	20.23
742.43	-0.77
742.453	11.23
742.477	-2.77
742.5	15.23
742.524	5.23
742.548	-10.77
742.571	-5.77
742.595	-12.77
742.618	-12.77
742.642	-8.77
742.665	19.23
742.689	9.23
742.712	18.23
742.736	1.23
742.76	9.23
742.783	-3.77
742.807	2.23
742.83	3.23
742.854	-0.77
742.877	2.23
742.901	-1.77
742.924	3.23
742.948	5.23
742.971	4.23
742.995	8.23
743.018	-13.77
743.042	6.23
743.065	-10.77
743.089	-12.77
743.112	3.23
743.136	-12.77
743.159	-3.77
743.183	-17.77
743.206	-5.77
743.23	4.23
743.253	3.23
743.277	-6.77
743.3	-0.77
743.324	-2.77
743.347	-0.77
743.371	3.23
743.394	-0.77
743.418	21.23
743.441	13.23
743.465	7.23
743.488	-11.77
743.512	-6.77
743.535	11.23
743.558	-1.77
743.582	5.23
743.605	5.23
743.629	17.23
743.652	7.23
743.676	4.23
743.699	9.23
743.723	6.23
743.746	19.23
743.769	1.23
743.793	1.23
743.816	-0.77
743.84	-1.77
743.863	-5.77
743.886	-3.77
743.91	15.23
743.933	0.23
743.957	4.23
743.98	3.23
744.003	23.23
744.027	13.23
744.05	24.23
744.074	9.23
744.097	-23.77
744.12	-3.77
744.144	1.23
744.167	-6.77
744.19	1.23
744.214	-0.77
744.237	-12.77
744.26	16.23
744.284	3.23
744.307	0.23
744.331	3.23
744.354	-3.77
744.377	2.23
744.401	2.23
744.424	0.23
744.447	-5.77
744.471	-0.77
