Data from HighRes_H2_15_09_11_07_2024_HR4C61891__139__15-11-10-301.txt Node

Date: Thu Nov 07 15:11:10 EST 2024
User: crc00042
Spectrometer: HR4C6189
Trigger mode: 4
Integration Time (sec): 1.000000E-1
Scans to average: 1
Electric dark correction enabled: true
Nonlinearity correction enabled: false
Boxcar width: 0
XAxis mode: Wavelengths
Number of Pixels in Spectrum: 3648
>>>>>Begin Spectral Data<<<<<
639.567	-67.54
639.602	-67.54
639.636	-67.54
639.67	-41.54
639.704	-28.54
639.738	-11.54
639.773	11.46
639.807	-19.54
639.841	4.46
639.875	15.46
639.909	-2.54
639.943	-8.54
639.978	-4.54
640.012	9.46
640.046	12.46
640.08	6.46
640.114	0.46
640.148	-13.54
640.182	-11.54
640.217	-3.54
640.251	4.46
640.285	8.46
640.319	-12.54
640.353	2.46
640.387	6.46
640.421	-0.54
640.455	5.46
640.49	-4.54
640.524	1.46
640.558	9.46
640.592	-9.54
640.626	2.46
640.66	18.46
640.694	4.46
640.728	-1.54
640.762	11.46
640.796	16.46
640.83	11.46
640.865	-9.54
640.899	-9.54
640.933	-6.54
640.967	-16.54
641.001	0.46
641.035	-3.54
641.069	-6.54
641.103	-2.54
641.137	-3.54
641.171	0.46
641.205	-8.54
641.239	4.46
641.273	21.46
641.307	8.46
641.341	-4.54
641.375	-0.54
641.409	-12.54
641.443	1.46
641.477	-0.54
641.511	3.46
641.545	-16.54
641.579	-12.54
641.614	-0.54
641.648	4.46
641.682	-21.54
641.716	1.46
641.75	8.46
641.784	-1.54
641.818	-2.54
641.852	2.46
641.886	-5.54
641.919	19.46
641.953	-11.54
641.987	-16.54
642.021	2.46
642.055	-3.54
642.089	6.46
642.123	-15.54
642.157	-11.54
642.191	-5.54
642.225	-1.54
642.259	9.46
642.293	4.46
642.327	1.46
642.361	-5.54
642.395	8.46
642.429	4.46
642.463	6.46
642.497	26.46
642.531	15.46
642.565	-5.54
642.599	11.46
642.633	-9.54
642.666	5.46
642.7	7.46
642.734	-6.54
642.768	-9.54
642.802	3.46
642.836	11.46
642.87	3.46
642.904	9.46
642.938	7.46
642.972	-2.54
643.005	1.46
643.039	21.46
643.073	-3.54
643.107	0.46
643.141	-2.54
643.175	13.46
643.209	-5.54
643.243	21.46
643.276	8.46
643.31	-17.54
643.344	-9.54
643.378	0.46
643.412	2.46
643.446	15.46
643.48	-14.54
643.513	5.46
643.547	-0.54
643.581	-1.54
643.615	-4.54
643.649	8.46
643.683	6.46
643.716	1.46
643.75	0.46
643.784	-17.54
643.818	19.46
643.852	12.46
643.886	8.46
643.919	17.46
643.953	-1.54
643.987	-16.54
644.021	17.46
644.055	-0.54
644.088	-13.54
644.122	-4.54
644.156	-10.54
644.19	4.46
644.224	17.46
644.257	6.46
644.291	10.46
644.325	-13.54
644.359	2.46
644.392	18.46
644.426	19.46
644.46	6.46
644.494	-0.54
644.527	-14.54
644.561	3.46
644.595	3.46
644.629	1.46
644.662	8.46
644.696	23.46
644.73	6.46
644.764	6.46
644.797	-3.54
644.831	-2.54
644.865	15.46
644.899	-6.54
644.932	10.46
644.966	8.46
645	12.46
645.033	9.46
645.067	1.46
645.101	-0.54
645.135	-3.54
645.168	-7.54
645.202	-12.54
645.236	-2.54
645.269	14.46
645.303	-0.54
645.337	-16.54
645.37	2.46
645.404	6.46
645.438	5.46
645.471	-7.54
645.505	-3.54
645.539	-8.54
645.572	-7.54
645.606	-4.54
645.64	-9.54
645.673	-5.54
645.707	23.46
645.741	6.46
645.774	-13.54
645.808	10.46
645.842	2.46
645.875	25.46
645.909	-7.54
645.943	0.46
645.976	1.46
646.01	7.46
646.043	11.46
646.077	6.46
646.111	14.46
646.144	20.46
646.178	13.46
646.212	-7.54
646.245	-1.54
646.279	2.46
646.312	14.46
646.346	18.46
646.38	2.46
646.413	0.46
646.447	-7.54
646.48	-2.54
646.514	5.46
646.547	1.46
646.581	-17.54
646.615	-3.54
646.648	-12.54
646.682	6.46
646.715	-7.54
646.749	2.46
646.782	-12.54
646.816	-16.54
646.85	-0.54
646.883	12.46
646.917	8.46
646.95	-0.54
646.984	14.46
647.017	-5.54
647.051	-8.54
647.084	-12.54
647.118	-5.54
647.151	-11.54
647.185	-3.54
647.218	-9.54
647.252	-4.54
647.285	-7.54
647.319	-21.54
647.353	-4.54
647.386	-5.54
647.42	-6.54
647.453	-3.54
647.487	2.46
647.52	12.46
647.553	0.46
647.587	-9.54
647.62	-4.54
647.654	15.46
647.687	-7.54
647.721	6.46
647.754	17.46
647.788	-6.54
647.821	3.46
647.855	9.46
647.888	-0.54
647.922	5.46
647.955	9.46
647.989	-2.54
648.022	-5.54
648.055	0.46
648.089	-8.54
648.122	28.46
648.156	8.46
648.189	-1.54
648.223	-15.54
648.256	7.46
648.29	-6.54
648.323	-15.54
648.356	15.46
648.39	-1.54
648.423	8.46
648.457	-0.54
648.49	4.46
648.523	5.46
648.557	5.46
648.59	11.46
648.624	15.46
648.657	8.46
648.69	16.46
648.724	8.46
648.757	12.46
648.791	4.46
648.824	1.46
648.857	14.46
648.891	0.46
648.924	-21.54
648.957	16.46
648.991	-1.54
649.024	28.46
649.057	-8.54
649.091	-8.54
649.124	22.46
649.158	4.46
649.191	29.46
649.224	6.46
649.258	17.46
649.291	-3.54
649.324	2.46
649.358	8.46
649.391	5.46
649.424	-10.54
649.458	-1.54
649.491	-5.54
649.524	-22.54
649.557	0.46
649.591	-21.54
649.624	5.46
649.657	-19.54
649.691	8.46
649.724	12.46
649.757	-1.54
649.791	-1.54
649.824	3.46
649.857	13.46
649.89	1.46
649.924	8.46
649.957	5.46
649.99	-4.54
650.023	-6.54
650.057	9.46
650.09	3.46
650.123	5.46
650.157	11.46
650.19	26.46
650.223	-0.54
650.256	-10.54
650.29	-11.54
650.323	-8.54
650.356	-1.54
650.389	-3.54
650.423	-10.54
650.456	2.46
650.489	1.46
650.522	-12.54
650.555	11.46
650.589	11.46
650.622	-0.54
650.655	2.46
650.688	5.46
650.721	5.46
650.755	2.46
650.788	0.46
650.821	2.46
650.854	5.46
650.887	-5.54
650.921	8.46
650.954	0.46
650.987	-9.54
651.02	-0.54
651.053	-12.54
651.087	-1.54
651.12	19.46
651.153	13.46
651.186	-8.54
651.219	-16.54
651.252	12.46
651.286	14.46
651.319	7.46
651.352	3.46
651.385	0.46
651.418	0.46
651.451	21.46
651.484	2.46
651.518	-17.54
651.551	22.46
651.584	4.46
651.617	0.46
651.65	5.46
651.683	2.46
651.716	-5.54
651.749	7.46
651.783	4.46
651.816	-13.54
651.849	10.46
651.882	14.46
651.915	4.46
651.948	0.46
651.981	9.46
652.014	-10.54
652.047	-4.54
652.08	-12.54
652.114	6.46
652.147	6.46
652.18	6.46
652.213	10.46
652.246	12.46
652.279	4.46
652.312	15.46
652.345	4.46
652.378	7.46
652.411	9.46
652.444	5.46
652.477	2.46
652.51	2.46
652.543	-17.54
652.576	0.46
652.609	-1.54
652.642	-5.54
652.675	8.46
652.709	-4.54
652.742	11.46
652.775	0.46
652.808	3.46
652.841	-5.54
652.874	-8.54
652.907	-2.54
652.94	-6.54
652.973	-4.54
653.006	-9.54
653.039	15.46
653.072	6.46
653.105	-10.54
653.138	-15.54
653.171	-5.54
653.204	10.46
653.237	10.46
653.27	6.46
653.303	7.46
653.336	-0.54
653.368	3.46
653.401	-7.54
653.434	-9.54
653.467	13.46
653.5	-5.54
653.533	-22.54
653.566	-2.54
653.599	1.46
653.632	9.46
653.665	0.46
653.698	-1.54
653.731	-22.54
653.764	6.46
653.797	2.46
653.83	8.46
653.863	2.46
653.896	-24.54
653.929	-3.54
653.961	17.46
653.994	-19.54
654.027	-10.54
654.06	6.46
654.093	9.46
654.126	10.46
654.159	3.46
654.192	-11.54
654.225	1.46
654.258	9.46
654.29	12.46
654.323	10.46
654.356	13.46
654.389	-14.54
654.422	-7.54
654.455	-7.54
654.488	5.46
654.521	-12.54
654.553	-10.54
654.586	11.46
654.619	2.46
654.652	3.46
654.685	3.46
654.718	3.46
654.751	-7.54
654.783	-1.54
654.816	12.46
654.849	8.46
654.882	-10.54
654.915	0.46
654.948	-4.54
654.98	-13.54
655.013	9.46
655.046	0.46
655.079	3.46
655.112	7.46
655.144	1.46
655.177	7.46
655.21	17.46
655.243	15.46
655.276	19.46
655.308	11.46
655.341	8.46
655.374	-3.54
655.407	1.46
655.44	0.46
655.472	-1.54
655.505	4.46
655.538	1.46
655.571	6.46
655.603	15.46
655.636	9.46
655.669	17.46
655.702	11.46
655.734	2.46
655.767	7.46
655.8	5.46
655.833	17.46
655.865	33.46
655.898	26.46
655.931	31.46
655.964	43.46
655.996	58.46
656.029	55.46
656.062	41.46
656.095	61.46
656.127	70.46
656.16	107.46
656.193	125.46
656.225	186.46
656.258	278.46
656.291	485.46
656.324	1111.46
656.356	3427.46
656.389	7630.46
656.422	6084.46
656.454	2089.46
656.487	659.46
656.52	259.46
656.552	123.46
656.585	80.46
656.618	58.46
656.65	43.46
656.683	24.46
656.716	2.46
656.748	-0.54
656.781	1.46
656.814	-5.54
656.846	5.46
656.879	-10.54
656.912	1.46
656.944	-33.54
656.977	-13.54
657.01	-9.54
657.042	-23.54
657.075	-2.54
657.108	-3.54
657.14	5.46
657.173	18.46
657.205	46.46
657.238	14.46
657.271	1.46
657.303	-8.54
657.336	4.46
657.369	-3.54
657.401	-8.54
657.434	3.46
657.466	23.46
657.499	8.46
657.532	-11.54
657.564	6.46
657.597	3.46
657.629	6.46
657.662	-2.54
657.694	3.46
657.727	-4.54
657.76	12.46
657.792	-0.54
657.825	0.46
657.857	-3.54
657.89	-10.54
657.922	10.46
657.955	-3.54
657.987	1.46
658.02	14.46
658.053	10.46
658.085	9.46
658.118	19.46
658.15	6.46
658.183	15.46
658.215	-3.54
658.248	-2.54
658.28	-4.54
658.313	10.46
658.345	-6.54
658.378	2.46
658.41	-5.54
658.443	-0.54
658.475	1.46
658.508	-9.54
658.54	2.46
658.573	-4.54
658.605	-6.54
658.638	-1.54
658.67	-1.54
658.703	8.46
658.735	-12.54
658.768	5.46
658.8	-13.54
658.833	23.46
658.865	9.46
658.898	-0.54
658.93	-9.54
658.963	9.46
658.995	-3.54
659.028	-0.54
659.06	6.46
659.092	6.46
659.125	-6.54
659.157	1.46
659.19	-0.54
659.222	-8.54
659.255	3.46
659.287	-2.54
659.32	-6.54
659.352	-7.54
659.384	17.46
659.417	-7.54
659.449	2.46
659.482	13.46
659.514	-1.54
659.546	2.46
659.579	-5.54
659.611	-3.54
659.644	-0.54
659.676	-15.54
659.708	-23.54
659.741	-4.54
659.773	5.46
659.806	-12.54
659.838	3.46
659.87	-5.54
659.903	-32.54
659.935	10.46
659.967	18.46
660	11.46
660.032	-14.54
660.065	7.46
660.097	-10.54
660.129	-4.54
660.162	-21.54
660.194	-3.54
660.226	2.46
660.259	2.46
660.291	-13.54
660.323	3.46
660.356	-1.54
660.388	-12.54
660.42	7.46
660.453	2.46
660.485	11.46
660.517	23.46
660.55	7.46
660.582	-9.54
660.614	-1.54
660.647	3.46
660.679	-8.54
660.711	-6.54
660.743	-15.54
660.776	-5.54
660.808	2.46
660.84	1.46
660.873	-8.54
660.905	5.46
660.937	-0.54
660.969	5.46
661.002	-1.54
661.034	20.46
661.066	-12.54
661.099	1.46
661.131	-4.54
661.163	-2.54
661.195	2.46
661.228	11.46
661.26	-8.54
661.292	-6.54
661.324	2.46
661.357	-3.54
661.389	-2.54
661.421	1.46
661.453	10.46
661.485	0.46
661.518	2.46
661.55	-8.54
661.582	-19.54
661.614	-3.54
661.647	2.46
661.679	-1.54
661.711	3.46
661.743	8.46
661.775	-4.54
661.808	21.46
661.84	2.46
661.872	-3.54
661.904	-1.54
661.936	12.46
661.969	-11.54
662.001	-11.54
662.033	-4.54
662.065	-0.54
662.097	5.46
662.129	-0.54
662.162	-12.54
662.194	0.46
662.226	4.46
662.258	9.46
662.29	8.46
662.322	-13.54
662.355	-11.54
662.387	22.46
662.419	1.46
662.451	5.46
662.483	9.46
662.515	-5.54
662.547	-0.54
662.58	-10.54
662.612	-8.54
662.644	-6.54
662.676	16.46
662.708	15.46
662.74	14.46
662.772	9.46
662.804	-5.54
662.836	5.46
662.869	-10.54
662.901	10.46
662.933	-2.54
662.965	10.46
662.997	2.46
663.029	-23.54
663.061	0.46
663.093	-3.54
663.125	4.46
663.157	12.46
663.189	-7.54
663.221	10.46
663.254	1.46
663.286	10.46
663.318	-16.54
663.35	-17.54
663.382	-9.54
663.414	17.46
663.446	6.46
663.478	-0.54
663.51	30.46
663.542	-20.54
663.574	-4.54
663.606	0.46
663.638	-25.54
663.67	-9.54
663.702	-9.54
663.734	-4.54
663.766	-2.54
663.798	0.46
663.83	-13.54
663.862	-0.54
663.894	8.46
663.926	2.46
663.958	11.46
663.99	-0.54
664.022	-3.54
664.054	3.46
664.086	-4.54
664.118	-10.54
664.15	-10.54
664.182	1.46
664.214	-4.54
664.246	2.46
664.278	-5.54
664.31	8.46
664.342	7.46
664.374	-5.54
664.406	-10.54
664.438	-3.54
664.47	11.46
664.502	-13.54
664.534	-3.54
664.566	-15.54
664.598	16.46
664.63	-13.54
664.662	-9.54
664.693	-12.54
664.725	0.46
664.757	-15.54
664.789	-15.54
664.821	-5.54
664.853	10.46
664.885	-4.54
664.917	-6.54
664.949	10.46
664.981	9.46
665.013	-0.54
665.045	-4.54
665.076	-2.54
665.108	2.46
665.14	0.46
665.172	6.46
665.204	2.46
665.236	-9.54
665.268	4.46
665.3	-4.54
665.331	3.46
665.363	-5.54
665.395	-0.54
665.427	-3.54
665.459	8.46
665.491	14.46
665.523	6.46
665.555	-1.54
665.586	0.46
665.618	-12.54
665.65	-11.54
665.682	9.46
665.714	0.46
665.746	-15.54
665.777	-2.54
665.809	-5.54
665.841	-15.54
665.873	-16.54
665.905	-0.54
665.937	7.46
665.968	6.46
666	-9.54
666.032	-6.54
666.064	5.46
666.096	17.46
666.127	12.46
666.159	10.46
666.191	8.46
666.223	0.46
666.255	3.46
666.286	-0.54
666.318	1.46
666.35	16.46
666.382	-0.54
666.413	-14.54
666.445	-0.54
666.477	-3.54
666.509	-3.54
666.54	-0.54
666.572	15.46
666.604	-3.54
666.636	-3.54
666.667	16.46
666.699	12.46
666.731	4.46
666.763	9.46
666.794	0.46
666.826	9.46
666.858	-30.54
666.89	6.46
666.921	10.46
666.953	4.46
666.985	18.46
667.017	8.46
667.048	16.46
667.08	-7.54
667.112	-13.54
667.143	-16.54
667.175	2.46
667.207	4.46
667.238	10.46
667.27	22.46
667.302	19.46
667.334	10.46
667.365	10.46
667.397	-0.54
667.429	2.46
667.46	15.46
667.492	14.46
667.524	-17.54
667.555	-5.54
667.587	-8.54
667.619	1.46
667.65	3.46
667.682	11.46
667.714	2.46
667.745	0.46
667.777	5.46
667.808	1.46
667.84	-7.54
667.872	-10.54
667.903	22.46
667.935	-12.54
667.967	-13.54
667.998	-9.54
668.03	-2.54
668.061	6.46
668.093	-1.54
668.125	14.46
668.156	8.46
668.188	-22.54
668.22	-4.54
668.251	-1.54
668.283	11.46
668.314	15.46
668.346	-11.54
668.377	15.46
668.409	6.46
668.441	3.46
668.472	14.46
668.504	16.46
668.535	7.46
668.567	15.46
668.599	-2.54
668.63	-2.54
668.662	-8.54
668.693	22.46
668.725	6.46
668.756	11.46
668.788	10.46
668.819	-12.54
668.851	9.46
668.882	4.46
668.914	1.46
668.946	-1.54
668.977	-8.54
669.009	-9.54
669.04	-21.54
669.072	0.46
669.103	8.46
669.135	-19.54
669.166	2.46
669.198	2.46
669.229	2.46
669.261	5.46
669.292	-0.54
669.324	24.46
669.355	8.46
669.387	-11.54
669.418	4.46
669.45	-17.54
669.481	12.46
669.513	5.46
669.544	11.46
669.576	9.46
669.607	22.46
669.639	-5.54
669.67	-2.54
669.701	21.46
669.733	-9.54
669.764	-6.54
669.796	10.46
669.827	0.46
669.859	0.46
669.89	4.46
669.922	4.46
669.953	10.46
669.985	2.46
670.016	7.46
670.047	2.46
670.079	-5.54
670.11	6.46
670.142	22.46
670.173	14.46
670.204	-3.54
670.236	-18.54
670.267	-24.54
670.299	-6.54
670.33	9.46
670.362	9.46
670.393	-3.54
670.424	4.46
670.456	-26.54
670.487	-5.54
670.518	3.46
670.55	-0.54
670.581	-11.54
670.613	5.46
670.644	-0.54
670.675	-16.54
670.707	-11.54
670.738	-12.54
670.769	-11.54
670.801	10.46
670.832	5.46
670.864	-23.54
670.895	-9.54
670.926	7.46
670.958	-1.54
670.989	-8.54
671.02	-2.54
671.052	-3.54
671.083	6.46
671.114	10.46
671.146	-0.54
671.177	-3.54
671.208	-7.54
671.24	-15.54
671.271	-15.54
671.302	-6.54
671.333	-9.54
671.365	-17.54
671.396	-14.54
671.427	4.46
671.459	7.46
671.49	9.46
671.521	3.46
671.553	1.46
671.584	16.46
671.615	5.46
671.646	3.46
671.678	10.46
671.709	-0.54
671.74	-12.54
671.771	-20.54
671.803	-20.54
671.834	-20.54
671.865	-4.54
671.896	-0.54
671.928	-1.54
671.959	-8.54
671.99	3.46
672.021	4.46
672.053	-16.54
672.084	13.46
672.115	5.46
672.146	-18.54
672.178	-24.54
672.209	-1.54
672.24	11.46
672.271	19.46
672.303	-0.54
672.334	-1.54
672.365	3.46
672.396	-12.54
672.427	3.46
672.459	-1.54
672.49	25.46
672.521	8.46
672.552	-9.54
672.583	-11.54
672.615	8.46
672.646	9.46
672.677	-6.54
672.708	5.46
672.739	-2.54
672.77	-6.54
672.802	-18.54
672.833	2.46
672.864	-1.54
672.895	-2.54
672.926	-3.54
672.957	-2.54
672.989	2.46
673.02	6.46
673.051	-0.54
673.082	-4.54
673.113	7.46
673.144	7.46
673.175	6.46
673.206	-4.54
673.238	1.46
673.269	-15.54
673.3	-19.54
673.331	18.46
673.362	20.46
673.393	5.46
673.424	4.46
673.455	11.46
673.487	-5.54
673.518	17.46
673.549	-4.54
673.58	-11.54
673.611	2.46
673.642	1.46
673.673	-28.54
673.704	1.46
673.735	15.46
673.766	2.46
673.797	-7.54
673.828	-7.54
673.86	-10.54
673.891	-33.54
673.922	-3.54
673.953	3.46
673.984	7.46
674.015	7.46
674.046	-5.54
674.077	-10.54
674.108	-10.54
674.139	5.46
674.17	7.46
674.201	0.46
674.232	-12.54
674.263	-9.54
674.294	-6.54
674.325	-20.54
674.356	13.46
674.387	10.46
674.418	1.46
674.449	-15.54
674.48	-3.54
674.511	1.46
674.542	-1.54
674.573	-15.54
674.604	17.46
674.635	1.46
674.666	1.46
674.697	-5.54
674.728	-10.54
674.759	-8.54
674.79	-7.54
674.821	7.46
674.852	3.46
674.883	-11.54
674.914	-13.54
674.945	-8.54
674.976	-9.54
675.007	-13.54
675.038	-14.54
675.069	-10.54
675.1	-6.54
675.131	-15.54
675.162	-10.54
675.193	-9.54
675.224	-2.54
675.254	-0.54
675.285	2.46
675.316	14.46
675.347	-0.54
675.378	2.46
675.409	-12.54
675.44	-10.54
675.471	-6.54
675.502	-16.54
675.533	-8.54
675.564	12.46
675.595	7.46
675.625	30.46
675.656	11.46
675.687	5.46
675.718	-0.54
675.749	1.46
675.78	-3.54
675.811	2.46
675.842	-1.54
675.873	-16.54
675.903	-10.54
675.934	4.46
675.965	-12.54
675.996	-16.54
676.027	-0.54
676.058	1.46
676.089	-22.54
676.119	3.46
676.15	6.46
676.181	-2.54
676.212	-30.54
676.243	-5.54
676.274	-25.54
676.304	7.46
676.335	-10.54
676.366	-2.54
676.397	-9.54
676.428	-13.54
676.459	9.46
676.489	16.46
676.52	3.46
676.551	11.46
676.582	1.46
676.613	4.46
676.643	-12.54
676.674	-0.54
676.705	0.46
676.736	-5.54
676.767	6.46
676.797	-0.54
676.828	-15.54
676.859	-10.54
676.89	-16.54
676.92	9.46
676.951	9.46
676.982	-12.54
677.013	-5.54
677.044	2.46
677.074	0.46
677.105	-12.54
677.136	0.46
677.167	-6.54
677.197	19.46
677.228	11.46
677.259	-12.54
677.289	0.46
677.32	-6.54
677.351	7.46
677.382	0.46
677.412	0.46
677.443	17.46
677.474	-14.54
677.505	0.46
677.535	11.46
677.566	2.46
677.597	-5.54
677.627	-13.54
677.658	-9.54
677.689	-9.54
677.72	-13.54
677.75	-13.54
677.781	-5.54
677.812	5.46
677.842	0.46
677.873	6.46
677.904	-7.54
677.934	16.46
677.965	1.46
677.996	-16.54
678.026	-17.54
678.057	-4.54
678.088	-24.54
678.118	-9.54
678.149	-11.54
678.18	-6.54
678.21	2.46
678.241	3.46
678.272	10.46
678.302	-4.54
678.333	-6.54
678.363	14.46
678.394	2.46
678.425	-9.54
678.455	-0.54
678.486	2.46
678.517	-3.54
678.547	9.46
678.578	2.46
678.608	-16.54
678.639	6.46
678.67	-4.54
678.7	-22.54
678.731	-10.54
678.761	-5.54
678.792	4.46
678.823	2.46
678.853	0.46
678.884	-9.54
678.914	10.46
678.945	0.46
678.975	1.46
679.006	0.46
679.037	-2.54
679.067	8.46
679.098	-5.54
679.128	-1.54
679.159	-10.54
679.189	-7.54
679.22	-12.54
679.25	9.46
679.281	-16.54
679.312	-8.54
679.342	-25.54
679.373	20.46
679.403	-9.54
679.434	8.46
679.464	1.46
679.495	-2.54
679.525	0.46
679.556	-13.54
679.586	-2.54
679.617	-2.54
679.647	2.46
679.678	2.46
679.708	-12.54
679.739	4.46
679.769	-2.54
679.8	-16.54
679.83	15.46
679.861	2.46
679.891	-20.54
679.922	-19.54
679.952	-0.54
679.983	4.46
680.013	3.46
680.044	-18.54
680.074	24.46
680.105	2.46
680.135	-3.54
680.165	2.46
680.196	7.46
680.226	-8.54
680.257	-12.54
680.287	2.46
680.318	3.46
680.348	-11.54
680.379	14.46
680.409	11.46
680.439	-0.54
680.47	-2.54
680.5	7.46
680.531	17.46
680.561	14.46
680.592	4.46
680.622	9.46
680.652	-7.54
680.683	2.46
680.713	-17.54
680.744	-6.54
680.774	-22.54
680.804	15.46
680.835	-5.54
680.865	-10.54
680.896	19.46
680.926	9.46
680.956	2.46
680.987	0.46
681.017	-13.54
681.047	7.46
681.078	-23.54
681.108	-1.54
681.139	-1.54
681.169	-8.54
681.199	9.46
681.23	-13.54
681.26	1.46
681.29	6.46
681.321	-6.54
681.351	-10.54
681.381	-16.54
681.412	0.46
681.442	9.46
681.472	8.46
681.503	3.46
681.533	10.46
681.563	11.46
681.594	8.46
681.624	13.46
681.654	-15.54
681.685	-2.54
681.715	-0.54
681.745	3.46
681.775	6.46
681.806	7.46
681.836	-2.54
681.866	-2.54
681.897	1.46
681.927	3.46
681.957	-24.54
681.987	2.46
682.018	-17.54
682.048	-9.54
682.078	16.46
682.109	27.46
682.139	12.46
682.169	3.46
682.199	-4.54
682.23	-0.54
682.26	13.46
682.29	-1.54
682.32	-4.54
682.351	4.46
682.381	-2.54
682.411	13.46
682.441	-10.54
682.472	-17.54
682.502	7.46
682.532	1.46
682.562	-0.54
682.592	12.46
682.623	2.46
682.653	16.46
682.683	-2.54
682.713	-3.54
682.743	-2.54
682.774	-5.54
682.804	1.46
682.834	13.46
682.864	-9.54
682.894	-1.54
682.925	-15.54
682.955	4.46
682.985	-11.54
683.015	1.46
683.045	10.46
683.076	-32.54
683.106	2.46
683.136	-8.54
683.166	2.46
683.196	1.46
683.226	-6.54
683.257	-11.54
683.287	-6.54
683.317	-16.54
683.347	-16.54
683.377	-10.54
683.407	-3.54
683.437	7.46
683.468	15.46
683.498	0.46
683.528	3.46
683.558	2.46
683.588	-5.54
683.618	-11.54
683.648	-18.54
683.678	-4.54
683.708	4.46
683.739	-5.54
683.769	-3.54
683.799	12.46
683.829	-4.54
683.859	-6.54
683.889	8.46
683.919	-2.54
683.949	-11.54
683.979	-14.54
684.009	0.46
684.039	-11.54
684.07	-23.54
684.1	20.46
684.13	-0.54
684.16	17.46
684.19	-0.54
684.22	-2.54
684.25	-2.54
684.28	-9.54
684.31	28.46
684.34	9.46
684.37	-3.54
684.4	-20.54
684.43	7.46
684.46	-20.54
684.49	-14.54
684.52	12.46
684.55	1.46
684.58	-8.54
684.61	-7.54
684.64	11.46
684.67	22.46
684.7	11.46
684.73	2.46
684.76	1.46
684.79	5.46
684.82	-4.54
684.85	-0.54
684.88	26.46
684.91	10.46
684.94	-6.54
684.97	-16.54
685	2.46
685.03	0.46
685.06	-3.54
685.09	2.46
685.12	0.46
685.15	-9.54
685.18	3.46
685.21	6.46
685.24	7.46
685.27	14.46
685.3	1.46
685.33	-0.54
685.36	-30.54
685.39	-6.54
685.42	-11.54
685.45	-8.54
685.48	-4.54
685.51	-11.54
685.54	7.46
685.569	3.46
685.599	2.46
685.629	-10.54
685.659	-9.54
685.689	-7.54
685.719	-9.54
685.749	-4.54
685.779	-4.54
685.809	-3.54
685.839	2.46
685.869	0.46
685.898	1.46
685.928	-0.54
685.958	3.46
685.988	-2.54
686.018	10.46
686.048	1.46
686.078	14.46
686.108	19.46
686.137	5.46
686.167	15.46
686.197	0.46
686.227	7.46
686.257	26.46
686.287	6.46
686.317	12.46
686.346	-6.54
686.376	-13.54
686.406	-3.54
686.436	6.46
686.466	-4.54
686.496	-9.54
686.525	-11.54
686.555	-10.54
686.585	15.46
686.615	37.46
686.645	7.46
686.675	2.46
686.704	5.46
686.734	-0.54
686.764	9.46
686.794	1.46
686.824	-0.54
686.853	14.46
686.883	18.46
686.913	6.46
686.943	-7.54
686.973	-4.54
687.002	-4.54
687.032	6.46
687.062	-4.54
687.092	34.46
687.121	-14.54
687.151	2.46
687.181	3.46
687.211	-3.54
687.24	-2.54
687.27	-3.54
687.3	8.46
687.33	-2.54
687.359	-11.54
687.389	9.46
687.419	0.46
687.449	10.46
687.478	12.46
687.508	10.46
687.538	8.46
687.568	4.46
687.597	-7.54
687.627	7.46
687.657	-16.54
687.686	-6.54
687.716	14.46
687.746	0.46
687.776	-1.54
687.805	8.46
687.835	-3.54
687.865	20.46
687.894	-1.54
687.924	-11.54
687.954	-7.54
687.983	10.46
688.013	3.46
688.043	4.46
688.072	-12.54
688.102	-1.54
688.132	-2.54
688.161	9.46
688.191	-0.54
688.221	2.46
688.25	-6.54
688.28	0.46
688.31	-8.54
688.339	-13.54
688.369	-2.54
688.399	0.46
688.428	-15.54
688.458	-7.54
688.488	-2.54
688.517	4.46
688.547	-7.54
688.576	23.46
688.606	4.46
688.636	-7.54
688.665	0.46
688.695	-10.54
688.725	1.46
688.754	6.46
688.784	0.46
688.813	4.46
688.843	7.46
688.873	0.46
688.902	4.46
688.932	2.46
688.961	-7.54
688.991	17.46
689.02	10.46
689.05	1.46
689.08	10.46
689.109	3.46
689.139	-0.54
689.168	23.46
689.198	14.46
689.227	11.46
689.257	10.46
689.287	14.46
689.316	-1.54
689.346	-4.54
689.375	-10.54
689.405	4.46
689.434	5.46
689.464	6.46
689.493	-2.54
689.523	-9.54
689.552	-1.54
689.582	7.46
689.611	18.46
689.641	13.46
689.67	8.46
689.7	8.46
689.73	-8.54
689.759	-2.54
689.789	5.46
689.818	12.46
689.848	14.46
689.877	18.46
689.906	4.46
689.936	7.46
689.965	13.46
689.995	16.46
690.024	-5.54
690.054	-11.54
690.083	4.46
690.113	-1.54
690.142	-2.54
690.172	1.46
690.201	3.46
690.231	2.46
690.26	9.46
690.29	1.46
690.319	3.46
690.348	9.46
690.378	13.46
690.407	7.46
690.437	10.46
690.466	1.46
690.496	-10.54
690.525	4.46
690.555	-0.54
690.584	-5.54
690.613	-6.54
690.643	10.46
690.672	9.46
690.702	30.46
690.731	11.46
690.76	-19.54
690.79	-5.54
690.819	10.46
690.849	18.46
690.878	1.46
690.907	-5.54
690.937	31.46
690.966	-0.54
690.996	-1.54
691.025	5.46
691.054	0.46
691.084	6.46
691.113	-1.54
691.142	8.46
691.172	13.46
691.201	12.46
691.23	5.46
691.26	9.46
691.289	22.46
691.319	0.46
691.348	-6.54
691.377	-1.54
691.407	1.46
691.436	13.46
691.465	-2.54
691.495	0.46
691.524	-8.54
691.553	-1.54
691.583	-0.54
691.612	1.46
691.641	-8.54
691.67	5.46
691.7	5.46
691.729	-22.54
691.758	-6.54
691.788	-1.54
691.817	5.46
691.846	-17.54
691.876	-15.54
691.905	2.46
691.934	-17.54
691.963	11.46
691.993	-0.54
692.022	-15.54
692.051	-7.54
692.081	25.46
692.11	22.46
692.139	15.46
692.168	2.46
692.198	7.46
692.227	2.46
692.256	13.46
692.285	12.46
692.315	2.46
692.344	13.46
692.373	-5.54
692.402	-27.54
692.432	3.46
692.461	18.46
692.49	3.46
692.519	0.46
692.548	6.46
692.578	3.46
692.607	-15.54
692.636	-5.54
692.665	13.46
692.694	7.46
692.724	1.46
692.753	8.46
692.782	14.46
692.811	-10.54
692.84	9.46
692.87	-0.54
692.899	7.46
692.928	0.46
692.957	-0.54
692.986	-6.54
693.016	8.46
693.045	5.46
693.074	-5.54
693.103	-13.54
693.132	-5.54
693.161	4.46
693.191	0.46
693.22	-14.54
693.249	-2.54
693.278	-6.54
693.307	0.46
693.336	-1.54
693.365	-11.54
693.395	-9.54
693.424	9.46
693.453	21.46
693.482	9.46
693.511	-1.54
693.54	7.46
693.569	1.46
693.598	8.46
693.628	1.46
693.657	16.46
693.686	26.46
693.715	5.46
693.744	13.46
693.773	7.46
693.802	6.46
693.831	3.46
693.86	30.46
693.889	3.46
693.919	6.46
693.948	11.46
693.977	-0.54
694.006	0.46
694.035	-6.54
694.064	6.46
694.093	12.46
694.122	-0.54
694.151	1.46
694.18	2.46
694.209	19.46
694.238	9.46
694.267	12.46
694.296	15.46
694.325	14.46
694.354	8.46
694.383	4.46
694.412	-11.54
694.441	13.46
694.471	-8.54
694.5	-20.54
694.529	8.46
694.558	24.46
694.587	26.46
694.616	2.46
694.645	-2.54
694.674	5.46
694.703	21.46
694.732	18.46
694.761	24.46
694.79	13.46
694.819	-9.54
694.848	3.46
694.877	12.46
694.906	22.46
694.935	-7.54
694.963	8.46
694.992	4.46
695.021	1.46
695.05	9.46
695.079	12.46
695.108	4.46
695.137	25.46
695.166	12.46
695.195	-2.54
695.224	3.46
695.253	13.46
695.282	4.46
695.311	11.46
695.34	0.46
695.369	-3.54
695.398	-6.54
695.427	18.46
695.456	4.46
695.485	5.46
695.513	-1.54
695.542	3.46
695.571	10.46
695.6	8.46
695.629	4.46
695.658	1.46
695.687	0.46
695.716	-1.54
695.745	25.46
695.774	1.46
695.802	-3.54
695.831	5.46
695.86	-0.54
695.889	8.46
695.918	-3.54
695.947	-5.54
695.976	14.46
696.005	-2.54
696.033	3.46
696.062	28.46
696.091	-3.54
696.12	-1.54
696.149	13.46
696.178	-5.54
696.207	18.46
696.235	-10.54
696.264	2.46
696.293	16.46
696.322	7.46
696.351	-6.54
696.38	2.46
696.408	6.46
696.437	11.46
696.466	4.46
696.495	6.46
696.524	5.46
696.553	-0.54
696.581	7.46
696.61	-5.54
696.639	-5.54
696.668	1.46
696.697	1.46
696.725	-3.54
696.754	-2.54
696.783	6.46
696.812	4.46
696.84	14.46
696.869	-5.54
696.898	-5.54
696.927	16.46
696.956	26.46
696.984	-4.54
697.013	6.46
697.042	6.46
697.071	5.46
697.099	7.46
697.128	19.46
697.157	2.46
697.186	-8.54
697.214	5.46
697.243	0.46
697.272	2.46
697.301	-0.54
697.329	9.46
697.358	14.46
697.387	6.46
697.415	5.46
697.444	5.46
697.473	-4.54
697.502	-10.54
697.53	5.46
697.559	-4.54
697.588	-0.54
697.616	10.46
697.645	-0.54
697.674	24.46
697.703	8.46
697.731	5.46
697.76	0.46
697.789	1.46
697.817	-5.54
697.846	27.46
697.875	4.46
697.903	17.46
697.932	23.46
697.961	11.46
697.989	3.46
698.018	2.46
698.047	3.46
698.075	4.46
698.104	10.46
698.133	1.46
698.161	-7.54
698.19	-1.54
698.218	2.46
698.247	14.46
698.276	-6.54
698.304	16.46
698.333	0.46
698.362	10.46
698.39	5.46
698.419	1.46
698.447	8.46
698.476	1.46
698.505	26.46
698.533	-4.54
698.562	-7.54
698.591	-0.54
698.619	-6.54
698.648	-2.54
698.676	1.46
698.705	-12.54
698.733	-17.54
698.762	2.46
698.791	2.46
698.819	3.46
698.848	-6.54
698.876	13.46
698.905	4.46
698.933	22.46
698.962	15.46
698.991	-1.54
699.019	19.46
699.048	9.46
699.076	23.46
699.105	-4.54
699.133	2.46
699.162	2.46
699.19	23.46
699.219	13.46
699.248	5.46
699.276	3.46
699.305	1.46
699.333	5.46
699.362	8.46
699.39	8.46
699.419	-7.54
699.447	4.46
699.476	10.46
699.504	-4.54
699.533	2.46
699.561	-4.54
699.59	2.46
699.618	4.46
699.647	0.46
699.675	0.46
699.704	23.46
699.732	1.46
699.761	8.46
699.789	-7.54
699.818	6.46
699.846	2.46
699.874	-8.54
699.903	0.46
699.931	5.46
699.96	13.46
699.988	-5.54
700.017	-2.54
700.045	6.46
700.074	-3.54
700.102	6.46
700.13	-1.54
700.159	9.46
700.187	0.46
700.216	1.46
700.244	9.46
700.273	14.46
700.301	23.46
700.329	21.46
700.358	17.46
700.386	7.46
700.415	-4.54
700.443	10.46
700.472	-1.54
700.5	9.46
700.528	-2.54
700.557	-10.54
700.585	-3.54
700.614	-1.54
700.642	17.46
700.67	18.46
700.699	13.46
700.727	-3.54
700.755	-7.54
700.784	1.46
700.812	-3.54
700.841	13.46
700.869	-2.54
700.897	-20.54
700.926	-7.54
700.954	9.46
700.982	10.46
701.011	4.46
701.039	19.46
701.067	0.46
701.096	0.46
701.124	-0.54
701.152	11.46
701.181	6.46
701.209	-12.54
701.237	4.46
701.266	-1.54
701.294	-5.54
701.322	-2.54
701.351	8.46
701.379	-3.54
701.407	-7.54
701.435	10.46
701.464	7.46
701.492	19.46
701.52	1.46
701.549	-4.54
701.577	-5.54
701.605	-16.54
701.634	-13.54
701.662	4.46
701.69	-8.54
701.718	-21.54
701.747	3.46
701.775	11.46
701.803	0.46
701.831	21.46
701.86	-3.54
701.888	5.46
701.916	8.46
701.944	3.46
701.973	5.46
702.001	-6.54
702.029	-17.54
702.057	1.46
702.086	-3.54
702.114	-27.54
702.142	-1.54
702.17	-9.54
702.199	-2.54
702.227	-0.54
702.255	-14.54
702.283	6.46
702.311	19.46
702.34	5.46
702.368	-4.54
702.396	9.46
702.424	0.46
702.452	-3.54
702.481	-12.54
702.509	-2.54
702.537	2.46
702.565	4.46
702.593	-18.54
702.621	-1.54
702.65	-0.54
702.678	2.46
702.706	0.46
702.734	-7.54
702.762	9.46
702.79	10.46
702.819	-5.54
702.847	-8.54
702.875	2.46
702.903	8.46
702.931	-4.54
702.959	5.46
702.988	5.46
703.016	-25.54
703.044	-4.54
703.072	-4.54
703.1	-3.54
703.128	8.46
703.156	20.46
703.184	10.46
703.212	7.46
703.241	12.46
703.269	-6.54
703.297	2.46
703.325	2.46
703.353	-10.54
703.381	-10.54
703.409	-0.54
703.437	-7.54
703.465	6.46
703.493	-12.54
703.522	-0.54
703.55	9.46
703.578	7.46
703.606	-0.54
703.634	-4.54
703.662	8.46
703.69	-2.54
703.718	6.46
703.746	14.46
703.774	-11.54
703.802	14.46
703.83	-1.54
703.858	5.46
703.886	-2.54
703.914	-15.54
703.942	3.46
703.97	-5.54
703.998	-10.54
704.027	7.46
704.055	1.46
704.083	-12.54
704.111	-0.54
704.139	-1.54
704.167	-1.54
704.195	2.46
704.223	-8.54
704.251	-1.54
704.279	2.46
704.307	-0.54
704.335	-9.54
704.363	-0.54
704.391	-7.54
704.419	-7.54
704.447	-9.54
704.475	8.46
704.503	-15.54
704.531	3.46
704.558	3.46
704.586	12.46
704.614	0.46
704.642	-5.54
704.67	-12.54
704.698	-3.54
704.726	8.46
704.754	-14.54
704.782	0.46
704.81	-0.54
704.838	27.46
704.866	10.46
704.894	-12.54
704.922	-13.54
704.95	3.46
704.978	2.46
705.006	1.46
705.034	3.46
705.061	-7.54
705.089	-1.54
705.117	1.46
705.145	0.46
705.173	-10.54
705.201	-15.54
705.229	6.46
705.257	-0.54
705.285	3.46
705.313	1.46
705.34	-0.54
705.368	-10.54
705.396	6.46
705.424	-11.54
705.452	-20.54
705.48	3.46
705.508	1.46
705.536	-11.54
705.563	-12.54
705.591	-7.54
705.619	3.46
705.647	-8.54
705.675	-3.54
705.703	3.46
705.731	0.46
705.758	4.46
705.786	0.46
705.814	12.46
705.842	-0.54
705.87	18.46
705.898	17.46
705.925	-3.54
705.953	-3.54
705.981	-22.54
706.009	-4.54
706.037	14.46
706.065	-3.54
706.092	-8.54
706.12	9.46
706.148	-4.54
706.176	14.46
706.204	10.46
706.231	1.46
706.259	-8.54
706.287	-8.54
706.315	-2.54
706.342	-12.54
706.37	-1.54
706.398	-4.54
706.426	-9.54
706.454	-4.54
706.481	15.46
706.509	14.46
706.537	-12.54
706.565	-11.54
706.592	17.46
706.62	4.46
706.648	9.46
706.676	-21.54
706.703	-2.54
706.731	-5.54
706.759	1.46
706.787	9.46
706.814	-14.54
706.842	-1.54
706.87	5.46
706.897	7.46
706.925	-30.54
706.953	1.46
706.981	10.46
707.008	11.46
707.036	4.46
707.064	3.46
707.091	-16.54
707.119	-7.54
707.147	-1.54
707.174	-7.54
707.202	1.46
707.23	-20.54
707.258	3.46
707.285	-15.54
707.313	-9.54
707.341	-17.54
707.368	-8.54
707.396	2.46
707.424	11.46
707.451	7.46
707.479	-4.54
707.507	-6.54
707.534	-15.54
707.562	4.46
707.59	5.46
707.617	-10.54
707.645	-0.54
707.672	4.46
707.7	2.46
707.728	-1.54
707.755	11.46
707.783	5.46
707.811	1.46
707.838	-5.54
707.866	-12.54
707.893	-10.54
707.921	-13.54
707.949	-11.54
707.976	-0.54
708.004	-10.54
708.031	1.46
708.059	-19.54
708.087	-12.54
708.114	-9.54
708.142	-9.54
708.169	-11.54
708.197	-20.54
708.225	-5.54
708.252	-13.54
708.28	-5.54
708.307	-8.54
708.335	-5.54
708.362	-1.54
708.39	-1.54
708.418	-4.54
708.445	-2.54
708.473	-23.54
708.5	-9.54
708.528	-0.54
708.555	-1.54
708.583	-1.54
708.61	-0.54
708.638	5.46
708.665	-11.54
708.693	-4.54
708.72	-13.54
708.748	-11.54
708.776	3.46
708.803	2.46
708.831	4.46
708.858	1.46
708.886	-8.54
708.913	3.46
708.941	-5.54
708.968	-5.54
708.996	-6.54
709.023	11.46
709.051	-0.54
709.078	2.46
709.105	-1.54
709.133	-8.54
709.16	-2.54
709.188	8.46
709.215	0.46
709.243	-2.54
709.27	-7.54
709.298	-18.54
709.325	-12.54
709.353	-1.54
709.38	-17.54
709.408	5.46
709.435	3.46
709.462	-3.54
709.49	1.46
709.517	-7.54
709.545	-10.54
709.572	-17.54
709.6	-0.54
709.627	-0.54
709.655	-10.54
709.682	2.46
709.709	11.46
709.737	9.46
709.764	-6.54
709.792	-1.54
709.819	-9.54
709.846	-11.54
709.874	4.46
709.901	3.46
709.929	13.46
709.956	2.46
709.983	-13.54
710.011	-9.54
710.038	-5.54
710.066	3.46
710.093	10.46
710.12	9.46
710.148	-5.54
710.175	-6.54
710.202	-9.54
710.23	0.46
710.257	0.46
710.284	10.46
710.312	-3.54
710.339	7.46
710.366	-4.54
710.394	-14.54
710.421	-15.54
710.448	-27.54
710.476	-13.54
710.503	-1.54
710.53	3.46
710.558	21.46
710.585	9.46
710.612	-2.54
710.64	-14.54
710.667	-17.54
710.694	-7.54
710.722	-3.54
710.749	-2.54
710.776	6.46
710.804	23.46
710.831	-3.54
710.858	2.46
710.885	1.46
710.913	-7.54
710.94	12.46
710.967	6.46
710.995	0.46
711.022	-12.54
711.049	-5.54
711.076	-4.54
711.104	-6.54
711.131	-15.54
711.158	0.46
711.185	-0.54
711.213	-15.54
711.24	-20.54
711.267	-15.54
711.294	4.46
711.322	5.46
711.349	-6.54
711.376	-8.54
711.403	17.46
711.431	3.46
711.458	0.46
711.485	-2.54
711.512	15.46
711.54	-12.54
711.567	-1.54
711.594	5.46
711.621	-1.54
711.648	-11.54
711.676	6.46
711.703	-17.54
711.73	-21.54
711.757	5.46
711.784	5.46
711.812	-0.54
711.839	2.46
711.866	-13.54
711.893	-28.54
711.92	5.46
711.947	-8.54
711.975	-5.54
712.002	-2.54
712.029	13.46
712.056	3.46
712.083	2.46
712.11	-17.54
712.138	-1.54
712.165	-5.54
712.192	16.46
712.219	2.46
712.246	-2.54
712.273	-11.54
712.3	-11.54
712.328	4.46
712.355	8.46
712.382	-17.54
712.409	-4.54
712.436	-11.54
712.463	2.46
712.49	-2.54
712.517	-1.54
712.544	5.46
712.572	-11.54
712.599	-6.54
712.626	-6.54
712.653	-9.54
712.68	-12.54
712.707	6.46
712.734	10.46
712.761	1.46
712.788	-11.54
712.815	-1.54
712.842	7.46
712.87	-9.54
712.897	-14.54
712.924	-7.54
712.951	-1.54
712.978	-8.54
713.005	6.46
713.032	2.46
713.059	-3.54
713.086	-9.54
713.113	-12.54
713.14	-7.54
713.167	-8.54
713.194	12.46
713.221	-6.54
713.248	9.46
713.275	3.46
713.302	0.46
713.329	10.46
713.356	-8.54
713.383	-1.54
713.41	11.46
713.437	-2.54
713.464	0.46
713.491	10.46
713.518	6.46
713.545	-10.54
713.572	-4.54
713.599	-2.54
713.626	5.46
713.653	9.46
713.68	-9.54
713.707	-21.54
713.734	-8.54
713.761	6.46
713.788	-11.54
713.815	-2.54
713.842	-11.54
713.869	-9.54
713.896	5.46
713.923	3.46
713.95	-4.54
713.977	-11.54
714.004	-2.54
714.031	3.46
714.058	-1.54
714.085	4.46
714.112	23.46
714.139	-10.54
714.165	-8.54
714.192	-5.54
714.219	10.46
714.246	4.46
714.273	-7.54
714.3	-7.54
714.327	6.46
714.354	1.46
714.381	-12.54
714.408	14.46
714.435	-5.54
714.461	-0.54
714.488	1.46
714.515	-7.54
714.542	-2.54
714.569	-6.54
714.596	-10.54
714.623	3.46
714.65	-6.54
714.677	3.46
714.703	5.46
714.73	6.46
714.757	9.46
714.784	-0.54
714.811	-1.54
714.838	-7.54
714.865	-7.54
714.891	11.46
714.918	-4.54
714.945	-19.54
714.972	-8.54
714.999	-3.54
715.026	-8.54
715.052	1.46
715.079	-9.54
715.106	-1.54
715.133	1.46
715.16	-2.54
715.187	-2.54
715.213	12.46
715.24	16.46
715.267	0.46
715.294	9.46
715.321	-6.54
715.347	-7.54
715.374	-17.54
715.401	-1.54
715.428	-1.54
715.455	4.46
715.481	-17.54
715.508	7.46
715.535	7.46
715.562	7.46
715.588	7.46
715.615	-3.54
715.642	-0.54
715.669	-0.54
715.695	-17.54
715.722	5.46
715.749	-5.54
715.776	-1.54
715.802	-1.54
715.829	-3.54
715.856	-20.54
715.883	3.46
715.909	-10.54
715.936	-8.54
715.963	-1.54
715.99	-6.54
716.016	-6.54
716.043	-2.54
716.07	-13.54
716.096	-15.54
716.123	8.46
716.15	7.46
716.177	-7.54
716.203	5.46
716.23	1.46
716.257	6.46
716.283	22.46
716.31	2.46
716.337	6.46
716.363	6.46
716.39	5.46
716.417	15.46
716.443	3.46
716.47	25.46
716.497	19.46
716.523	1.46
716.55	8.46
716.577	24.46
716.603	15.46
716.63	-4.54
716.657	13.46
716.683	-1.54
716.71	-6.54
716.737	-18.54
716.763	0.46
716.79	-6.54
716.817	-1.54
716.843	13.46
716.87	-3.54
716.897	-6.54
716.923	10.46
716.95	-1.54
716.976	-4.54
717.003	-12.54
717.03	9.46
717.056	2.46
717.083	2.46
717.109	-0.54
717.136	-0.54
717.163	-8.54
717.189	-1.54
717.216	-16.54
717.242	-13.54
717.269	-0.54
717.296	2.46
717.322	8.46
717.349	5.46
717.375	10.46
717.402	-1.54
717.428	3.46
717.455	1.46
717.481	7.46
717.508	1.46
717.535	10.46
717.561	-8.54
717.588	-1.54
717.614	3.46
717.641	10.46
717.667	14.46
717.694	1.46
717.72	4.46
717.747	-7.54
717.773	-13.54
717.8	-4.54
717.826	4.46
717.853	-7.54
717.88	12.46
717.906	5.46
717.933	-1.54
717.959	-6.54
717.986	-0.54
718.012	-3.54
718.039	10.46
718.065	14.46
718.092	2.46
718.118	-2.54
718.144	-1.54
718.171	13.46
718.197	33.46
718.224	15.46
718.25	10.46
718.277	7.46
718.303	-4.54
718.33	-4.54
718.356	-1.54
718.383	-17.54
718.409	-4.54
718.436	-3.54
718.462	6.46
718.489	-4.54
718.515	9.46
718.541	6.46
718.568	-1.54
718.594	-1.54
718.621	7.46
718.647	-1.54
718.674	12.46
718.7	10.46
718.726	-0.54
718.753	8.46
718.779	8.46
718.806	2.46
718.832	-8.54
718.858	8.46
718.885	-1.54
718.911	-14.54
718.938	11.46
718.964	-10.54
718.99	-4.54
719.017	6.46
719.043	-7.54
719.07	17.46
719.096	-4.54
719.122	5.46
719.149	-8.54
719.175	-11.54
719.201	-6.54
719.228	0.46
719.254	-1.54
719.281	-14.54
719.307	-18.54
719.333	-17.54
719.36	3.46
719.386	-0.54
719.412	10.46
719.439	-3.54
719.465	3.46
719.491	-14.54
719.518	9.46
719.544	7.46
719.57	7.46
719.597	8.46
719.623	-8.54
719.649	-3.54
719.675	-2.54
719.702	-6.54
719.728	15.46
719.754	5.46
719.781	5.46
719.807	-2.54
719.833	8.46
719.86	1.46
719.886	9.46
719.912	10.46
719.938	-5.54
719.965	6.46
719.991	17.46
720.017	7.46
720.044	-10.54
720.07	-0.54
720.096	6.46
720.122	-6.54
720.149	-3.54
720.175	27.46
720.201	6.46
720.227	-4.54
720.254	17.46
720.28	14.46
720.306	-15.54
720.332	10.46
720.359	8.46
720.385	-5.54
720.411	3.46
720.437	8.46
720.463	1.46
720.49	16.46
720.516	0.46
720.542	-4.54
720.568	1.46
720.595	10.46
720.621	-3.54
720.647	5.46
720.673	12.46
720.699	-2.54
720.725	-9.54
720.752	6.46
720.778	14.46
720.804	11.46
720.83	3.46
720.856	10.46
720.883	-7.54
720.909	1.46
720.935	18.46
720.961	6.46
720.987	3.46
721.013	6.46
721.04	-3.54
721.066	-6.54
721.092	-7.54
721.118	8.46
721.144	11.46
721.17	-1.54
721.196	2.46
721.223	-2.54
721.249	-2.54
721.275	24.46
721.301	8.46
721.327	11.46
721.353	15.46
721.379	2.46
721.405	2.46
721.432	21.46
721.458	-1.54
721.484	10.46
721.51	-12.54
721.536	1.46
721.562	-6.54
721.588	-0.54
721.614	-9.54
721.64	-5.54
721.666	-2.54
721.693	2.46
721.719	-2.54
721.745	8.46
721.771	9.46
721.797	-4.54
721.823	-5.54
721.849	17.46
721.875	8.46
721.901	-2.54
721.927	1.46
721.953	-4.54
721.979	24.46
722.005	6.46
722.031	0.46
722.057	9.46
722.083	0.46
722.109	1.46
722.135	5.46
722.161	-0.54
722.187	-0.54
722.214	0.46
722.24	11.46
722.266	-13.54
722.292	7.46
722.318	9.46
722.344	7.46
722.37	-6.54
722.396	18.46
722.422	6.46
722.448	7.46
722.474	-18.54
722.5	3.46
722.526	-7.54
722.552	2.46
722.578	5.46
722.603	7.46
722.629	-30.54
722.655	-15.54
722.681	-7.54
722.707	-1.54
722.733	0.46
722.759	-7.54
722.785	-2.54
722.811	-6.54
722.837	7.46
722.863	11.46
722.889	-4.54
722.915	-9.54
722.941	-5.54
722.967	3.46
722.993	4.46
723.019	0.46
723.045	13.46
723.071	-2.54
723.097	6.46
723.122	-7.54
723.148	-5.54
723.174	0.46
723.2	8.46
723.226	-5.54
723.252	-0.54
723.278	1.46
723.304	-9.54
723.33	6.46
723.356	-4.54
723.381	-11.54
723.407	-6.54
723.433	4.46
723.459	-1.54
723.485	-13.54
723.511	-1.54
723.537	9.46
723.563	17.46
723.588	5.46
723.614	10.46
723.64	-1.54
723.666	6.46
723.692	18.46
723.718	11.46
723.744	9.46
723.769	-10.54
723.795	-10.54
723.821	6.46
723.847	0.46
723.873	-2.54
723.899	-5.54
723.924	-17.54
723.95	3.46
723.976	-18.54
724.002	7.46
724.028	3.46
724.053	10.46
724.079	-5.54
724.105	8.46
724.131	-0.54
724.157	4.46
724.182	16.46
724.208	17.46
724.234	6.46
724.26	-6.54
724.286	-2.54
724.311	-2.54
724.337	-4.54
724.363	-13.54
724.389	-1.54
724.415	-4.54
724.44	6.46
724.466	-6.54
724.492	-5.54
724.518	12.46
724.543	-6.54
724.569	5.46
724.595	-2.54
724.621	0.46
724.646	-0.54
724.672	15.46
724.698	-6.54
724.723	-7.54
724.749	2.46
724.775	10.46
724.801	2.46
724.826	6.46
724.852	-12.54
724.878	-10.54
724.904	-21.54
724.929	0.46
724.955	-11.54
724.981	-5.54
725.006	-2.54
725.032	-2.54
725.058	8.46
725.083	-2.54
725.109	-10.54
725.135	-7.54
725.161	3.46
725.186	-17.54
725.212	-11.54
725.238	-5.54
725.263	-2.54
725.289	-9.54
725.315	-7.54
725.34	-1.54
725.366	16.46
725.392	-4.54
725.417	3.46
725.443	7.46
725.468	11.46
725.494	17.46
725.52	21.46
725.545	7.46
725.571	11.46
725.597	-1.54
725.622	2.46
725.648	5.46
725.674	2.46
725.699	1.46
725.725	-4.54
725.75	13.46
725.776	-11.54
725.802	4.46
725.827	7.46
725.853	6.46
725.878	-6.54
725.904	4.46
725.93	-2.54
725.955	-18.54
725.981	-6.54
726.006	-2.54
726.032	4.46
726.057	-4.54
726.083	0.46
726.109	-9.54
726.134	-5.54
726.16	-6.54
726.185	-2.54
726.211	-5.54
726.236	-8.54
726.262	-2.54
726.288	10.46
726.313	5.46
726.339	-0.54
726.364	8.46
726.39	17.46
726.415	-2.54
726.441	-2.54
726.466	-4.54
726.492	2.46
726.517	10.46
726.543	-6.54
726.568	-7.54
726.594	-6.54
726.619	4.46
726.645	6.46
726.67	-4.54
726.696	-12.54
726.721	2.46
726.747	-16.54
726.772	-2.54
726.798	-7.54
726.823	8.46
726.849	-5.54
726.874	-0.54
726.9	9.46
726.925	6.46
726.951	-1.54
726.976	9.46
727.002	1.46
727.027	2.46
727.053	11.46
727.078	-2.54
727.104	1.46
727.129	-9.54
727.155	14.46
727.18	1.46
727.205	-21.54
727.231	-10.54
727.256	3.46
727.282	3.46
727.307	15.46
727.333	17.46
727.358	3.46
727.383	-10.54
727.409	0.46
727.434	2.46
727.46	-21.54
727.485	-0.54
727.511	4.46
727.536	-22.54
727.561	-17.54
727.587	-10.54
727.612	-13.54
727.637	5.46
727.663	-10.54
727.688	15.46
727.714	-17.54
727.739	-12.54
727.764	-5.54
727.79	-0.54
727.815	0.46
727.841	5.46
727.866	10.46
727.891	-7.54
727.917	-12.54
727.942	-4.54
727.967	-20.54
727.993	-13.54
728.018	-2.54
728.043	1.46
728.069	-2.54
728.094	-6.54
728.119	-6.54
728.145	15.46
728.17	9.46
728.195	7.46
728.221	-6.54
728.246	-2.54
728.271	-23.54
728.297	-2.54
728.322	8.46
728.347	11.46
728.373	1.46
728.398	10.46
728.423	-6.54
728.448	7.46
728.474	-2.54
728.499	0.46
728.524	-2.54
728.55	-0.54
728.575	3.46
728.6	-8.54
728.625	-9.54
728.651	-2.54
728.676	-8.54
728.701	-11.54
728.727	10.46
728.752	-4.54
728.777	-4.54
728.802	-1.54
728.828	0.46
728.853	5.46
728.878	17.46
728.903	-4.54
728.929	-24.54
728.954	-9.54
728.979	1.46
729.004	-13.54
729.03	-13.54
729.055	0.46
729.08	-9.54
729.105	-2.54
729.13	6.46
729.156	14.46
729.181	1.46
729.206	-12.54
729.231	-16.54
729.256	12.46
729.282	7.46
729.307	-13.54
729.332	15.46
729.357	1.46
729.382	2.46
729.408	-9.54
729.433	-2.54
729.458	-7.54
729.483	-8.54
729.508	0.46
729.533	-0.54
729.559	2.46
729.584	-23.54
729.609	-1.54
729.634	12.46
729.659	-6.54
729.684	-27.54
729.71	-0.54
729.735	-1.54
729.76	-2.54
729.785	-0.54
729.81	5.46
729.835	0.46
729.86	-6.54
729.886	11.46
729.911	-1.54
729.936	-1.54
729.961	6.46
729.986	-21.54
730.011	-12.54
730.036	-2.54
730.061	-0.54
730.086	-1.54
730.112	-1.54
730.137	5.46
730.162	-0.54
730.187	1.46
730.212	2.46
730.237	-3.54
730.262	2.46
730.287	2.46
730.312	18.46
730.337	3.46
730.362	19.46
730.387	2.46
730.413	-9.54
730.438	-18.54
730.463	9.46
730.488	-5.54
730.513	11.46
730.538	-3.54
730.563	1.46
730.588	13.46
730.613	8.46
730.638	-9.54
730.663	-5.54
730.688	9.46
730.713	12.46
730.738	1.46
730.763	-8.54
730.788	-25.54
730.813	9.46
730.838	-8.54
730.863	1.46
730.888	-8.54
730.913	-21.54
730.938	-31.54
730.963	2.46
730.988	0.46
731.013	23.46
731.038	-15.54
731.063	-16.54
731.088	0.46
731.113	1.46
731.138	-1.54
731.163	-12.54
731.188	-17.54
731.213	-2.54
731.238	-2.54
731.263	-8.54
731.288	-1.54
731.313	5.46
731.338	6.46
731.363	16.46
731.388	10.46
731.413	-13.54
731.438	10.46
731.463	19.46
731.487	13.46
731.512	-16.54
731.537	-11.54
731.562	-9.54
731.587	-0.54
731.612	5.46
731.637	2.46
731.662	-2.54
731.687	-6.54
731.712	-26.54
731.737	-5.54
731.762	-4.54
731.786	3.46
731.811	-0.54
731.836	-9.54
731.861	-7.54
731.886	-10.54
731.911	16.46
731.936	-3.54
731.961	-8.54
731.986	-22.54
732.01	-8.54
732.035	11.46
732.06	19.46
732.085	-15.54
732.11	-9.54
732.135	-2.54
732.16	-0.54
732.184	10.46
732.209	-12.54
732.234	0.46
732.259	-10.54
732.284	15.46
732.309	-6.54
732.334	-23.54
732.358	-21.54
732.383	-11.54
732.408	-4.54
732.433	-1.54
732.458	2.46
732.482	0.46
732.507	-16.54
732.532	-17.54
732.557	-0.54
732.582	9.46
732.607	-14.54
732.631	-18.54
732.656	-8.54
732.681	-9.54
732.706	-6.54
732.73	-12.54
732.755	-7.54
732.78	-2.54
732.805	3.46
732.83	-7.54
732.854	3.46
732.879	9.46
732.904	-5.54
732.929	-9.54
732.953	0.46
732.978	-4.54
733.003	-4.54
733.028	-9.54
733.052	-3.54
733.077	14.46
733.102	8.46
733.127	-10.54
733.151	-16.54
733.176	12.46
733.201	-2.54
733.226	-8.54
733.25	4.46
733.275	3.46
733.3	-10.54
733.324	18.46
733.349	9.46
733.374	11.46
733.399	-6.54
733.423	4.46
733.448	6.46
733.473	0.46
733.497	0.46
733.522	-22.54
733.547	-1.54
733.571	14.46
733.596	-6.54
733.621	3.46
733.646	2.46
733.67	14.46
733.695	-0.54
733.72	-5.54
733.744	14.46
733.769	13.46
733.794	-1.54
733.818	1.46
733.843	-8.54
733.867	-17.54
733.892	-12.54
733.917	-1.54
733.941	15.46
733.966	-6.54
733.991	-5.54
734.015	14.46
734.04	10.46
734.065	4.46
734.089	4.46
734.114	-17.54
734.138	4.46
734.163	-2.54
734.188	6.46
734.212	5.46
734.237	2.46
734.261	-9.54
734.286	8.46
734.311	-2.54
734.335	-6.54
734.36	1.46
734.384	-5.54
734.409	-5.54
734.434	-1.54
734.458	5.46
734.483	-0.54
734.507	-10.54
734.532	-1.54
734.556	9.46
734.581	-0.54
734.606	5.46
734.63	-6.54
734.655	9.46
734.679	11.46
734.704	6.46
734.728	-10.54
734.753	-10.54
734.777	8.46
734.802	-2.54
734.826	1.46
734.851	-6.54
734.876	-0.54
734.9	3.46
734.925	18.46
734.949	-7.54
734.974	-13.54
734.998	-11.54
735.023	-17.54
735.047	-21.54
735.072	6.46
735.096	-0.54
735.121	-13.54
735.145	-18.54
735.17	-8.54
735.194	2.46
735.219	0.46
735.243	7.46
735.268	9.46
735.292	-0.54
735.317	-0.54
735.341	-5.54
735.365	-15.54
735.39	-5.54
735.414	9.46
735.439	-7.54
735.463	4.46
735.488	5.46
735.512	9.46
735.537	7.46
735.561	-9.54
735.586	-2.54
735.61	11.46
735.634	-7.54
735.659	4.46
735.683	20.46
735.708	-7.54
735.732	-8.54
735.757	-2.54
735.781	-0.54
735.805	4.46
735.83	5.46
735.854	-1.54
735.879	-0.54
735.903	2.46
735.927	-1.54
735.952	11.46
735.976	2.46
736.001	-4.54
736.025	-0.54
736.049	12.46
736.074	-8.54
736.098	-4.54
736.123	8.46
736.147	5.46
736.171	7.46
736.196	-0.54
736.22	-18.54
736.244	-6.54
736.269	-13.54
736.293	-6.54
736.317	-6.54
736.342	4.46
736.366	0.46
736.39	1.46
736.415	-6.54
736.439	-0.54
736.463	-2.54
736.488	-1.54
736.512	4.46
736.536	-6.54
736.561	5.46
736.585	1.46
736.609	4.46
736.634	-5.54
736.658	6.46
736.682	-13.54
736.707	-16.54
736.731	-25.54
736.755	-5.54
736.78	11.46
736.804	-6.54
736.828	-2.54
736.852	-7.54
736.877	2.46
736.901	-1.54
736.925	-0.54
736.949	20.46
736.974	8.46
736.998	-10.54
737.022	2.46
737.047	-18.54
737.071	8.46
737.095	23.46
737.119	23.46
737.144	-0.54
737.168	5.46
737.192	-7.54
737.216	1.46
737.241	-21.54
737.265	-9.54
737.289	-5.54
737.313	-4.54
737.337	10.46
737.362	-9.54
737.386	-4.54
737.41	-6.54
737.434	-7.54
737.459	-8.54
737.483	-13.54
737.507	-2.54
737.531	13.46
737.555	-6.54
737.58	9.46
737.604	8.46
737.628	-18.54
737.652	-5.54
737.676	-9.54
737.701	-7.54
737.725	2.46
737.749	2.46
737.773	-1.54
737.797	-3.54
737.821	12.46
737.846	1.46
737.87	17.46
737.894	-2.54
737.918	-1.54
737.942	0.46
737.966	17.46
737.99	7.46
738.015	4.46
738.039	12.46
738.063	1.46
738.087	8.46
738.111	-5.54
738.135	10.46
738.159	-5.54
738.184	-2.54
738.208	8.46
738.232	4.46
738.256	13.46
738.28	9.46
738.304	11.46
738.328	-5.54
738.352	-2.54
738.376	1.46
738.4	6.46
738.425	6.46
738.449	-4.54
738.473	8.46
738.497	10.46
738.521	8.46
738.545	3.46
738.569	15.46
738.593	25.46
738.617	-5.54
738.641	-5.54
738.665	9.46
738.689	17.46
738.713	1.46
738.737	-4.54
738.762	1.46
738.786	0.46
738.81	-11.54
738.834	6.46
738.858	-5.54
738.882	-2.54
738.906	-1.54
738.93	6.46
738.954	17.46
738.978	-6.54
739.002	-15.54
739.026	6.46
739.05	21.46
739.074	4.46
739.098	21.46
739.122	16.46
739.146	4.46
739.17	-2.54
739.194	1.46
739.218	1.46
739.242	-2.54
739.266	-2.54
739.29	5.46
739.314	1.46
739.338	0.46
739.362	10.46
739.386	0.46
739.41	2.46
739.434	-10.54
739.458	19.46
739.482	10.46
739.506	5.46
739.53	0.46
739.554	22.46
739.577	5.46
739.601	19.46
739.625	-1.54
739.649	-0.54
739.673	-9.54
739.697	8.46
739.721	4.46
739.745	19.46
739.769	9.46
739.793	-5.54
739.817	13.46
739.841	-8.54
739.865	3.46
739.889	-5.54
739.912	19.46
739.936	6.46
739.96	-5.54
739.984	11.46
740.008	-13.54
740.032	-6.54
740.056	-10.54
740.08	0.46
740.104	3.46
740.127	15.46
740.151	6.46
740.175	7.46
740.199	30.46
740.223	52.46
740.247	4.46
740.271	4.46
740.295	8.46
740.318	-8.54
740.342	-13.54
740.366	-0.54
740.39	6.46
740.414	-5.54
740.438	0.46
740.461	28.46
740.485	3.46
740.509	-8.54
740.533	-3.54
740.557	-4.54
740.581	9.46
740.604	-6.54
740.628	-4.54
740.652	2.46
740.676	5.46
740.7	15.46
740.723	6.46
740.747	-10.54
740.771	-6.54
740.795	-6.54
740.819	9.46
740.842	0.46
740.866	9.46
740.89	8.46
740.914	-6.54
740.938	-6.54
740.961	5.46
740.985	1.46
741.009	6.46
741.033	-2.54
741.056	-4.54
741.08	-4.54
741.104	3.46
741.128	-1.54
741.151	13.46
741.175	6.46
741.199	19.46
741.223	10.46
741.246	-5.54
741.27	15.46
741.294	10.46
741.318	-11.54
741.341	-8.54
741.365	15.46
741.389	10.46
741.413	19.46
741.436	23.46
741.46	5.46
741.484	18.46
741.507	5.46
741.531	26.46
741.555	5.46
741.579	4.46
741.602	6.46
741.626	9.46
741.65	-8.54
741.673	3.46
741.697	10.46
741.721	5.46
741.744	-13.54
741.768	-5.54
741.792	5.46
741.815	-12.54
741.839	3.46
741.863	9.46
741.886	18.46
741.91	17.46
741.934	-0.54
741.957	-10.54
741.981	17.46
742.005	5.46
742.028	-2.54
742.052	0.46
742.075	4.46
742.099	22.46
742.123	2.46
742.146	2.46
742.17	3.46
742.194	13.46
742.217	-13.54
742.241	11.46
742.264	-4.54
742.288	10.46
742.312	7.46
742.335	8.46
742.359	6.46
742.382	17.46
742.406	17.46
742.43	2.46
742.453	7.46
742.477	-14.54
742.5	6.46
742.524	2.46
742.548	2.46
742.571	0.46
742.595	8.46
742.618	-9.54
742.642	-5.54
742.665	13.46
742.689	-5.54
742.712	9.46
742.736	8.46
742.76	4.46
742.783	8.46
742.807	-1.54
742.83	18.46
742.854	-7.54
742.877	-2.54
742.901	13.46
742.924	-5.54
742.948	-4.54
742.971	6.46
742.995	2.46
743.018	-4.54
743.042	-3.54
743.065	-2.54
743.089	3.46
743.112	3.46
743.136	-14.54
743.159	-6.54
743.183	12.46
743.206	19.46
743.23	13.46
743.253	11.46
743.277	22.46
743.3	-4.54
743.324	-1.54
743.347	10.46
743.371	20.46
743.394	14.46
743.418	8.46
743.441	-11.54
743.465	-4.54
743.488	11.46
743.512	-1.54
743.535	7.46
743.558	14.46
743.582	9.46
743.605	-2.54
743.629	5.46
743.652	4.46
743.676	2.46
743.699	23.46
743.723	-1.54
743.746	28.46
743.769	9.46
743.793	-4.54
743.816	-9.54
743.84	9.46
743.863	-4.54
743.886	8.46
743.91	9.46
743.933	17.46
743.957	1.46
743.98	-4.54
744.003	16.46
744.027	7.46
744.05	9.46
744.074	11.46
744.097	-2.54
744.12	-1.54
744.144	-6.54
744.167	0.46
744.19	-1.54
744.214	-1.54
744.237	-8.54
744.26	9.46
744.284	1.46
744.307	-9.54
744.331	-3.54
744.354	-10.54
744.377	-9.54
744.401	16.46
744.424	5.46
744.447	-3.54
744.471	5.46
