Data from HighRes_H2_15_09_11_07_2024_HR4C61891__111__15-11-07-501.txt Node

Date: Thu Nov 07 15:11:07 EST 2024
User: crc00042
Spectrometer: HR4C6189
Trigger mode: 4
Integration Time (sec): 1.000000E-1
Scans to average: 1
Electric dark correction enabled: true
Nonlinearity correction enabled: false
Boxcar width: 0
XAxis mode: Wavelengths
Number of Pixels in Spectrum: 3648
>>>>>Begin Spectral Data<<<<<
639.567	-39.15
639.602	-39.15
639.636	-39.15
639.67	-48.15
639.704	-8.15
639.738	5.85
639.773	6.85
639.807	-11.15
639.841	-4.15
639.875	12.85
639.909	-1.15
639.943	-6.15
639.978	-4.15
640.012	-19.15
640.046	8.85
640.08	6.85
640.114	7.85
640.148	-3.15
640.182	-18.15
640.217	2.85
640.251	28.85
640.285	11.85
640.319	-14.15
640.353	8.85
640.387	8.85
640.421	7.85
640.455	7.85
640.49	4.85
640.524	-6.15
640.558	13.85
640.592	5.85
640.626	18.85
640.66	16.85
640.694	0.85
640.728	17.85
640.762	17.85
640.796	16.85
640.83	33.85
640.865	-8.15
640.899	6.85
640.933	-9.15
640.967	-6.15
641.001	7.85
641.035	7.85
641.069	10.85
641.103	-3.15
641.137	4.85
641.171	-15.15
641.205	10.85
641.239	2.85
641.273	14.85
641.307	9.85
641.341	6.85
641.375	8.85
641.409	-14.15
641.443	9.85
641.477	21.85
641.511	12.85
641.545	16.85
641.579	14.85
641.614	8.85
641.648	9.85
641.682	-7.15
641.716	9.85
641.75	15.85
641.784	3.85
641.818	4.85
641.852	13.85
641.886	4.85
641.919	24.85
641.953	8.85
641.987	-2.15
642.021	12.85
642.055	11.85
642.089	13.85
642.123	2.85
642.157	7.85
642.191	-8.15
642.225	5.85
642.259	3.85
642.293	30.85
642.327	23.85
642.361	3.85
642.395	21.85
642.429	27.85
642.463	16.85
642.497	26.85
642.531	12.85
642.565	-14.15
642.599	16.85
642.633	1.85
642.666	5.85
642.7	15.85
642.734	19.85
642.768	-10.15
642.802	-6.15
642.836	5.85
642.87	-7.15
642.904	7.85
642.938	10.85
642.972	5.85
643.005	3.85
643.039	27.85
643.073	1.85
643.107	4.85
643.141	8.85
643.175	5.85
643.209	7.85
643.243	9.85
643.276	-9.15
643.31	2.85
643.344	-2.15
643.378	11.85
643.412	0.85
643.446	-2.15
643.48	6.85
643.513	3.85
643.547	-4.15
643.581	-20.15
643.615	10.85
643.649	10.85
643.683	3.85
643.716	1.85
643.75	6.85
643.784	-1.15
643.818	8.85
643.852	4.85
643.886	8.85
643.919	4.85
643.953	4.85
643.987	1.85
644.021	5.85
644.055	0.85
644.088	-3.15
644.122	5.85
644.156	-3.15
644.19	-4.15
644.224	22.85
644.257	12.85
644.291	26.85
644.325	18.85
644.359	-0.15
644.392	32.85
644.426	15.85
644.46	-9.15
644.494	2.85
644.527	-6.15
644.561	16.85
644.595	10.85
644.629	1.85
644.662	0.85
644.696	26.85
644.73	11.85
644.764	14.85
644.797	12.85
644.831	-2.15
644.865	13.85
644.899	22.85
644.932	17.85
644.966	-0.15
645	-1.15
645.033	12.85
645.067	3.85
645.101	4.85
645.135	10.85
645.168	6.85
645.202	0.85
645.236	4.85
645.269	8.85
645.303	-0.15
645.337	-4.15
645.37	-2.15
645.404	-2.15
645.438	14.85
645.471	3.85
645.505	8.85
645.539	12.85
645.572	-7.15
645.606	5.85
645.64	12.85
645.673	18.85
645.707	29.85
645.741	1.85
645.774	-6.15
645.808	18.85
645.842	7.85
645.875	20.85
645.909	3.85
645.943	-2.15
645.976	10.85
646.01	21.85
646.043	15.85
646.077	24.85
646.111	7.85
646.144	17.85
646.178	17.85
646.212	-9.15
646.245	-0.15
646.279	9.85
646.312	18.85
646.346	23.85
646.38	15.85
646.413	13.85
646.447	9.85
646.48	5.85
646.514	10.85
646.547	11.85
646.581	11.85
646.615	7.85
646.648	-1.15
646.682	8.85
646.715	3.85
646.749	-0.15
646.782	-2.15
646.816	-7.15
646.85	11.85
646.883	-0.15
646.917	7.85
646.95	14.85
646.984	4.85
647.017	-2.15
647.051	23.85
647.084	6.85
647.118	-0.15
647.151	0.85
647.185	19.85
647.218	7.85
647.252	22.85
647.285	4.85
647.319	8.85
647.353	24.85
647.386	34.85
647.42	13.85
647.453	-6.15
647.487	12.85
647.52	19.85
647.553	13.85
647.587	-2.15
647.62	-3.15
647.654	5.85
647.687	9.85
647.721	11.85
647.754	18.85
647.788	-7.15
647.821	-2.15
647.855	8.85
647.888	20.85
647.922	14.85
647.955	-2.15
647.989	16.85
648.022	4.85
648.055	19.85
648.089	10.85
648.122	39.85
648.156	19.85
648.189	0.85
648.223	3.85
648.256	14.85
648.29	-0.15
648.323	-1.15
648.356	25.85
648.39	23.85
648.423	10.85
648.457	-1.15
648.49	17.85
648.523	12.85
648.557	0.85
648.59	4.85
648.624	16.85
648.657	-9.15
648.69	20.85
648.724	12.85
648.757	14.85
648.791	4.85
648.824	10.85
648.857	31.85
648.891	8.85
648.924	20.85
648.957	17.85
648.991	-3.15
649.024	7.85
649.057	0.85
649.091	-12.15
649.124	6.85
649.158	8.85
649.191	37.85
649.224	13.85
649.258	10.85
649.291	13.85
649.324	11.85
649.358	6.85
649.391	14.85
649.424	13.85
649.458	13.85
649.491	6.85
649.524	-9.15
649.557	-3.15
649.591	-24.15
649.624	12.85
649.657	-10.15
649.691	-5.15
649.724	2.85
649.757	4.85
649.791	6.85
649.824	25.85
649.857	18.85
649.89	13.85
649.924	-19.15
649.957	5.85
649.99	4.85
650.023	-4.15
650.057	-0.15
650.09	22.85
650.123	0.85
650.157	22.85
650.19	9.85
650.223	3.85
650.256	4.85
650.29	12.85
650.323	5.85
650.356	19.85
650.389	1.85
650.423	-10.15
650.456	6.85
650.489	13.85
650.522	9.85
650.555	26.85
650.589	21.85
650.622	15.85
650.655	2.85
650.688	6.85
650.721	8.85
650.755	11.85
650.788	1.85
650.821	-2.15
650.854	13.85
650.887	15.85
650.921	5.85
650.954	-12.15
650.987	-5.15
651.02	5.85
651.053	1.85
651.087	-2.15
651.12	16.85
651.153	12.85
651.186	16.85
651.219	-9.15
651.252	18.85
651.286	22.85
651.319	9.85
651.352	-1.15
651.385	15.85
651.418	7.85
651.451	8.85
651.484	24.85
651.518	-0.15
651.551	33.85
651.584	2.85
651.617	9.85
651.65	16.85
651.683	24.85
651.716	-5.15
651.749	-21.15
651.783	11.85
651.816	12.85
651.849	13.85
651.882	8.85
651.915	4.85
651.948	19.85
651.981	1.85
652.014	-9.15
652.047	-5.15
652.08	0.85
652.114	-0.15
652.147	-5.15
652.18	8.85
652.213	24.85
652.246	10.85
652.279	-6.15
652.312	26.85
652.345	11.85
652.378	18.85
652.411	18.85
652.444	13.85
652.477	5.85
652.51	10.85
652.543	-1.15
652.576	7.85
652.609	5.85
652.642	16.85
652.675	12.85
652.709	8.85
652.742	12.85
652.775	16.85
652.808	15.85
652.841	15.85
652.874	22.85
652.907	10.85
652.94	1.85
652.973	-3.15
653.006	-4.15
653.039	6.85
653.072	26.85
653.105	21.85
653.138	2.85
653.171	3.85
653.204	1.85
653.237	2.85
653.27	-5.15
653.303	10.85
653.336	19.85
653.368	3.85
653.401	-2.15
653.434	11.85
653.467	10.85
653.5	-1.15
653.533	-7.15
653.566	18.85
653.599	7.85
653.632	1.85
653.665	4.85
653.698	-2.15
653.731	-5.15
653.764	9.85
653.797	7.85
653.83	7.85
653.863	8.85
653.896	-1.15
653.929	2.85
653.961	4.85
653.994	-2.15
654.027	1.85
654.06	13.85
654.093	-1.15
654.126	4.85
654.159	0.85
654.192	1.85
654.225	-4.15
654.258	2.85
654.29	8.85
654.323	4.85
654.356	4.85
654.389	8.85
654.422	16.85
654.455	4.85
654.488	-5.15
654.521	-18.15
654.553	-11.15
654.586	8.85
654.619	6.85
654.652	9.85
654.685	13.85
654.718	20.85
654.751	7.85
654.783	-21.15
654.816	13.85
654.849	17.85
654.882	-2.15
654.915	7.85
654.948	-1.15
654.98	-0.15
655.013	-8.15
655.046	8.85
655.079	7.85
655.112	21.85
655.144	11.85
655.177	28.85
655.21	5.85
655.243	15.85
655.276	2.85
655.308	0.85
655.341	-2.15
655.374	2.85
655.407	-1.15
655.44	15.85
655.472	8.85
655.505	18.85
655.538	11.85
655.571	13.85
655.603	11.85
655.636	7.85
655.669	31.85
655.702	18.85
655.734	23.85
655.767	26.85
655.8	29.85
655.833	16.85
655.865	27.85
655.898	25.85
655.931	41.85
655.964	41.85
655.996	44.85
656.029	70.85
656.062	63.85
656.095	69.85
656.127	42.85
656.16	109.85
656.193	144.85
656.225	194.85
656.258	267.85
656.291	501.85
656.324	1154.85
656.356	3341.85
656.389	7554.85
656.422	6054.85
656.454	2082.85
656.487	695.85
656.52	260.85
656.552	119.85
656.585	63.85
656.618	54.85
656.65	43.85
656.683	32.85
656.716	33.85
656.748	11.85
656.781	1.85
656.814	3.85
656.846	2.85
656.879	-4.15
656.912	9.85
656.944	-10.15
656.977	-1.15
657.01	18.85
657.042	20.85
657.075	19.85
657.108	-0.15
657.14	18.85
657.173	19.85
657.205	43.85
657.238	9.85
657.271	12.85
657.303	-4.15
657.336	11.85
657.369	16.85
657.401	-10.15
657.434	16.85
657.466	16.85
657.499	3.85
657.532	3.85
657.564	19.85
657.597	1.85
657.629	10.85
657.662	13.85
657.694	8.85
657.727	12.85
657.76	16.85
657.792	-7.15
657.825	-0.15
657.857	13.85
657.89	8.85
657.922	8.85
657.955	3.85
657.987	-4.15
658.02	13.85
658.053	21.85
658.085	18.85
658.118	5.85
658.15	14.85
658.183	19.85
658.215	-2.15
658.248	-9.15
658.28	5.85
658.313	16.85
658.345	23.85
658.378	6.85
658.41	-1.15
658.443	22.85
658.475	11.85
658.508	8.85
658.54	15.85
658.573	-12.15
658.605	8.85
658.638	-4.15
658.67	14.85
658.703	0.85
658.735	-9.15
658.768	8.85
658.8	-16.15
658.833	28.85
658.865	4.85
658.898	1.85
658.93	3.85
658.963	0.85
658.995	-7.15
659.028	5.85
659.06	7.85
659.092	-1.15
659.125	-3.15
659.157	17.85
659.19	-3.15
659.222	1.85
659.255	4.85
659.287	-4.15
659.32	12.85
659.352	5.85
659.384	8.85
659.417	2.85
659.449	4.85
659.482	-0.15
659.514	-3.15
659.546	-14.15
659.579	-13.15
659.611	12.85
659.644	17.85
659.676	5.85
659.708	-11.15
659.741	-18.15
659.773	4.85
659.806	12.85
659.838	6.85
659.87	-2.15
659.903	-13.15
659.935	9.85
659.967	2.85
660	-0.15
660.032	-23.15
660.065	19.85
660.097	13.85
660.129	4.85
660.162	-18.15
660.194	-0.15
660.226	-3.15
660.259	7.85
660.291	-3.15
660.323	-7.15
660.356	1.85
660.388	8.85
660.42	14.85
660.453	21.85
660.485	13.85
660.517	15.85
660.55	8.85
660.582	-3.15
660.614	21.85
660.647	8.85
660.679	-20.15
660.711	-4.15
660.743	-7.15
660.776	-0.15
660.808	1.85
660.84	2.85
660.873	16.85
660.905	-0.15
660.937	-3.15
660.969	2.85
661.002	9.85
661.034	6.85
661.066	-3.15
661.099	14.85
661.131	4.85
661.163	4.85
661.195	1.85
661.228	20.85
661.26	9.85
661.292	16.85
661.324	10.85
661.357	19.85
661.389	17.85
661.421	35.85
661.453	11.85
661.485	9.85
661.518	14.85
661.55	-7.15
661.582	-14.15
661.614	6.85
661.647	8.85
661.679	15.85
661.711	19.85
661.743	-2.15
661.775	2.85
661.808	12.85
661.84	4.85
661.872	7.85
661.904	1.85
661.936	10.85
661.969	-2.15
662.001	1.85
662.033	16.85
662.065	0.85
662.097	9.85
662.129	11.85
662.162	4.85
662.194	20.85
662.226	-1.15
662.258	5.85
662.29	5.85
662.322	-10.15
662.355	-15.15
662.387	6.85
662.419	4.85
662.451	18.85
662.483	25.85
662.515	8.85
662.547	8.85
662.58	-18.15
662.612	2.85
662.644	-8.15
662.676	1.85
662.708	26.85
662.74	2.85
662.772	7.85
662.804	11.85
662.836	7.85
662.869	-7.15
662.901	10.85
662.933	6.85
662.965	8.85
662.997	29.85
663.029	6.85
663.061	-5.15
663.093	4.85
663.125	8.85
663.157	4.85
663.189	1.85
663.221	25.85
663.254	8.85
663.286	24.85
663.318	13.85
663.35	-2.15
663.382	-0.15
663.414	8.85
663.446	10.85
663.478	8.85
663.51	21.85
663.542	-7.15
663.574	4.85
663.606	15.85
663.638	-11.15
663.67	2.85
663.702	15.85
663.734	13.85
663.766	-1.15
663.798	-9.15
663.83	-1.15
663.862	11.85
663.894	7.85
663.926	1.85
663.958	5.85
663.99	10.85
664.022	9.85
664.054	19.85
664.086	3.85
664.118	0.85
664.15	-7.15
664.182	4.85
664.214	10.85
664.246	13.85
664.278	20.85
664.31	16.85
664.342	-0.15
664.374	-2.15
664.406	4.85
664.438	-17.15
664.47	1.85
664.502	5.85
664.534	15.85
664.566	-11.15
664.598	7.85
664.63	-7.15
664.662	-2.15
664.693	4.85
664.725	1.85
664.757	2.85
664.789	-10.15
664.821	6.85
664.853	19.85
664.885	-15.15
664.917	0.85
664.949	12.85
664.981	21.85
665.013	8.85
665.045	5.85
665.076	0.85
665.108	-4.15
665.14	15.85
665.172	10.85
665.204	2.85
665.236	7.85
665.268	20.85
665.3	7.85
665.331	-5.15
665.363	7.85
665.395	6.85
665.427	7.85
665.459	6.85
665.491	17.85
665.523	10.85
665.555	-15.15
665.586	3.85
665.618	8.85
665.65	-21.15
665.682	16.85
665.714	15.85
665.746	17.85
665.777	13.85
665.809	-4.15
665.841	2.85
665.873	-11.15
665.905	8.85
665.937	6.85
665.968	-0.15
666	0.85
666.032	-4.15
666.064	-2.15
666.096	2.85
666.127	8.85
666.159	17.85
666.191	12.85
666.223	6.85
666.255	-3.15
666.286	4.85
666.318	-2.15
666.35	23.85
666.382	13.85
666.413	-0.15
666.445	-0.15
666.477	-0.15
666.509	-3.15
666.54	-2.15
666.572	7.85
666.604	-5.15
666.636	4.85
666.667	17.85
666.699	-7.15
666.731	18.85
666.763	-3.15
666.794	22.85
666.826	18.85
666.858	-2.15
666.89	15.85
666.921	10.85
666.953	9.85
666.985	17.85
667.017	22.85
667.048	14.85
667.08	9.85
667.112	-0.15
667.143	2.85
667.175	15.85
667.207	4.85
667.238	7.85
667.27	10.85
667.302	9.85
667.334	-4.15
667.365	18.85
667.397	9.85
667.429	-3.15
667.46	18.85
667.492	10.85
667.524	5.85
667.555	-3.15
667.587	4.85
667.619	1.85
667.65	-4.15
667.682	9.85
667.714	19.85
667.745	17.85
667.777	22.85
667.808	14.85
667.84	12.85
667.872	-3.15
667.903	10.85
667.935	-3.15
667.967	6.85
667.998	1.85
668.03	3.85
668.061	7.85
668.093	-0.15
668.125	11.85
668.156	11.85
668.188	-6.15
668.22	-1.15
668.251	18.85
668.283	11.85
668.314	6.85
668.346	5.85
668.377	-16.15
668.409	6.85
668.441	11.85
668.472	12.85
668.504	19.85
668.535	14.85
668.567	7.85
668.599	27.85
668.63	10.85
668.662	1.85
668.693	14.85
668.725	2.85
668.756	8.85
668.788	0.85
668.819	1.85
668.851	-0.15
668.882	6.85
668.914	-2.15
668.946	-1.15
668.977	-7.15
669.009	0.85
669.04	-8.15
669.072	4.85
669.103	-3.15
669.135	-3.15
669.166	11.85
669.198	3.85
669.229	11.85
669.261	23.85
669.292	5.85
669.324	16.85
669.355	18.85
669.387	-4.15
669.418	-7.15
669.45	-7.15
669.481	7.85
669.513	21.85
669.544	31.85
669.576	3.85
669.607	13.85
669.639	13.85
669.67	11.85
669.701	10.85
669.733	-8.15
669.764	1.85
669.796	9.85
669.827	-6.15
669.859	7.85
669.89	4.85
669.922	7.85
669.953	-0.15
669.985	10.85
670.016	11.85
670.047	8.85
670.079	2.85
670.11	7.85
670.142	6.85
670.173	7.85
670.204	5.85
670.236	11.85
670.267	5.85
670.299	25.85
670.33	22.85
670.362	2.85
670.393	-11.15
670.424	7.85
670.456	-11.15
670.487	-4.15
670.518	7.85
670.55	17.85
670.581	15.85
670.613	7.85
670.644	-10.15
670.675	-5.15
670.707	-1.15
670.738	3.85
670.769	4.85
670.801	-18.15
670.832	13.85
670.864	8.85
670.895	11.85
670.926	-7.15
670.958	12.85
670.989	-0.15
671.02	-1.15
671.052	-1.15
671.083	2.85
671.114	14.85
671.146	3.85
671.177	6.85
671.208	7.85
671.24	-6.15
671.271	2.85
671.302	6.85
671.333	-1.15
671.365	-3.15
671.396	-7.15
671.427	7.85
671.459	7.85
671.49	20.85
671.521	12.85
671.553	-2.15
671.584	3.85
671.615	-7.15
671.646	21.85
671.678	22.85
671.709	-0.15
671.74	-15.15
671.771	6.85
671.803	-2.15
671.834	8.85
671.865	0.85
671.896	16.85
671.928	9.85
671.959	-7.15
671.99	-1.15
672.021	14.85
672.053	9.85
672.084	13.85
672.115	12.85
672.146	10.85
672.178	-9.15
672.209	2.85
672.24	15.85
672.271	10.85
672.303	1.85
672.334	8.85
672.365	11.85
672.396	-0.15
672.427	17.85
672.459	4.85
672.49	22.85
672.521	17.85
672.552	18.85
672.583	19.85
672.615	4.85
672.646	7.85
672.677	-4.15
672.708	-7.15
672.739	4.85
672.77	19.85
672.802	25.85
672.833	-5.15
672.864	7.85
672.895	-8.15
672.926	-11.15
672.957	-5.15
672.989	1.85
673.02	18.85
673.051	0.85
673.082	8.85
673.113	-12.15
673.144	4.85
673.175	10.85
673.206	-11.15
673.238	7.85
673.269	13.85
673.3	-13.15
673.331	21.85
673.362	11.85
673.393	18.85
673.424	14.85
673.455	11.85
673.487	12.85
673.518	16.85
673.549	0.85
673.58	11.85
673.611	17.85
673.642	6.85
673.673	-9.15
673.704	-7.15
673.735	18.85
673.766	7.85
673.797	12.85
673.828	15.85
673.86	-4.15
673.891	-1.15
673.922	-3.15
673.953	5.85
673.984	8.85
674.015	6.85
674.046	-10.15
674.077	8.85
674.108	-8.15
674.139	-11.15
674.17	13.85
674.201	2.85
674.232	0.85
674.263	-5.15
674.294	5.85
674.325	-11.15
674.356	8.85
674.387	18.85
674.418	4.85
674.449	-11.15
674.48	-14.15
674.511	2.85
674.542	1.85
674.573	-12.15
674.604	14.85
674.635	-6.15
674.666	15.85
674.697	-12.15
674.728	7.85
674.759	11.85
674.79	-7.15
674.821	0.85
674.852	7.85
674.883	1.85
674.914	10.85
674.945	7.85
674.976	-6.15
675.007	2.85
675.038	-6.15
675.069	-2.15
675.1	-1.15
675.131	2.85
675.162	1.85
675.193	0.85
675.224	-1.15
675.254	5.85
675.285	1.85
675.316	6.85
675.347	-5.15
675.378	-4.15
675.409	-14.15
675.44	21.85
675.471	-1.15
675.502	-1.15
675.533	8.85
675.564	15.85
675.595	16.85
675.625	19.85
675.656	7.85
675.687	-6.15
675.718	-18.15
675.749	7.85
675.78	13.85
675.811	4.85
675.842	-1.15
675.873	7.85
675.903	7.85
675.934	-1.15
675.965	16.85
675.996	-18.15
676.027	11.85
676.058	10.85
676.089	-0.15
676.119	-0.15
676.15	-18.15
676.181	-7.15
676.212	5.85
676.243	10.85
676.274	2.85
676.304	18.85
676.335	-7.15
676.366	7.85
676.397	9.85
676.428	6.85
676.459	16.85
676.489	13.85
676.52	4.85
676.551	10.85
676.582	-3.15
676.613	10.85
676.643	-0.15
676.674	4.85
676.705	13.85
676.736	6.85
676.767	17.85
676.797	12.85
676.828	13.85
676.859	5.85
676.89	3.85
676.92	6.85
676.951	8.85
676.982	17.85
677.013	-0.15
677.044	25.85
677.074	3.85
677.105	7.85
677.136	15.85
677.167	17.85
677.197	5.85
677.228	-6.15
677.259	-21.15
677.289	-5.15
677.32	-17.15
677.351	0.85
677.382	12.85
677.412	-3.15
677.443	28.85
677.474	-4.15
677.505	10.85
677.535	-1.15
677.566	-0.15
677.597	-10.15
677.627	-9.15
677.658	0.85
677.689	-6.15
677.72	-0.15
677.75	0.85
677.781	4.85
677.812	16.85
677.842	10.85
677.873	7.85
677.904	13.85
677.934	9.85
677.965	-4.15
677.996	-28.15
678.026	-19.15
678.057	-11.15
678.088	-14.15
678.118	-1.15
678.149	-1.15
678.18	-11.15
678.21	10.85
678.241	-0.15
678.272	7.85
678.302	-1.15
678.333	4.85
678.363	19.85
678.394	8.85
678.425	-5.15
678.455	15.85
678.486	13.85
678.517	15.85
678.547	14.85
678.578	9.85
678.608	-5.15
678.639	4.85
678.67	14.85
678.7	-1.15
678.731	-2.15
678.761	-16.15
678.792	-1.15
678.823	19.85
678.853	1.85
678.884	-7.15
678.914	15.85
678.945	4.85
678.975	-1.15
679.006	8.85
679.037	5.85
679.067	41.85
679.098	5.85
679.128	1.85
679.159	1.85
679.189	10.85
679.22	-9.15
679.25	-10.15
679.281	-6.15
679.312	-9.15
679.342	15.85
679.373	34.85
679.403	11.85
679.434	3.85
679.464	0.85
679.495	7.85
679.525	-0.15
679.556	-0.15
679.586	1.85
679.617	14.85
679.647	16.85
679.678	0.85
679.708	-8.15
679.739	4.85
679.769	-1.15
679.8	-0.15
679.83	3.85
679.861	9.85
679.891	-1.15
679.922	-14.15
679.952	7.85
679.983	17.85
680.013	5.85
680.044	-24.15
680.074	3.85
680.105	18.85
680.135	8.85
680.165	9.85
680.196	10.85
680.226	5.85
680.257	15.85
680.287	-3.15
680.318	3.85
680.348	-3.15
680.379	12.85
680.409	8.85
680.439	-8.15
680.47	-5.15
680.5	5.85
680.531	-1.15
680.561	1.85
680.592	7.85
680.622	27.85
680.652	4.85
680.683	14.85
680.713	-5.15
680.744	1.85
680.774	-2.15
680.804	5.85
680.835	-4.15
680.865	-0.15
680.896	8.85
680.926	28.85
680.956	21.85
680.987	11.85
681.017	8.85
681.047	16.85
681.078	4.85
681.108	10.85
681.139	2.85
681.169	7.85
681.199	2.85
681.23	19.85
681.26	8.85
681.29	11.85
681.321	-8.15
681.351	3.85
681.381	-5.15
681.412	2.85
681.442	16.85
681.472	8.85
681.503	11.85
681.533	-3.15
681.563	4.85
681.594	2.85
681.624	0.85
681.654	2.85
681.685	-2.15
681.715	7.85
681.745	-4.15
681.775	0.85
681.806	15.85
681.836	0.85
681.866	-15.15
681.897	-3.15
681.927	-8.15
681.957	-20.15
681.987	21.85
682.018	15.85
682.048	16.85
682.078	9.85
682.109	4.85
682.139	23.85
682.169	1.85
682.199	-2.15
682.23	-0.15
682.26	20.85
682.29	8.85
682.32	-8.15
682.351	12.85
682.381	7.85
682.411	1.85
682.441	-7.15
682.472	4.85
682.502	3.85
682.532	4.85
682.562	1.85
682.592	21.85
682.623	12.85
682.653	-2.15
682.683	-12.15
682.713	8.85
682.743	17.85
682.774	16.85
682.804	-4.15
682.834	8.85
682.864	-4.15
682.894	6.85
682.925	-3.15
682.955	6.85
682.985	-7.15
683.015	18.85
683.045	14.85
683.076	5.85
683.106	8.85
683.136	6.85
683.166	-9.15
683.196	9.85
683.226	-7.15
683.257	-10.15
683.287	5.85
683.317	-0.15
683.347	0.85
683.377	4.85
683.407	7.85
683.437	8.85
683.468	28.85
683.498	-3.15
683.528	1.85
683.558	-6.15
683.588	-9.15
683.618	9.85
683.648	-3.15
683.678	-0.15
683.708	6.85
683.739	-0.15
683.769	10.85
683.799	-0.15
683.829	2.85
683.859	9.85
683.889	15.85
683.919	-8.15
683.949	13.85
683.979	1.85
684.009	5.85
684.039	-1.15
684.07	-18.15
684.1	3.85
684.13	4.85
684.16	-11.15
684.19	8.85
684.22	-5.15
684.25	-9.15
684.28	-15.15
684.31	29.85
684.34	12.85
684.37	10.85
684.4	-15.15
684.43	1.85
684.46	10.85
684.49	4.85
684.52	1.85
684.55	12.85
684.58	3.85
684.61	3.85
684.64	-2.15
684.67	10.85
684.7	13.85
684.73	5.85
684.76	-6.15
684.79	21.85
684.82	-2.15
684.85	-3.15
684.88	5.85
684.91	-3.15
684.94	3.85
684.97	-7.15
685	4.85
685.03	-1.15
685.06	0.85
685.09	6.85
685.12	0.85
685.15	0.85
685.18	19.85
685.21	24.85
685.24	17.85
685.27	14.85
685.3	5.85
685.33	12.85
685.36	6.85
685.39	3.85
685.42	-6.15
685.45	-0.15
685.48	5.85
685.51	6.85
685.54	20.85
685.569	9.85
685.599	-0.15
685.629	22.85
685.659	12.85
685.689	9.85
685.719	1.85
685.749	-12.15
685.779	3.85
685.809	2.85
685.839	8.85
685.869	3.85
685.898	1.85
685.928	3.85
685.958	6.85
685.988	17.85
686.018	6.85
686.048	-4.15
686.078	11.85
686.108	11.85
686.137	10.85
686.167	24.85
686.197	1.85
686.227	19.85
686.257	22.85
686.287	14.85
686.317	13.85
686.346	5.85
686.376	1.85
686.406	-0.15
686.436	13.85
686.466	-2.15
686.496	7.85
686.525	14.85
686.555	-14.15
686.585	10.85
686.615	23.85
686.645	19.85
686.675	4.85
686.704	21.85
686.734	15.85
686.764	-3.15
686.794	-3.15
686.824	-5.15
686.853	8.85
686.883	28.85
686.913	15.85
686.943	10.85
686.973	-7.15
687.002	13.85
687.032	13.85
687.062	-6.15
687.092	30.85
687.121	-1.15
687.151	-4.15
687.181	7.85
687.211	2.85
687.24	4.85
687.27	15.85
687.3	11.85
687.33	4.85
687.359	-17.15
687.389	-5.15
687.419	2.85
687.449	-6.15
687.478	27.85
687.508	13.85
687.538	9.85
687.568	6.85
687.597	-2.15
687.627	4.85
687.657	3.85
687.686	9.85
687.716	33.85
687.746	-1.15
687.776	2.85
687.805	5.85
687.835	20.85
687.865	28.85
687.894	25.85
687.924	9.85
687.954	1.85
687.983	5.85
688.013	24.85
688.043	10.85
688.072	1.85
688.102	21.85
688.132	1.85
688.161	-8.15
688.191	-4.15
688.221	32.85
688.25	-10.15
688.28	23.85
688.31	5.85
688.339	15.85
688.369	6.85
688.399	8.85
688.428	7.85
688.458	15.85
688.488	11.85
688.517	7.85
688.547	1.85
688.576	37.85
688.606	14.85
688.636	-11.15
688.665	1.85
688.695	24.85
688.725	9.85
688.754	13.85
688.784	0.85
688.813	14.85
688.843	5.85
688.873	-12.15
688.902	-2.15
688.932	-9.15
688.961	5.85
688.991	21.85
689.02	27.85
689.05	-10.15
689.08	19.85
689.109	7.85
689.139	7.85
689.168	3.85
689.198	-0.15
689.227	6.85
689.257	24.85
689.287	29.85
689.316	13.85
689.346	2.85
689.375	2.85
689.405	22.85
689.434	3.85
689.464	2.85
689.493	12.85
689.523	-5.15
689.552	-2.15
689.582	10.85
689.611	-0.15
689.641	7.85
689.67	6.85
689.7	17.85
689.73	10.85
689.759	15.85
689.789	4.85
689.818	8.85
689.848	3.85
689.877	12.85
689.906	-1.15
689.936	-3.15
689.965	8.85
689.995	10.85
690.024	5.85
690.054	11.85
690.083	1.85
690.113	1.85
690.142	-8.15
690.172	4.85
690.201	9.85
690.231	10.85
690.26	30.85
690.29	-3.15
690.319	16.85
690.348	10.85
690.378	12.85
690.407	24.85
690.437	16.85
690.466	0.85
690.496	-9.15
690.525	3.85
690.555	-4.15
690.584	5.85
690.613	-6.15
690.643	-6.15
690.672	3.85
690.702	13.85
690.731	2.85
690.76	1.85
690.79	0.85
690.819	-0.15
690.849	4.85
690.878	1.85
690.907	11.85
690.937	15.85
690.966	20.85
690.996	6.85
691.025	13.85
691.054	7.85
691.084	25.85
691.113	3.85
691.142	18.85
691.172	6.85
691.201	17.85
691.23	-0.15
691.26	17.85
691.289	22.85
691.319	14.85
691.348	11.85
691.377	29.85
691.407	-3.15
691.436	16.85
691.465	20.85
691.495	24.85
691.524	-10.15
691.553	-1.15
691.583	-20.15
691.612	22.85
691.641	14.85
691.67	7.85
691.7	3.85
691.729	-14.15
691.758	-0.15
691.788	6.85
691.817	-5.15
691.846	-3.15
691.876	4.85
691.905	9.85
691.934	1.85
691.963	21.85
691.993	12.85
692.022	15.85
692.051	7.85
692.081	23.85
692.11	29.85
692.139	4.85
692.168	11.85
692.198	28.85
692.227	16.85
692.256	11.85
692.285	5.85
692.315	-6.15
692.344	17.85
692.373	13.85
692.402	-5.15
692.432	-14.15
692.461	3.85
692.49	-9.15
692.519	8.85
692.548	18.85
692.578	34.85
692.607	-10.15
692.636	-8.15
692.665	25.85
692.694	-2.15
692.724	3.85
692.753	1.85
692.782	23.85
692.811	4.85
692.84	10.85
692.87	10.85
692.899	0.85
692.928	10.85
692.957	16.85
692.986	13.85
693.016	1.85
693.045	22.85
693.074	15.85
693.103	-0.15
693.132	-0.15
693.161	28.85
693.191	3.85
693.22	4.85
693.249	8.85
693.278	9.85
693.307	23.85
693.336	-5.15
693.365	17.85
693.395	3.85
693.424	9.85
693.453	20.85
693.482	13.85
693.511	9.85
693.54	14.85
693.569	24.85
693.598	7.85
693.628	4.85
693.657	13.85
693.686	26.85
693.715	26.85
693.744	15.85
693.773	18.85
693.802	3.85
693.831	9.85
693.86	27.85
693.889	7.85
693.919	18.85
693.948	4.85
693.977	11.85
694.006	5.85
694.035	2.85
694.064	3.85
694.093	4.85
694.122	24.85
694.151	-5.15
694.18	9.85
694.209	12.85
694.238	7.85
694.267	8.85
694.296	15.85
694.325	13.85
694.354	10.85
694.383	19.85
694.412	7.85
694.441	-0.15
694.471	-4.15
694.5	-7.15
694.529	-1.15
694.558	21.85
694.587	14.85
694.616	8.85
694.645	11.85
694.674	32.85
694.703	21.85
694.732	8.85
694.761	24.85
694.79	22.85
694.819	-6.15
694.848	8.85
694.877	23.85
694.906	24.85
694.935	18.85
694.963	16.85
694.992	8.85
695.021	12.85
695.05	4.85
695.079	16.85
695.108	-4.15
695.137	31.85
695.166	16.85
695.195	-6.15
695.224	6.85
695.253	22.85
695.282	15.85
695.311	24.85
695.34	9.85
695.369	5.85
695.398	11.85
695.427	23.85
695.456	12.85
695.485	6.85
695.513	14.85
695.542	3.85
695.571	4.85
695.6	30.85
695.629	-1.15
695.658	1.85
695.687	-7.15
695.716	18.85
695.745	30.85
695.774	7.85
695.802	14.85
695.831	18.85
695.86	24.85
695.889	23.85
695.918	6.85
695.947	15.85
695.976	1.85
696.005	6.85
696.033	15.85
696.062	21.85
696.091	19.85
696.12	10.85
696.149	15.85
696.178	3.85
696.207	25.85
696.235	-12.15
696.264	18.85
696.293	21.85
696.322	4.85
696.351	-4.15
696.38	9.85
696.408	8.85
696.437	12.85
696.466	17.85
696.495	13.85
696.524	20.85
696.553	1.85
696.581	13.85
696.61	7.85
696.639	1.85
696.668	5.85
696.697	-6.15
696.725	1.85
696.754	-4.15
696.783	-8.15
696.812	7.85
696.84	12.85
696.869	22.85
696.898	8.85
696.927	10.85
696.956	9.85
696.984	8.85
697.013	-11.15
697.042	1.85
697.071	3.85
697.099	3.85
697.128	1.85
697.157	-0.15
697.186	-11.15
697.214	-2.15
697.243	3.85
697.272	12.85
697.301	11.85
697.329	19.85
697.358	24.85
697.387	21.85
697.415	12.85
697.444	7.85
697.473	-0.15
697.502	-0.15
697.53	18.85
697.559	0.85
697.588	-2.15
697.616	0.85
697.645	6.85
697.674	20.85
697.703	7.85
697.731	14.85
697.76	7.85
697.789	1.85
697.817	-2.15
697.846	28.85
697.875	6.85
697.903	24.85
697.932	24.85
697.961	3.85
697.989	22.85
698.018	17.85
698.047	4.85
698.075	10.85
698.104	14.85
698.133	10.85
698.161	11.85
698.19	13.85
698.218	10.85
698.247	22.85
698.276	24.85
698.304	14.85
698.333	9.85
698.362	-2.15
698.39	7.85
698.419	19.85
698.447	1.85
698.476	6.85
698.505	30.85
698.533	12.85
698.562	1.85
698.591	1.85
698.619	1.85
698.648	2.85
698.676	18.85
698.705	1.85
698.733	-14.15
698.762	14.85
698.791	13.85
698.819	17.85
698.848	7.85
698.876	-1.15
698.905	10.85
698.933	27.85
698.962	0.85
698.991	12.85
699.019	19.85
699.048	19.85
699.076	-3.15
699.105	-2.15
699.133	8.85
699.162	15.85
699.19	21.85
699.219	11.85
699.248	4.85
699.276	-2.15
699.305	5.85
699.333	8.85
699.362	11.85
699.39	19.85
699.419	3.85
699.447	18.85
699.476	1.85
699.504	-2.15
699.533	24.85
699.561	-5.15
699.59	9.85
699.618	8.85
699.647	11.85
699.675	11.85
699.704	21.85
699.732	12.85
699.761	24.85
699.789	-2.15
699.818	17.85
699.846	21.85
699.874	5.85
699.903	3.85
699.931	3.85
699.96	4.85
699.988	5.85
700.017	7.85
700.045	-7.15
700.074	8.85
700.102	-6.15
700.13	8.85
700.159	5.85
700.187	5.85
700.216	-3.15
700.244	3.85
700.273	13.85
700.301	17.85
700.329	11.85
700.358	11.85
700.386	-2.15
700.415	4.85
700.443	-8.15
700.472	-0.15
700.5	8.85
700.528	2.85
700.557	10.85
700.585	0.85
700.614	3.85
700.642	15.85
700.67	11.85
700.699	5.85
700.727	0.85
700.755	4.85
700.784	-4.15
700.812	3.85
700.841	6.85
700.869	2.85
700.897	-11.15
700.926	-6.15
700.954	25.85
700.982	5.85
701.011	-6.15
701.039	13.85
701.067	12.85
701.096	7.85
701.124	10.85
701.152	5.85
701.181	-3.15
701.209	-3.15
701.237	-0.15
701.266	-2.15
701.294	-3.15
701.322	13.85
701.351	19.85
701.379	8.85
701.407	7.85
701.435	5.85
701.464	29.85
701.492	21.85
701.52	5.85
701.549	-2.15
701.577	5.85
701.605	-0.15
701.634	12.85
701.662	15.85
701.69	5.85
701.718	1.85
701.747	7.85
701.775	13.85
701.803	7.85
701.831	12.85
701.86	-13.15
701.888	18.85
701.916	7.85
701.944	9.85
701.973	-1.15
702.001	7.85
702.029	-12.15
702.057	-13.15
702.086	-6.15
702.114	0.85
702.142	7.85
702.17	-1.15
702.199	10.85
702.227	15.85
702.255	7.85
702.283	5.85
702.311	8.85
702.34	6.85
702.368	-3.15
702.396	-2.15
702.424	-4.15
702.452	5.85
702.481	10.85
702.509	-0.15
702.537	0.85
702.565	14.85
702.593	-16.15
702.621	13.85
702.65	7.85
702.678	-1.15
702.706	10.85
702.734	8.85
702.762	-7.15
702.79	-0.15
702.819	1.85
702.847	-3.15
702.875	7.85
702.903	7.85
702.931	-1.15
702.959	12.85
702.988	11.85
703.016	-6.15
703.044	1.85
703.072	12.85
703.1	-0.15
703.128	12.85
703.156	2.85
703.184	3.85
703.212	9.85
703.241	3.85
703.269	12.85
703.297	6.85
703.325	3.85
703.353	3.85
703.381	-7.15
703.409	-2.15
703.437	0.85
703.465	1.85
703.493	3.85
703.522	13.85
703.55	25.85
703.578	23.85
703.606	-16.15
703.634	-5.15
703.662	-1.15
703.69	8.85
703.718	20.85
703.746	0.85
703.774	10.85
703.802	16.85
703.83	8.85
703.858	3.85
703.886	-4.15
703.914	-4.15
703.942	14.85
703.97	6.85
703.998	1.85
704.027	24.85
704.055	15.85
704.083	-3.15
704.111	-3.15
704.139	-0.15
704.167	0.85
704.195	7.85
704.223	-8.15
704.251	3.85
704.279	14.85
704.307	7.85
704.335	-2.15
704.363	13.85
704.391	15.85
704.419	3.85
704.447	3.85
704.475	12.85
704.503	10.85
704.531	25.85
704.558	9.85
704.586	5.85
704.614	-4.15
704.642	1.85
704.67	5.85
704.698	-2.15
704.726	13.85
704.754	-6.15
704.782	0.85
704.81	3.85
704.838	17.85
704.866	6.85
704.894	-6.15
704.922	6.85
704.95	18.85
704.978	12.85
705.006	2.85
705.034	13.85
705.061	6.85
705.089	6.85
705.117	-6.15
705.145	-5.15
705.173	5.85
705.201	15.85
705.229	17.85
705.257	8.85
705.285	8.85
705.313	17.85
705.34	-6.15
705.368	2.85
705.396	6.85
705.424	8.85
705.452	12.85
705.48	3.85
705.508	2.85
705.536	-10.15
705.563	0.85
705.591	21.85
705.619	23.85
705.647	-1.15
705.675	4.85
705.703	8.85
705.731	-8.15
705.758	8.85
705.786	6.85
705.814	26.85
705.842	5.85
705.87	24.85
705.898	20.85
705.925	12.85
705.953	8.85
705.981	-4.15
706.009	-2.15
706.037	11.85
706.065	2.85
706.092	-7.15
706.12	2.85
706.148	7.85
706.176	1.85
706.204	21.85
706.231	11.85
706.259	-5.15
706.287	3.85
706.315	-5.15
706.342	-7.15
706.37	17.85
706.398	19.85
706.426	10.85
706.454	2.85
706.481	2.85
706.509	18.85
706.537	13.85
706.565	-22.15
706.592	12.85
706.62	8.85
706.648	3.85
706.676	-4.15
706.703	6.85
706.731	2.85
706.759	4.85
706.787	7.85
706.814	13.85
706.842	-1.15
706.87	10.85
706.897	4.85
706.925	4.85
706.953	17.85
706.981	5.85
707.008	8.85
707.036	-2.15
707.064	-2.15
707.091	-5.15
707.119	5.85
707.147	-17.15
707.174	3.85
707.202	11.85
707.23	-14.15
707.258	4.85
707.285	0.85
707.313	7.85
707.341	-4.15
707.368	-0.15
707.396	4.85
707.424	35.85
707.451	9.85
707.479	8.85
707.507	13.85
707.534	0.85
707.562	3.85
707.59	-0.15
707.617	-0.15
707.645	-18.15
707.672	6.85
707.7	4.85
707.728	7.85
707.755	16.85
707.783	7.85
707.811	19.85
707.838	8.85
707.866	7.85
707.893	5.85
707.921	-7.15
707.949	-3.15
707.976	3.85
708.004	-1.15
708.031	3.85
708.059	1.85
708.087	-9.15
708.114	2.85
708.142	9.85
708.169	10.85
708.197	-9.15
708.225	-3.15
708.252	-1.15
708.28	2.85
708.307	-3.15
708.335	18.85
708.362	0.85
708.39	-3.15
708.418	17.85
708.445	6.85
708.473	-10.15
708.5	11.85
708.528	23.85
708.555	9.85
708.583	-10.15
708.61	2.85
708.638	-5.15
708.665	-5.15
708.693	8.85
708.72	7.85
708.748	1.85
708.776	-0.15
708.803	11.85
708.831	4.85
708.858	11.85
708.886	-7.15
708.913	1.85
708.941	10.85
708.968	17.85
708.996	3.85
709.023	22.85
709.051	1.85
709.078	-3.15
709.105	-9.15
709.133	4.85
709.16	6.85
709.188	14.85
709.215	3.85
709.243	8.85
709.27	1.85
709.298	-5.15
709.325	4.85
709.353	10.85
709.38	9.85
709.408	9.85
709.435	9.85
709.462	0.85
709.49	-4.15
709.517	-6.15
709.545	-11.15
709.572	-2.15
709.6	0.85
709.627	16.85
709.655	-0.15
709.682	8.85
709.709	1.85
709.737	0.85
709.764	8.85
709.792	15.85
709.819	20.85
709.846	1.85
709.874	6.85
709.901	15.85
709.929	31.85
709.956	15.85
709.983	4.85
710.011	-7.15
710.038	-2.15
710.066	8.85
710.093	19.85
710.12	25.85
710.148	10.85
710.175	-0.15
710.202	-7.15
710.23	8.85
710.257	25.85
710.284	16.85
710.312	13.85
710.339	13.85
710.366	11.85
710.394	-0.15
710.421	3.85
710.448	12.85
710.476	3.85
710.503	4.85
710.53	14.85
710.558	13.85
710.585	9.85
710.612	-15.15
710.64	5.85
710.667	8.85
710.694	-6.15
710.722	6.85
710.749	10.85
710.776	-9.15
710.804	24.85
710.831	10.85
710.858	7.85
710.885	6.85
710.913	6.85
710.94	23.85
710.967	7.85
710.995	2.85
711.022	-2.15
711.049	1.85
711.076	2.85
711.104	7.85
711.131	-11.15
711.158	2.85
711.185	20.85
711.213	3.85
711.24	-9.15
711.267	-5.15
711.294	-6.15
711.322	2.85
711.349	-6.15
711.376	-4.15
711.403	11.85
711.431	9.85
711.458	-2.15
711.485	-6.15
711.512	6.85
711.54	1.85
711.567	4.85
711.594	9.85
711.621	1.85
711.648	7.85
711.676	13.85
711.703	13.85
711.73	-15.15
711.757	15.85
711.784	-1.15
711.812	-3.15
711.839	7.85
711.866	-6.15
711.893	-3.15
711.92	1.85
711.947	-4.15
711.975	21.85
712.002	8.85
712.029	17.85
712.056	14.85
712.083	6.85
712.11	-14.15
712.138	3.85
712.165	-12.15
712.192	-14.15
712.219	-11.15
712.246	-1.15
712.273	3.85
712.3	-4.15
712.328	-6.15
712.355	11.85
712.382	14.85
712.409	19.85
712.436	-19.15
712.463	10.85
712.49	16.85
712.517	10.85
712.544	11.85
712.572	5.85
712.599	-12.15
712.626	9.85
712.653	-4.15
712.68	-9.15
712.707	4.85
712.734	13.85
712.761	12.85
712.788	18.85
712.815	6.85
712.842	3.85
712.87	6.85
712.897	6.85
712.924	-7.15
712.951	12.85
712.978	8.85
713.005	27.85
713.032	32.85
713.059	-2.15
713.086	4.85
713.113	-7.15
713.14	-16.15
713.167	6.85
713.194	8.85
713.221	-2.15
713.248	3.85
713.275	17.85
713.302	4.85
713.329	-2.15
713.356	1.85
713.383	7.85
713.41	12.85
713.437	-2.15
713.464	11.85
713.491	11.85
713.518	10.85
713.545	6.85
713.572	10.85
713.599	13.85
713.626	4.85
713.653	23.85
713.68	-0.15
713.707	-4.15
713.734	-3.15
713.761	-5.15
713.788	5.85
713.815	5.85
713.842	-0.15
713.869	-4.15
713.896	-0.15
713.923	0.85
713.95	13.85
713.977	10.85
714.004	-4.15
714.031	8.85
714.058	-5.15
714.085	3.85
714.112	17.85
714.139	-6.15
714.165	-6.15
714.192	-6.15
714.219	11.85
714.246	3.85
714.273	5.85
714.3	6.85
714.327	13.85
714.354	7.85
714.381	4.85
714.408	-4.15
714.435	-2.15
714.461	8.85
714.488	15.85
714.515	-4.15
714.542	-12.15
714.569	-3.15
714.596	-4.15
714.623	-0.15
714.65	4.85
714.677	11.85
714.703	4.85
714.73	8.85
714.757	5.85
714.784	6.85
714.811	-1.15
714.838	3.85
714.865	6.85
714.891	18.85
714.918	15.85
714.945	-2.15
714.972	9.85
714.999	21.85
715.026	1.85
715.052	1.85
715.079	-6.15
715.106	-1.15
715.133	6.85
715.16	-8.15
715.187	19.85
715.213	20.85
715.24	-1.15
715.267	8.85
715.294	7.85
715.321	10.85
715.347	11.85
715.374	4.85
715.401	-3.15
715.428	3.85
715.455	18.85
715.481	-7.15
715.508	12.85
715.535	4.85
715.562	17.85
715.588	7.85
715.615	3.85
715.642	-3.15
715.669	17.85
715.695	6.85
715.722	6.85
715.749	14.85
715.776	11.85
715.802	9.85
715.829	4.85
715.856	4.85
715.883	14.85
715.909	-2.15
715.936	6.85
715.963	16.85
715.99	-6.15
716.016	0.85
716.043	13.85
716.07	12.85
716.096	-2.15
716.123	6.85
716.15	3.85
716.177	-9.15
716.203	15.85
716.23	8.85
716.257	9.85
716.283	19.85
716.31	12.85
716.337	11.85
716.363	7.85
716.39	16.85
716.417	20.85
716.443	-2.15
716.47	12.85
716.497	12.85
716.523	12.85
716.55	1.85
716.577	17.85
716.603	1.85
716.63	4.85
716.657	5.85
716.683	-0.15
716.71	-5.15
716.737	-10.15
716.763	7.85
716.79	8.85
716.817	25.85
716.843	13.85
716.87	12.85
716.897	-2.15
716.923	5.85
716.95	-1.15
716.976	8.85
717.003	-3.15
717.03	10.85
717.056	13.85
717.083	10.85
717.109	20.85
717.136	16.85
717.163	1.85
717.189	4.85
717.216	15.85
717.242	12.85
717.269	12.85
717.296	9.85
717.322	7.85
717.349	12.85
717.375	10.85
717.402	-2.15
717.428	8.85
717.455	11.85
717.481	-1.15
717.508	11.85
717.535	27.85
717.561	13.85
717.588	1.85
717.614	-0.15
717.641	10.85
717.667	-2.15
717.694	8.85
717.72	8.85
717.747	15.85
717.773	1.85
717.8	23.85
717.826	12.85
717.853	16.85
717.88	9.85
717.906	13.85
717.933	10.85
717.959	0.85
717.986	13.85
718.012	3.85
718.039	21.85
718.065	11.85
718.092	20.85
718.118	-0.15
718.144	6.85
718.171	13.85
718.197	29.85
718.224	0.85
718.25	18.85
718.277	23.85
718.303	10.85
718.33	-0.15
718.356	-12.15
718.383	-2.15
718.409	-4.15
718.436	9.85
718.462	8.85
718.489	-11.15
718.515	18.85
718.541	21.85
718.568	21.85
718.594	6.85
718.621	6.85
718.647	-4.15
718.674	11.85
718.7	14.85
718.726	-2.15
718.753	13.85
718.779	11.85
718.806	-2.15
718.832	5.85
718.858	-1.15
718.885	-0.15
718.911	-5.15
718.938	3.85
718.964	-5.15
718.99	3.85
719.017	0.85
719.043	3.85
719.07	14.85
719.096	-8.15
719.122	3.85
719.149	1.85
719.175	2.85
719.201	-5.15
719.228	-2.15
719.254	0.85
719.281	-2.15
719.307	-0.15
719.333	-0.15
719.36	11.85
719.386	3.85
719.412	9.85
719.439	5.85
719.465	8.85
719.491	-10.15
719.518	17.85
719.544	16.85
719.57	11.85
719.597	-1.15
719.623	-6.15
719.649	3.85
719.675	9.85
719.702	1.85
719.728	11.85
719.754	-0.15
719.781	7.85
719.807	8.85
719.833	0.85
719.86	-5.15
719.886	0.85
719.912	4.85
719.938	-10.15
719.965	6.85
719.991	8.85
720.017	8.85
720.044	-12.15
720.07	15.85
720.096	8.85
720.122	14.85
720.149	29.85
720.175	18.85
720.201	3.85
720.227	-0.15
720.254	-2.15
720.28	11.85
720.306	-1.15
720.332	9.85
720.359	15.85
720.385	6.85
720.411	7.85
720.437	11.85
720.463	1.85
720.49	23.85
720.516	6.85
720.542	-3.15
720.568	2.85
720.595	16.85
720.621	-3.15
720.647	2.85
720.673	11.85
720.699	2.85
720.725	1.85
720.752	7.85
720.778	-2.15
720.804	10.85
720.83	8.85
720.856	2.85
720.883	-6.15
720.909	19.85
720.935	11.85
720.961	22.85
720.987	6.85
721.013	8.85
721.04	-3.15
721.066	4.85
721.092	12.85
721.118	22.85
721.144	20.85
721.17	12.85
721.196	7.85
721.223	-0.15
721.249	-20.15
721.275	20.85
721.301	4.85
721.327	3.85
721.353	13.85
721.379	-1.15
721.405	3.85
721.432	10.85
721.458	-0.15
721.484	20.85
721.51	-24.15
721.536	-7.15
721.562	7.85
721.588	3.85
721.614	-7.15
721.64	-0.15
721.666	0.85
721.693	-2.15
721.719	17.85
721.745	-4.15
721.771	5.85
721.797	0.85
721.823	6.85
721.849	1.85
721.875	-2.15
721.901	12.85
721.927	12.85
721.953	7.85
721.979	20.85
722.005	2.85
722.031	3.85
722.057	-0.15
722.083	-1.15
722.109	6.85
722.135	15.85
722.161	15.85
722.187	7.85
722.214	-4.15
722.24	9.85
722.266	0.85
722.292	14.85
722.318	7.85
722.344	15.85
722.37	3.85
722.396	17.85
722.422	-8.15
722.448	0.85
722.474	3.85
722.5	22.85
722.526	17.85
722.552	1.85
722.578	8.85
722.603	32.85
722.629	-4.15
722.655	13.85
722.681	-3.15
722.707	-8.15
722.733	5.85
722.759	3.85
722.785	5.85
722.811	-1.15
722.837	0.85
722.863	23.85
722.889	25.85
722.915	16.85
722.941	12.85
722.967	-6.15
722.993	11.85
723.019	7.85
723.045	1.85
723.071	10.85
723.097	8.85
723.122	20.85
723.148	1.85
723.174	3.85
723.2	16.85
723.226	8.85
723.252	10.85
723.278	11.85
723.304	-2.15
723.33	1.85
723.356	1.85
723.381	-0.15
723.407	-3.15
723.433	28.85
723.459	-5.15
723.485	-2.15
723.511	10.85
723.537	-1.15
723.563	10.85
723.588	13.85
723.614	20.85
723.64	14.85
723.666	8.85
723.692	9.85
723.718	-7.15
723.744	-10.15
723.769	-2.15
723.795	-4.15
723.821	19.85
723.847	17.85
723.873	-4.15
723.899	3.85
723.924	15.85
723.95	21.85
723.976	-15.15
724.002	-1.15
724.028	-4.15
724.053	8.85
724.079	-5.15
724.105	6.85
724.131	-1.15
724.157	9.85
724.182	4.85
724.208	8.85
724.234	15.85
724.26	0.85
724.286	17.85
724.311	-1.15
724.337	-7.15
724.363	-4.15
724.389	8.85
724.415	-4.15
724.44	33.85
724.466	7.85
724.492	4.85
724.518	8.85
724.543	-4.15
724.569	3.85
724.595	3.85
724.621	-2.15
724.646	-12.15
724.672	-6.15
724.698	-6.15
724.723	-9.15
724.749	19.85
724.775	16.85
724.801	15.85
724.826	5.85
724.852	-2.15
724.878	-1.15
724.904	-1.15
724.929	8.85
724.955	-7.15
724.981	-9.15
725.006	1.85
725.032	0.85
725.058	14.85
725.083	4.85
725.109	-0.15
725.135	7.85
725.161	2.85
725.186	-2.15
725.212	-4.15
725.238	5.85
725.263	0.85
725.289	4.85
725.315	-4.15
725.34	20.85
725.366	12.85
725.392	-0.15
725.417	12.85
725.443	7.85
725.468	2.85
725.494	22.85
725.52	33.85
725.545	7.85
725.571	3.85
725.597	4.85
725.622	17.85
725.648	16.85
725.674	10.85
725.699	7.85
725.725	4.85
725.75	41.85
725.776	4.85
725.802	8.85
725.827	7.85
725.853	-1.15
725.878	6.85
725.904	-4.15
725.93	6.85
725.955	4.85
725.981	-4.15
726.006	-0.15
726.032	20.85
726.057	0.85
726.083	0.85
726.109	-0.15
726.134	-6.15
726.16	7.85
726.185	-9.15
726.211	-11.15
726.236	16.85
726.262	12.85
726.288	8.85
726.313	19.85
726.339	19.85
726.364	0.85
726.39	-6.15
726.415	10.85
726.441	9.85
726.466	-1.15
726.492	-2.15
726.517	29.85
726.543	-5.15
726.568	12.85
726.594	4.85
726.619	16.85
726.645	17.85
726.67	4.85
726.696	-1.15
726.721	-8.15
726.747	-8.15
726.772	-2.15
726.798	1.85
726.823	13.85
726.849	1.85
726.874	6.85
726.9	20.85
726.925	10.85
726.951	-2.15
726.976	13.85
727.002	3.85
727.027	2.85
727.053	1.85
727.078	-4.15
727.104	11.85
727.129	1.85
727.155	-2.15
727.18	8.85
727.205	10.85
727.231	5.85
727.256	18.85
727.282	-0.15
727.307	14.85
727.333	7.85
727.358	3.85
727.383	-14.15
727.409	10.85
727.434	15.85
727.46	-2.15
727.485	12.85
727.511	7.85
727.536	-24.15
727.561	-1.15
727.587	-11.15
727.612	-6.15
727.637	1.85
727.663	-8.15
727.688	4.85
727.714	-15.15
727.739	-10.15
727.764	-15.15
727.79	8.85
727.815	8.85
727.841	12.85
727.866	10.85
727.891	-0.15
727.917	-6.15
727.942	3.85
727.967	-1.15
727.993	-6.15
728.018	6.85
728.043	5.85
728.069	5.85
728.094	15.85
728.119	11.85
728.145	17.85
728.17	11.85
728.195	18.85
728.221	17.85
728.246	5.85
728.271	3.85
728.297	4.85
728.322	3.85
728.347	4.85
728.373	3.85
728.398	7.85
728.423	-7.15
728.448	-1.15
728.474	-6.15
728.499	7.85
728.524	-9.15
728.55	-1.15
728.575	0.85
728.6	7.85
728.625	-0.15
728.651	6.85
728.676	11.85
728.701	12.85
728.727	9.85
728.752	-2.15
728.777	-4.15
728.802	3.85
728.828	12.85
728.853	1.85
728.878	1.85
728.903	-1.15
728.929	-7.15
728.954	-2.15
728.979	19.85
729.004	-16.15
729.03	-7.15
729.055	11.85
729.08	-1.15
729.105	0.85
729.13	7.85
729.156	6.85
729.181	4.85
729.206	-3.15
729.231	0.85
729.256	3.85
729.282	-1.15
729.307	-6.15
729.332	-1.15
729.357	2.85
729.382	-5.15
729.408	-7.15
729.433	-2.15
729.458	-8.15
729.483	24.85
729.508	23.85
729.533	8.85
729.559	5.85
729.584	-17.15
729.609	10.85
729.634	5.85
729.659	5.85
729.684	-7.15
729.71	11.85
729.735	1.85
729.76	13.85
729.785	0.85
729.81	17.85
729.835	-5.15
729.86	2.85
729.886	8.85
729.911	0.85
729.936	0.85
729.961	9.85
729.986	0.85
730.011	1.85
730.036	3.85
730.061	10.85
730.086	13.85
730.112	5.85
730.137	16.85
730.162	5.85
730.187	-16.15
730.212	13.85
730.237	-5.15
730.262	14.85
730.287	15.85
730.312	25.85
730.337	-8.15
730.362	19.85
730.387	11.85
730.413	-12.15
730.438	-8.15
730.463	5.85
730.488	-9.15
730.513	-9.15
730.538	-9.15
730.563	5.85
730.588	7.85
730.613	30.85
730.638	17.85
730.663	-8.15
730.688	33.85
730.713	-0.15
730.738	5.85
730.763	7.85
730.788	-6.15
730.813	15.85
730.838	3.85
730.863	-2.15
730.888	-2.15
730.913	-0.15
730.938	-7.15
730.963	6.85
730.988	4.85
731.013	13.85
731.038	5.85
731.063	-7.15
731.088	1.85
731.113	-0.15
731.138	-4.15
731.163	12.85
731.188	-10.15
731.213	13.85
731.238	-2.15
731.263	0.85
731.288	-2.15
731.313	12.85
731.338	5.85
731.363	-2.15
731.388	6.85
731.413	0.85
731.438	11.85
731.463	12.85
731.487	5.85
731.512	15.85
731.537	-2.15
731.562	9.85
731.587	24.85
731.612	0.85
731.637	1.85
731.662	-5.15
731.687	-5.15
731.712	-3.15
731.737	24.85
731.762	-6.15
731.786	3.85
731.811	4.85
731.836	7.85
731.861	4.85
731.886	-2.15
731.911	0.85
731.936	21.85
731.961	3.85
731.986	-9.15
732.01	4.85
732.035	4.85
732.06	21.85
732.085	5.85
732.11	9.85
732.135	-9.15
732.16	11.85
732.184	6.85
732.209	-5.15
732.234	6.85
732.259	-3.15
732.284	13.85
732.309	-1.15
732.334	-12.15
732.358	-12.15
732.383	-20.15
732.408	1.85
732.433	11.85
732.458	1.85
732.482	6.85
732.507	4.85
732.532	12.85
732.557	11.85
732.582	23.85
732.607	5.85
732.631	-2.15
732.656	1.85
732.681	-10.15
732.706	4.85
732.73	11.85
732.755	-1.15
732.78	5.85
732.805	7.85
732.83	5.85
732.854	15.85
732.879	25.85
732.904	-14.15
732.929	0.85
732.953	-4.15
732.978	14.85
733.003	-7.15
733.028	-0.15
733.052	1.85
733.077	4.85
733.102	9.85
733.127	1.85
733.151	9.85
733.176	17.85
733.201	-0.15
733.226	-6.15
733.25	-2.15
733.275	-9.15
733.3	3.85
733.324	23.85
733.349	1.85
733.374	12.85
733.399	0.85
733.423	7.85
733.448	-14.15
733.473	-6.15
733.497	12.85
733.522	1.85
733.547	22.85
733.571	23.85
733.596	8.85
733.621	24.85
733.646	2.85
733.67	4.85
733.695	-3.15
733.72	0.85
733.744	15.85
733.769	9.85
733.794	20.85
733.818	-4.15
733.843	-4.15
733.867	-6.15
733.892	-1.15
733.917	3.85
733.941	-2.15
733.966	-0.15
733.991	-5.15
734.015	13.85
734.04	-1.15
734.065	9.85
734.089	34.85
734.114	22.85
734.138	6.85
734.163	4.85
734.188	12.85
734.212	12.85
734.237	9.85
734.261	7.85
734.286	-11.15
734.311	-3.15
734.335	0.85
734.36	-4.15
734.384	7.85
734.409	24.85
734.434	-1.15
734.458	7.85
734.483	3.85
734.507	-12.15
734.532	1.85
734.556	6.85
734.581	2.85
734.606	-1.15
734.63	-1.15
734.655	14.85
734.679	5.85
734.704	-0.15
734.728	-2.15
734.753	11.85
734.777	8.85
734.802	0.85
734.826	11.85
734.851	-4.15
734.876	19.85
734.9	25.85
734.925	18.85
734.949	14.85
734.974	-1.15
734.998	19.85
735.023	-1.15
735.047	-2.15
735.072	8.85
735.096	-9.15
735.121	4.85
735.145	5.85
735.17	8.85
735.194	5.85
735.219	17.85
735.243	7.85
735.268	11.85
735.292	16.85
735.317	5.85
735.341	4.85
735.365	-11.15
735.39	21.85
735.414	7.85
735.439	7.85
735.463	5.85
735.488	-5.15
735.512	8.85
735.537	18.85
735.561	0.85
735.586	-4.15
735.61	4.85
735.634	-3.15
735.659	8.85
735.683	22.85
735.708	-2.15
735.732	-7.15
735.757	-7.15
735.781	11.85
735.805	3.85
735.83	7.85
735.854	-4.15
735.879	6.85
735.903	10.85
735.927	21.85
735.952	16.85
735.976	0.85
736.001	9.85
736.025	12.85
736.049	9.85
736.074	1.85
736.098	3.85
736.123	6.85
736.147	-1.15
736.171	7.85
736.196	8.85
736.22	0.85
736.244	5.85
736.269	10.85
736.293	5.85
736.317	22.85
736.342	12.85
736.366	15.85
736.39	8.85
736.415	-3.15
736.439	-4.15
736.463	-2.15
736.488	15.85
736.512	3.85
736.536	6.85
736.561	15.85
736.585	-5.15
736.609	4.85
736.634	-4.15
736.658	10.85
736.682	5.85
736.707	-3.15
736.731	-14.15
736.755	-4.15
736.78	25.85
736.804	19.85
736.828	7.85
736.852	10.85
736.877	4.85
736.901	10.85
736.925	1.85
736.949	6.85
736.974	0.85
736.998	-0.15
737.022	12.85
737.047	2.85
737.071	-5.15
737.095	22.85
737.119	22.85
737.144	13.85
737.168	-7.15
737.192	3.85
737.216	-2.15
737.241	-11.15
737.265	-11.15
737.289	6.85
737.313	19.85
737.337	8.85
737.362	3.85
737.386	5.85
737.41	-0.15
737.434	13.85
737.459	7.85
737.483	20.85
737.507	16.85
737.531	20.85
737.555	6.85
737.58	16.85
737.604	6.85
737.628	-7.15
737.652	4.85
737.676	4.85
737.701	4.85
737.725	19.85
737.749	11.85
737.773	17.85
737.797	-4.15
737.821	-1.15
737.846	-1.15
737.87	20.85
737.894	3.85
737.918	11.85
737.942	6.85
737.966	22.85
737.99	23.85
738.015	10.85
738.039	3.85
738.063	-10.15
738.087	20.85
738.111	3.85
738.135	23.85
738.159	4.85
738.184	-8.15
738.208	5.85
738.232	11.85
738.256	26.85
738.28	14.85
738.304	9.85
738.328	3.85
738.352	5.85
738.376	-2.15
738.4	5.85
738.425	13.85
738.449	1.85
738.473	19.85
738.497	0.85
738.521	3.85
738.545	0.85
738.569	18.85
738.593	0.85
738.617	10.85
738.641	-3.15
738.665	8.85
738.689	28.85
738.713	1.85
738.737	1.85
738.762	11.85
738.786	9.85
738.81	3.85
738.834	11.85
738.858	4.85
738.882	11.85
738.906	-15.15
738.93	7.85
738.954	8.85
738.978	13.85
739.002	7.85
739.026	33.85
739.05	11.85
739.074	-6.15
739.098	28.85
739.122	7.85
739.146	12.85
739.17	29.85
739.194	25.85
739.218	-7.15
739.242	4.85
739.266	6.85
739.29	20.85
739.314	3.85
739.338	8.85
739.362	-4.15
739.386	7.85
739.41	-2.15
739.434	1.85
739.458	18.85
739.482	28.85
739.506	16.85
739.53	1.85
739.554	14.85
739.577	13.85
739.601	8.85
739.625	8.85
739.649	9.85
739.673	-3.15
739.697	22.85
739.721	13.85
739.745	15.85
739.769	30.85
739.793	8.85
739.817	20.85
739.841	7.85
739.865	11.85
739.889	-15.15
739.912	12.85
739.936	-4.15
739.96	2.85
739.984	9.85
740.008	11.85
740.032	9.85
740.056	6.85
740.08	14.85
740.104	1.85
740.127	12.85
740.151	-2.15
740.175	17.85
740.199	25.85
740.223	58.85
740.247	15.85
740.271	3.85
740.295	-5.15
740.318	-7.15
740.342	-0.15
740.366	7.85
740.39	24.85
740.414	24.85
740.438	-1.15
740.461	16.85
740.485	13.85
740.509	0.85
740.533	23.85
740.557	1.85
740.581	-10.15
740.604	-5.15
740.628	6.85
740.652	13.85
740.676	11.85
740.7	13.85
740.723	-7.15
740.747	-7.15
740.771	-10.15
740.795	0.85
740.819	8.85
740.842	11.85
740.866	25.85
740.89	5.85
740.914	15.85
740.938	-8.15
740.961	23.85
740.985	6.85
741.009	0.85
741.033	1.85
741.056	15.85
741.08	10.85
741.104	-2.15
741.128	-0.15
741.151	4.85
741.175	11.85
741.199	7.85
741.223	14.85
741.246	1.85
741.27	9.85
741.294	4.85
741.318	-4.15
741.341	1.85
741.365	-3.15
741.389	-1.15
741.413	6.85
741.436	24.85
741.46	21.85
741.484	9.85
741.507	-5.15
741.531	30.85
741.555	21.85
741.579	9.85
741.602	12.85
741.626	24.85
741.65	10.85
741.673	15.85
741.697	16.85
741.721	16.85
741.744	-9.15
741.768	-6.15
741.792	5.85
741.815	17.85
741.839	35.85
741.863	19.85
741.886	15.85
741.91	11.85
741.934	14.85
741.957	-2.15
741.981	23.85
742.005	-1.15
742.028	-11.15
742.052	-16.15
742.075	19.85
742.099	17.85
742.123	-6.15
742.146	4.85
742.17	28.85
742.194	-12.15
742.217	-5.15
742.241	14.85
742.264	14.85
742.288	23.85
742.312	19.85
742.335	4.85
742.359	2.85
742.382	11.85
742.406	22.85
742.43	-9.15
742.453	-2.15
742.477	-3.15
742.5	14.85
742.524	-4.15
742.548	-4.15
742.571	8.85
742.595	-4.15
742.618	3.85
742.642	-0.15
742.665	12.85
742.689	7.85
742.712	22.85
742.736	9.85
742.76	7.85
742.783	-0.15
742.807	16.85
742.83	30.85
742.854	-4.15
742.877	1.85
742.901	21.85
742.924	1.85
742.948	10.85
742.971	-2.15
742.995	-4.15
743.018	1.85
743.042	0.85
743.065	8.85
743.089	1.85
743.112	9.85
743.136	-0.15
743.159	-6.15
743.183	7.85
743.206	3.85
743.23	-0.15
743.253	10.85
743.277	22.85
743.3	-10.15
743.324	9.85
743.347	-6.15
743.371	5.85
743.394	12.85
743.418	23.85
743.441	-3.15
743.465	0.85
743.488	15.85
743.512	-0.15
743.535	1.85
743.558	-2.15
743.582	14.85
743.605	10.85
743.629	15.85
743.652	6.85
743.676	13.85
743.699	22.85
743.723	4.85
743.746	22.85
743.769	5.85
743.793	10.85
743.816	0.85
743.84	25.85
743.863	7.85
743.886	14.85
743.91	15.85
743.933	1.85
743.957	9.85
743.98	11.85
744.003	9.85
744.027	13.85
744.05	1.85
744.074	0.85
744.097	-3.15
744.12	1.85
744.144	-5.15
744.167	19.85
744.19	0.85
744.214	0.85
744.237	-3.15
744.26	6.85
744.284	-4.15
744.307	5.85
744.331	-7.15
744.354	-4.15
744.377	0.85
744.401	-8.15
744.424	10.85
744.447	-10.15
744.471	-0.15
