Data from HighRes_H2_15_09_11_07_2024_HR4C61891__149__15-11-11-301.txt Node

Date: Thu Nov 07 15:11:11 EST 2024
User: crc00042
Spectrometer: HR4C6189
Trigger mode: 4
Integration Time (sec): 1.000000E-1
Scans to average: 1
Electric dark correction enabled: true
Nonlinearity correction enabled: false
Boxcar width: 0
XAxis mode: Wavelengths
Number of Pixels in Spectrum: 3648
>>>>>Begin Spectral Data<<<<<
639.567	-40.77
639.602	-40.77
639.636	-40.77
639.67	-52.77
639.704	-21.77
639.738	-9.77
639.773	7.23
639.807	-13.77
639.841	7.23
639.875	19.23
639.909	10.23
639.943	-1.77
639.978	1.23
640.012	3.23
640.046	3.23
640.08	-0.77
640.114	-7.77
640.148	-17.77
640.182	-16.77
640.217	2.23
640.251	9.23
640.285	-10.77
640.319	-15.77
640.353	-16.77
640.387	10.23
640.421	-4.77
640.455	-17.77
640.49	-8.77
640.524	0.23
640.558	6.23
640.592	7.23
640.626	3.23
640.66	-4.77
640.694	-2.77
640.728	11.23
640.762	4.23
640.796	22.23
640.83	14.23
640.865	-5.77
640.899	-5.77
640.933	12.23
640.967	-0.77
641.001	1.23
641.035	0.23
641.069	8.23
641.103	-20.77
641.137	-25.77
641.171	-13.77
641.205	0.23
641.239	-7.77
641.273	7.23
641.307	10.23
641.341	-6.77
641.375	-1.77
641.409	0.23
641.443	12.23
641.477	7.23
641.511	8.23
641.545	9.23
641.579	-3.77
641.614	0.23
641.648	5.23
641.682	2.23
641.716	10.23
641.75	18.23
641.784	2.23
641.818	2.23
641.852	5.23
641.886	6.23
641.919	10.23
641.953	-1.77
641.987	-1.77
642.021	10.23
642.055	24.23
642.089	9.23
642.123	-3.77
642.157	-15.77
642.191	-7.77
642.225	-0.77
642.259	-19.77
642.293	5.23
642.327	1.23
642.361	20.23
642.395	5.23
642.429	24.23
642.463	-1.77
642.497	22.23
642.531	-1.77
642.565	1.23
642.599	16.23
642.633	-24.77
642.666	8.23
642.7	8.23
642.734	9.23
642.768	-4.77
642.802	2.23
642.836	3.23
642.87	0.23
642.904	13.23
642.938	22.23
642.972	15.23
643.005	15.23
643.039	16.23
643.073	12.23
643.107	17.23
643.141	-11.77
643.175	3.23
643.209	-0.77
643.243	1.23
643.276	13.23
643.31	-2.77
643.344	-12.77
643.378	0.23
643.412	6.23
643.446	16.23
643.48	0.23
643.513	13.23
643.547	0.23
643.581	-8.77
643.615	7.23
643.649	21.23
643.683	-5.77
643.716	-16.77
643.75	-0.77
643.784	1.23
643.818	11.23
643.852	2.23
643.886	12.23
643.919	12.23
643.953	-4.77
643.987	-3.77
644.021	5.23
644.055	3.23
644.088	7.23
644.122	-11.77
644.156	0.23
644.19	4.23
644.224	8.23
644.257	13.23
644.291	17.23
644.325	11.23
644.359	-7.77
644.392	31.23
644.426	23.23
644.46	18.23
644.494	7.23
644.527	3.23
644.561	8.23
644.595	-3.77
644.629	-0.77
644.662	-9.77
644.696	25.23
644.73	6.23
644.764	8.23
644.797	18.23
644.831	8.23
644.865	6.23
644.899	12.23
644.932	38.23
644.966	3.23
645	10.23
645.033	19.23
645.067	-1.77
645.101	6.23
645.135	5.23
645.168	10.23
645.202	2.23
645.236	-7.77
645.269	17.23
645.303	-6.77
645.337	-7.77
645.37	10.23
645.404	12.23
645.438	6.23
645.471	19.23
645.505	3.23
645.539	8.23
645.572	-4.77
645.606	4.23
645.64	1.23
645.673	-5.77
645.707	30.23
645.741	13.23
645.774	-13.77
645.808	8.23
645.842	-3.77
645.875	7.23
645.909	-19.77
645.943	-7.77
645.976	14.23
646.01	14.23
646.043	16.23
646.077	14.23
646.111	3.23
646.144	14.23
646.178	22.23
646.212	-0.77
646.245	-6.77
646.279	-0.77
646.312	-5.77
646.346	8.23
646.38	-6.77
646.413	-4.77
646.447	11.23
646.48	11.23
646.514	10.23
646.547	2.23
646.581	-6.77
646.615	5.23
646.648	-1.77
646.682	-4.77
646.715	5.23
646.749	27.23
646.782	4.23
646.816	-6.77
646.85	3.23
646.883	2.23
646.917	-7.77
646.95	9.23
646.984	14.23
647.017	1.23
647.051	1.23
647.084	4.23
647.118	1.23
647.151	6.23
647.185	4.23
647.218	5.23
647.252	4.23
647.285	-7.77
647.319	-8.77
647.353	-2.77
647.386	2.23
647.42	-9.77
647.453	-6.77
647.487	-1.77
647.52	-13.77
647.553	6.23
647.587	10.23
647.62	1.23
647.654	13.23
647.687	8.23
647.721	6.23
647.754	-6.77
647.788	-20.77
647.821	-11.77
647.855	10.23
647.888	7.23
647.922	21.23
647.955	7.23
647.989	11.23
648.022	-5.77
648.055	3.23
648.089	-12.77
648.122	30.23
648.156	0.23
648.189	1.23
648.223	10.23
648.256	12.23
648.29	-4.77
648.323	4.23
648.356	18.23
648.39	4.23
648.423	0.23
648.457	-5.77
648.49	4.23
648.523	15.23
648.557	-14.77
648.59	7.23
648.624	0.23
648.657	7.23
648.69	26.23
648.724	19.23
648.757	20.23
648.791	7.23
648.824	2.23
648.857	23.23
648.891	9.23
648.924	-0.77
648.957	18.23
648.991	-2.77
649.024	2.23
649.057	6.23
649.091	3.23
649.124	13.23
649.158	7.23
649.191	34.23
649.224	2.23
649.258	-2.77
649.291	-7.77
649.324	16.23
649.358	6.23
649.391	16.23
649.424	12.23
649.458	-3.77
649.491	4.23
649.524	-6.77
649.557	-6.77
649.591	-25.77
649.624	0.23
649.657	-7.77
649.691	4.23
649.724	-9.77
649.757	14.23
649.791	3.23
649.824	9.23
649.857	15.23
649.89	2.23
649.924	-4.77
649.957	9.23
649.99	-19.77
650.023	1.23
650.057	-11.77
650.09	6.23
650.123	5.23
650.157	15.23
650.19	25.23
650.223	-11.77
650.256	-24.77
650.29	3.23
650.323	9.23
650.356	6.23
650.389	2.23
650.423	6.23
650.456	10.23
650.489	13.23
650.522	2.23
650.555	17.23
650.589	2.23
650.622	-0.77
650.655	15.23
650.688	6.23
650.721	-2.77
650.755	3.23
650.788	9.23
650.821	1.23
650.854	-3.77
650.887	18.23
650.921	8.23
650.954	2.23
650.987	4.23
651.02	0.23
651.053	12.23
651.087	4.23
651.12	18.23
651.153	4.23
651.186	0.23
651.219	7.23
651.252	7.23
651.286	11.23
651.319	0.23
651.352	-19.77
651.385	-0.77
651.418	-1.77
651.451	18.23
651.484	8.23
651.518	-13.77
651.551	4.23
651.584	-5.77
651.617	3.23
651.65	11.23
651.683	15.23
651.716	-6.77
651.749	-8.77
651.783	-9.77
651.816	7.23
651.849	4.23
651.882	-6.77
651.915	0.23
651.948	-6.77
651.981	-3.77
652.014	-20.77
652.047	-0.77
652.08	-0.77
652.114	-1.77
652.147	0.23
652.18	7.23
652.213	19.23
652.246	8.23
652.279	-6.77
652.312	-6.77
652.345	-9.77
652.378	6.23
652.411	36.23
652.444	10.23
652.477	1.23
652.51	8.23
652.543	-14.77
652.576	-4.77
652.609	-8.77
652.642	-9.77
652.675	12.23
652.709	2.23
652.742	18.23
652.775	8.23
652.808	2.23
652.841	-1.77
652.874	2.23
652.907	10.23
652.94	-6.77
652.973	-15.77
653.006	1.23
653.039	14.23
653.072	5.23
653.105	-5.77
653.138	-24.77
653.171	-10.77
653.204	-2.77
653.237	0.23
653.27	-14.77
653.303	7.23
653.336	10.23
653.368	10.23
653.401	2.23
653.434	-13.77
653.467	1.23
653.5	-5.77
653.533	-13.77
653.566	5.23
653.599	7.23
653.632	11.23
653.665	4.23
653.698	-14.77
653.731	2.23
653.764	14.23
653.797	2.23
653.83	12.23
653.863	3.23
653.896	-3.77
653.929	-3.77
653.961	3.23
653.994	-14.77
654.027	-6.77
654.06	-2.77
654.093	-4.77
654.126	9.23
654.159	8.23
654.192	5.23
654.225	3.23
654.258	0.23
654.29	1.23
654.323	-15.77
654.356	-8.77
654.389	-3.77
654.422	-9.77
654.455	-0.77
654.488	-5.77
654.521	-24.77
654.553	-6.77
654.586	-1.77
654.619	-13.77
654.652	-5.77
654.685	12.23
654.718	12.23
654.751	-3.77
654.783	3.23
654.816	24.23
654.849	10.23
654.882	-10.77
654.915	7.23
654.948	8.23
654.98	-4.77
655.013	1.23
655.046	-8.77
655.079	-18.77
655.112	9.23
655.144	-18.77
655.177	7.23
655.21	17.23
655.243	16.23
655.276	19.23
655.308	2.23
655.341	3.23
655.374	10.23
655.407	3.23
655.44	7.23
655.472	12.23
655.505	20.23
655.538	9.23
655.571	2.23
655.603	9.23
655.636	15.23
655.669	17.23
655.702	8.23
655.734	9.23
655.767	18.23
655.8	19.23
655.833	34.23
655.865	29.23
655.898	12.23
655.931	33.23
655.964	57.23
655.996	61.23
656.029	75.23
656.062	48.23
656.095	59.23
656.127	68.23
656.16	106.23
656.193	137.23
656.225	188.23
656.258	265.23
656.291	487.23
656.324	1098.23
656.356	3400.23
656.389	7582.23
656.422	6047.23
656.454	2076.23
656.487	692.23
656.52	269.23
656.552	125.23
656.585	79.23
656.618	51.23
656.65	39.23
656.683	27.23
656.716	7.23
656.748	16.23
656.781	4.23
656.814	-6.77
656.846	2.23
656.879	-10.77
656.912	2.23
656.944	3.23
656.977	-18.77
657.01	-5.77
657.042	15.23
657.075	33.23
657.108	-9.77
657.14	7.23
657.173	15.23
657.205	13.23
657.238	-3.77
657.271	22.23
657.303	0.23
657.336	-3.77
657.369	5.23
657.401	-8.77
657.434	-7.77
657.466	4.23
657.499	3.23
657.532	1.23
657.564	7.23
657.597	9.23
657.629	8.23
657.662	4.23
657.694	-0.77
657.727	-1.77
657.76	16.23
657.792	-6.77
657.825	-13.77
657.857	-3.77
657.89	-24.77
657.922	13.23
657.955	23.23
657.987	-6.77
658.02	17.23
658.053	12.23
658.085	1.23
658.118	-3.77
658.15	18.23
658.183	22.23
658.215	2.23
658.248	-5.77
658.28	-9.77
658.313	10.23
658.345	11.23
658.378	9.23
658.41	-1.77
658.443	11.23
658.475	10.23
658.508	4.23
658.54	-3.77
658.573	7.23
658.605	-3.77
658.638	-6.77
658.67	8.23
658.703	8.23
658.735	-15.77
658.768	-9.77
658.8	3.23
658.833	15.23
658.865	13.23
658.898	-6.77
658.93	-1.77
658.963	2.23
658.995	0.23
659.028	-1.77
659.06	0.23
659.092	4.23
659.125	7.23
659.157	-8.77
659.19	-20.77
659.222	-12.77
659.255	-5.77
659.287	5.23
659.32	-3.77
659.352	3.23
659.384	12.23
659.417	-9.77
659.449	-8.77
659.482	10.23
659.514	-11.77
659.546	4.23
659.579	-6.77
659.611	16.23
659.644	9.23
659.676	-0.77
659.708	-1.77
659.741	-11.77
659.773	3.23
659.806	22.23
659.838	0.23
659.87	9.23
659.903	-11.77
659.935	-1.77
659.967	20.23
660	16.23
660.032	-20.77
660.065	22.23
660.097	1.23
660.129	-8.77
660.162	-5.77
660.194	4.23
660.226	2.23
660.259	-5.77
660.291	-17.77
660.323	-6.77
660.356	0.23
660.388	-16.77
660.42	9.23
660.453	8.23
660.485	14.23
660.517	10.23
660.55	11.23
660.582	2.23
660.614	17.23
660.647	-0.77
660.679	-6.77
660.711	13.23
660.743	-5.77
660.776	5.23
660.808	-5.77
660.84	-21.77
660.873	-0.77
660.905	-11.77
660.937	-4.77
660.969	3.23
661.002	9.23
661.034	11.23
661.066	4.23
661.099	5.23
661.131	16.23
661.163	19.23
661.195	0.23
661.228	-6.77
661.26	-10.77
661.292	-2.77
661.324	9.23
661.357	14.23
661.389	8.23
661.421	7.23
661.453	-9.77
661.485	-5.77
661.518	-1.77
661.55	-12.77
661.582	-18.77
661.614	-2.77
661.647	5.23
661.679	21.23
661.711	3.23
661.743	-0.77
661.775	13.23
661.808	25.23
661.84	-7.77
661.872	1.23
661.904	5.23
661.936	-0.77
661.969	-7.77
662.001	-8.77
662.033	-6.77
662.065	7.23
662.097	5.23
662.129	8.23
662.162	-7.77
662.194	6.23
662.226	-3.77
662.258	22.23
662.29	0.23
662.322	1.23
662.355	-3.77
662.387	2.23
662.419	20.23
662.451	12.23
662.483	14.23
662.515	7.23
662.547	-9.77
662.58	-1.77
662.612	-6.77
662.644	-21.77
662.676	-4.77
662.708	20.23
662.74	10.23
662.772	16.23
662.804	-2.77
662.836	1.23
662.869	-2.77
662.901	9.23
662.933	-1.77
662.965	11.23
662.997	20.23
663.029	7.23
663.061	-8.77
663.093	5.23
663.125	6.23
663.157	12.23
663.189	3.23
663.221	11.23
663.254	6.23
663.286	3.23
663.318	5.23
663.35	-10.77
663.382	-1.77
663.414	-3.77
663.446	-2.77
663.478	11.23
663.51	4.23
663.542	-11.77
663.574	-1.77
663.606	1.23
663.638	-8.77
663.67	5.23
663.702	4.23
663.734	12.23
663.766	4.23
663.798	4.23
663.83	-8.77
663.862	8.23
663.894	0.23
663.926	-0.77
663.958	13.23
663.99	3.23
664.022	5.23
664.054	-0.77
664.086	-14.77
664.118	-10.77
664.15	-11.77
664.182	16.23
664.214	5.23
664.246	7.23
664.278	1.23
664.31	19.23
664.342	3.23
664.374	-5.77
664.406	2.23
664.438	3.23
664.47	7.23
664.502	3.23
664.534	-3.77
664.566	-1.77
664.598	-0.77
664.63	-23.77
664.662	-3.77
664.693	-2.77
664.725	0.23
664.757	1.23
664.789	-7.77
664.821	-9.77
664.853	-3.77
664.885	1.23
664.917	2.23
664.949	11.23
664.981	3.23
665.013	9.23
665.045	-4.77
665.076	0.23
665.108	-8.77
665.14	-15.77
665.172	4.23
665.204	3.23
665.236	-12.77
665.268	14.23
665.3	-0.77
665.331	-9.77
665.363	4.23
665.395	-8.77
665.427	-6.77
665.459	14.23
665.491	5.23
665.523	-5.77
665.555	-6.77
665.586	-12.77
665.618	6.23
665.65	-12.77
665.682	-9.77
665.714	3.23
665.746	-1.77
665.777	-20.77
665.809	-0.77
665.841	15.23
665.873	-6.77
665.905	3.23
665.937	6.23
665.968	1.23
666	-6.77
666.032	8.23
666.064	3.23
666.096	0.23
666.127	6.23
666.159	15.23
666.191	18.23
666.223	1.23
666.255	17.23
666.286	2.23
666.318	-10.77
666.35	7.23
666.382	1.23
666.413	0.23
666.445	-20.77
666.477	-3.77
666.509	-9.77
666.54	-8.77
666.572	7.23
666.604	5.23
666.636	-14.77
666.667	11.23
666.699	17.23
666.731	11.23
666.763	-10.77
666.794	-6.77
666.826	-8.77
666.858	-14.77
666.89	10.23
666.921	15.23
666.953	8.23
666.985	20.23
667.017	12.23
667.048	-3.77
667.08	-8.77
667.112	1.23
667.143	2.23
667.175	4.23
667.207	1.23
667.238	15.23
667.27	2.23
667.302	-8.77
667.334	-4.77
667.365	14.23
667.397	6.23
667.429	4.23
667.46	11.23
667.492	19.23
667.524	5.23
667.555	14.23
667.587	1.23
667.619	3.23
667.65	-9.77
667.682	2.23
667.714	10.23
667.745	-5.77
667.777	-5.77
667.808	6.23
667.84	-11.77
667.872	-1.77
667.903	14.23
667.935	0.23
667.967	-4.77
667.998	-7.77
668.03	-3.77
668.061	11.23
668.093	-2.77
668.125	0.23
668.156	11.23
668.188	2.23
668.22	-4.77
668.251	2.23
668.283	8.23
668.314	3.23
668.346	-8.77
668.377	9.23
668.409	-4.77
668.441	-6.77
668.472	5.23
668.504	27.23
668.535	-1.77
668.567	8.23
668.599	3.23
668.63	-0.77
668.662	12.23
668.693	12.23
668.725	4.23
668.756	12.23
668.788	-3.77
668.819	-3.77
668.851	-3.77
668.882	-2.77
668.914	-3.77
668.946	12.23
668.977	8.23
669.009	1.23
669.04	-2.77
669.072	3.23
669.103	0.23
669.135	-17.77
669.166	-7.77
669.198	4.23
669.229	1.23
669.261	-11.77
669.292	2.23
669.324	6.23
669.355	22.23
669.387	-6.77
669.418	2.23
669.45	-11.77
669.481	7.23
669.513	-7.77
669.544	1.23
669.576	0.23
669.607	13.23
669.639	5.23
669.67	-11.77
669.701	4.23
669.733	11.23
669.764	-3.77
669.796	-5.77
669.827	4.23
669.859	-4.77
669.89	0.23
669.922	11.23
669.953	6.23
669.985	5.23
670.016	7.23
670.047	-14.77
670.079	-9.77
670.11	-4.77
670.142	-1.77
670.173	-2.77
670.204	4.23
670.236	3.23
670.267	-8.77
670.299	3.23
670.33	3.23
670.362	7.23
670.393	0.23
670.424	5.23
670.456	1.23
670.487	-0.77
670.518	-3.77
670.55	-14.77
670.581	-1.77
670.613	-13.77
670.644	-8.77
670.675	-23.77
670.707	-7.77
670.738	-1.77
670.769	-12.77
670.801	-10.77
670.832	6.23
670.864	-8.77
670.895	11.23
670.926	-9.77
670.958	-12.77
670.989	8.23
671.02	3.23
671.052	11.23
671.083	-1.77
671.114	1.23
671.146	14.23
671.177	1.23
671.208	-5.77
671.24	-12.77
671.271	-1.77
671.302	16.23
671.333	7.23
671.365	-7.77
671.396	-6.77
671.427	15.23
671.459	-7.77
671.49	11.23
671.521	10.23
671.553	4.23
671.584	12.23
671.615	-13.77
671.646	5.23
671.678	-5.77
671.709	-27.77
671.74	-9.77
671.771	-9.77
671.803	-0.77
671.834	11.23
671.865	-9.77
671.896	14.23
671.928	-6.77
671.959	-1.77
671.99	-4.77
672.021	-6.77
672.053	-4.77
672.084	11.23
672.115	-7.77
672.146	2.23
672.178	-5.77
672.209	-3.77
672.24	1.23
672.271	17.23
672.303	4.23
672.334	-17.77
672.365	6.23
672.396	-0.77
672.427	-2.77
672.459	9.23
672.49	26.23
672.521	5.23
672.552	24.23
672.583	11.23
672.615	17.23
672.646	9.23
672.677	1.23
672.708	9.23
672.739	-0.77
672.77	13.23
672.802	5.23
672.833	-6.77
672.864	-18.77
672.895	11.23
672.926	-2.77
672.957	-4.77
672.989	-17.77
673.02	-6.77
673.051	-12.77
673.082	7.23
673.113	-1.77
673.144	-0.77
673.175	3.23
673.206	-7.77
673.238	-17.77
673.269	-13.77
673.3	-9.77
673.331	10.23
673.362	-4.77
673.393	2.23
673.424	6.23
673.455	11.23
673.487	5.23
673.518	16.23
673.549	2.23
673.58	-8.77
673.611	2.23
673.642	0.23
673.673	-28.77
673.704	2.23
673.735	-13.77
673.766	-8.77
673.797	-12.77
673.828	-2.77
673.86	-17.77
673.891	-4.77
673.922	-18.77
673.953	-4.77
673.984	-5.77
674.015	5.23
674.046	9.23
674.077	4.23
674.108	-0.77
674.139	-8.77
674.17	-11.77
674.201	-1.77
674.232	0.23
674.263	-11.77
674.294	-1.77
674.325	-17.77
674.356	5.23
674.387	7.23
674.418	7.23
674.449	7.23
674.48	-5.77
674.511	0.23
674.542	-0.77
674.573	-23.77
674.604	17.23
674.635	2.23
674.666	9.23
674.697	-4.77
674.728	-0.77
674.759	-7.77
674.79	-28.77
674.821	-19.77
674.852	-1.77
674.883	-2.77
674.914	-12.77
674.945	11.23
674.976	9.23
675.007	2.23
675.038	-10.77
675.069	-19.77
675.1	-3.77
675.131	-4.77
675.162	-12.77
675.193	-13.77
675.224	-14.77
675.254	-4.77
675.285	4.23
675.316	7.23
675.347	0.23
675.378	-13.77
675.409	-6.77
675.44	-7.77
675.471	-3.77
675.502	-14.77
675.533	-4.77
675.564	10.23
675.595	6.23
675.625	17.23
675.656	13.23
675.687	-8.77
675.718	-2.77
675.749	7.23
675.78	6.23
675.811	-0.77
675.842	12.23
675.873	12.23
675.903	5.23
675.934	11.23
675.965	2.23
675.996	-4.77
676.027	0.23
676.058	-12.77
676.089	-6.77
676.119	17.23
676.15	-19.77
676.181	0.23
676.212	-22.77
676.243	-19.77
676.274	-8.77
676.304	22.23
676.335	-19.77
676.366	1.23
676.397	-9.77
676.428	-1.77
676.459	-9.77
676.489	6.23
676.52	11.23
676.551	3.23
676.582	-5.77
676.613	9.23
676.643	-3.77
676.674	4.23
676.705	10.23
676.736	7.23
676.767	-3.77
676.797	3.23
676.828	-10.77
676.859	-10.77
676.89	-14.77
676.92	2.23
676.951	12.23
676.982	21.23
677.013	13.23
677.044	16.23
677.074	-3.77
677.105	-11.77
677.136	-3.77
677.167	-19.77
677.197	-2.77
677.228	-7.77
677.259	-4.77
677.289	5.23
677.32	1.23
677.351	6.23
677.382	-3.77
677.412	-12.77
677.443	13.23
677.474	-5.77
677.505	-15.77
677.535	-6.77
677.566	-15.77
677.597	-11.77
677.627	-9.77
677.658	-2.77
677.689	6.23
677.72	-1.77
677.75	0.23
677.781	11.23
677.812	14.23
677.842	15.23
677.873	1.23
677.904	-8.77
677.934	1.23
677.965	-22.77
677.996	-12.77
678.026	-0.77
678.057	-5.77
678.088	-13.77
678.118	-3.77
678.149	-4.77
678.18	9.23
678.21	2.23
678.241	6.23
678.272	2.23
678.302	0.23
678.333	-2.77
678.363	9.23
678.394	13.23
678.425	0.23
678.455	1.23
678.486	15.23
678.517	-2.77
678.547	-12.77
678.578	-7.77
678.608	-21.77
678.639	11.23
678.67	11.23
678.7	-13.77
678.731	-0.77
678.761	0.23
678.792	4.23
678.823	1.23
678.853	-4.77
678.884	-27.77
678.914	7.23
678.945	14.23
678.975	-12.77
679.006	14.23
679.037	1.23
679.067	29.23
679.098	-15.77
679.128	-11.77
679.159	2.23
679.189	19.23
679.22	-1.77
679.25	-2.77
679.281	4.23
679.312	10.23
679.342	6.23
679.373	41.23
679.403	4.23
679.434	-2.77
679.464	-5.77
679.495	-3.77
679.525	-4.77
679.556	-9.77
679.586	16.23
679.617	14.23
679.647	4.23
679.678	19.23
679.708	2.23
679.739	-11.77
679.769	-5.77
679.8	-9.77
679.83	-5.77
679.861	8.23
679.891	-5.77
679.922	-24.77
679.952	2.23
679.983	-4.77
680.013	3.23
680.044	-12.77
680.074	-4.77
680.105	-1.77
680.135	1.23
680.165	19.23
680.196	15.23
680.226	4.23
680.257	-9.77
680.287	-11.77
680.318	-8.77
680.348	-17.77
680.379	-3.77
680.409	-2.77
680.439	-3.77
680.47	3.23
680.5	14.23
680.531	3.23
680.561	20.23
680.592	-4.77
680.622	16.23
680.652	-10.77
680.683	14.23
680.713	-7.77
680.744	-0.77
680.774	5.23
680.804	-0.77
680.835	-2.77
680.865	-7.77
680.896	18.23
680.926	23.23
680.956	12.23
680.987	-4.77
681.017	0.23
681.047	11.23
681.078	2.23
681.108	0.23
681.139	7.23
681.169	-4.77
681.199	-5.77
681.23	4.23
681.26	1.23
681.29	9.23
681.321	-5.77
681.351	-4.77
681.381	-17.77
681.412	-5.77
681.442	2.23
681.472	26.23
681.503	2.23
681.533	2.23
681.563	-6.77
681.594	-5.77
681.624	3.23
681.654	-3.77
681.685	3.23
681.715	-0.77
681.745	0.23
681.775	-15.77
681.806	-5.77
681.836	6.23
681.866	1.23
681.897	16.23
681.927	1.23
681.957	-10.77
681.987	-2.77
682.018	11.23
682.048	16.23
682.078	-13.77
682.109	32.23
682.139	-4.77
682.169	-1.77
682.199	-10.77
682.23	-9.77
682.26	-2.77
682.29	7.23
682.32	-1.77
682.351	-14.77
682.381	-1.77
682.411	-6.77
682.441	-24.77
682.472	-9.77
682.502	-1.77
682.532	-3.77
682.562	-4.77
682.592	1.23
682.623	8.23
682.653	-11.77
682.683	-6.77
682.713	5.23
682.743	-5.77
682.774	10.23
682.804	-5.77
682.834	6.23
682.864	-4.77
682.894	-6.77
682.925	-0.77
682.955	-15.77
682.985	-16.77
683.015	2.23
683.045	9.23
683.076	-6.77
683.106	-12.77
683.136	-4.77
683.166	-5.77
683.196	-2.77
683.226	-12.77
683.257	-4.77
683.287	5.23
683.317	0.23
683.347	-7.77
683.377	2.23
683.407	17.23
683.437	15.23
683.468	10.23
683.498	-7.77
683.528	0.23
683.558	-2.77
683.588	-5.77
683.618	-0.77
683.648	4.23
683.678	15.23
683.708	5.23
683.739	-7.77
683.769	3.23
683.799	-5.77
683.829	-0.77
683.859	8.23
683.889	7.23
683.919	0.23
683.949	-7.77
683.979	-2.77
684.009	0.23
684.039	13.23
684.07	-9.77
684.1	16.23
684.13	0.23
684.16	6.23
684.19	8.23
684.22	-1.77
684.25	4.23
684.28	4.23
684.31	23.23
684.34	4.23
684.37	9.23
684.4	-0.77
684.43	-7.77
684.46	-10.77
684.49	7.23
684.52	17.23
684.55	26.23
684.58	-11.77
684.61	7.23
684.64	12.23
684.67	9.23
684.7	6.23
684.73	8.23
684.76	7.23
684.79	11.23
684.82	1.23
684.85	-7.77
684.88	8.23
684.91	13.23
684.94	11.23
684.97	-0.77
685	2.23
685.03	0.23
685.06	-11.77
685.09	-10.77
685.12	16.23
685.15	-13.77
685.18	3.23
685.21	1.23
685.24	14.23
685.27	11.23
685.3	3.23
685.33	2.23
685.36	-12.77
685.39	-8.77
685.42	-10.77
685.45	-5.77
685.48	-12.77
685.51	-9.77
685.54	11.23
685.569	10.23
685.599	-1.77
685.629	-12.77
685.659	-3.77
685.689	-5.77
685.719	7.23
685.749	-3.77
685.779	-1.77
685.809	1.23
685.839	12.23
685.869	20.23
685.898	8.23
685.928	2.23
685.958	-4.77
685.988	9.23
686.018	-7.77
686.048	7.23
686.078	12.23
686.108	17.23
686.137	2.23
686.167	23.23
686.197	-17.77
686.227	7.23
686.257	34.23
686.287	23.23
686.317	0.23
686.346	-1.77
686.376	-7.77
686.406	0.23
686.436	5.23
686.466	4.23
686.496	4.23
686.525	8.23
686.555	-8.77
686.585	15.23
686.615	21.23
686.645	13.23
686.675	4.23
686.704	6.23
686.734	4.23
686.764	-11.77
686.794	7.23
686.824	4.23
686.853	4.23
686.883	5.23
686.913	12.23
686.943	-3.77
686.973	-0.77
687.002	2.23
687.032	5.23
687.062	-7.77
687.092	13.23
687.121	0.23
687.151	-0.77
687.181	-2.77
687.211	9.23
687.24	23.23
687.27	-3.77
687.3	11.23
687.33	5.23
687.359	-11.77
687.389	5.23
687.419	3.23
687.449	3.23
687.478	3.23
687.508	-2.77
687.538	8.23
687.568	10.23
687.597	1.23
687.627	-9.77
687.657	8.23
687.686	-2.77
687.716	5.23
687.746	-7.77
687.776	-9.77
687.805	13.23
687.835	7.23
687.865	15.23
687.894	18.23
687.924	6.23
687.954	-7.77
687.983	6.23
688.013	-14.77
688.043	12.23
688.072	0.23
688.102	11.23
688.132	-4.77
688.161	-4.77
688.191	-4.77
688.221	7.23
688.25	-15.77
688.28	3.23
688.31	4.23
688.339	-1.77
688.369	-17.77
688.399	-15.77
688.428	-13.77
688.458	9.23
688.488	-6.77
688.517	11.23
688.547	1.23
688.576	18.23
688.606	9.23
688.636	4.23
688.665	16.23
688.695	8.23
688.725	3.23
688.754	3.23
688.784	-1.77
688.813	3.23
688.843	1.23
688.873	-19.77
688.902	-5.77
688.932	-16.77
688.961	1.23
688.991	16.23
689.02	5.23
689.05	5.23
689.08	16.23
689.109	6.23
689.139	-1.77
689.168	17.23
689.198	6.23
689.227	-5.77
689.257	0.23
689.287	12.23
689.316	9.23
689.346	4.23
689.375	-16.77
689.405	-5.77
689.434	-4.77
689.464	12.23
689.493	-3.77
689.523	-9.77
689.552	7.23
689.582	12.23
689.611	2.23
689.641	8.23
689.67	-6.77
689.7	3.23
689.73	8.23
689.759	13.23
689.789	3.23
689.818	-7.77
689.848	-15.77
689.877	16.23
689.906	-11.77
689.936	7.23
689.965	13.23
689.995	-0.77
690.024	6.23
690.054	-18.77
690.083	-4.77
690.113	-13.77
690.142	1.23
690.172	4.23
690.201	-1.77
690.231	-13.77
690.26	6.23
690.29	3.23
690.319	2.23
690.348	-0.77
690.378	10.23
690.407	-0.77
690.437	2.23
690.466	8.23
690.496	2.23
690.525	4.23
690.555	-4.77
690.584	-4.77
690.613	-4.77
690.643	8.23
690.672	12.23
690.702	17.23
690.731	-0.77
690.76	4.23
690.79	-9.77
690.819	-10.77
690.849	6.23
690.878	-1.77
690.907	2.23
690.937	12.23
690.966	17.23
690.996	-2.77
691.025	12.23
691.054	8.23
691.084	2.23
691.113	0.23
691.142	6.23
691.172	0.23
691.201	21.23
691.23	-6.77
691.26	8.23
691.289	-5.77
691.319	-6.77
691.348	9.23
691.377	13.23
691.407	22.23
691.436	13.23
691.465	-1.77
691.495	-5.77
691.524	-23.77
691.553	7.23
691.583	-7.77
691.612	15.23
691.641	-1.77
691.67	-4.77
691.7	14.23
691.729	1.23
691.758	-0.77
691.788	-1.77
691.817	17.23
691.846	-13.77
691.876	2.23
691.905	12.23
691.934	-12.77
691.963	21.23
691.993	12.23
692.022	-6.77
692.051	-7.77
692.081	9.23
692.11	14.23
692.139	5.23
692.168	0.23
692.198	14.23
692.227	5.23
692.256	11.23
692.285	-18.77
692.315	-1.77
692.344	1.23
692.373	10.23
692.402	7.23
692.432	9.23
692.461	7.23
692.49	19.23
692.519	3.23
692.548	11.23
692.578	1.23
692.607	-0.77
692.636	-4.77
692.665	6.23
692.694	-6.77
692.724	-1.77
692.753	13.23
692.782	9.23
692.811	-2.77
692.84	-14.77
692.87	-7.77
692.899	-4.77
692.928	-0.77
692.957	8.23
692.986	18.23
693.016	5.23
693.045	10.23
693.074	6.23
693.103	4.23
693.132	2.23
693.161	11.23
693.191	-2.77
693.22	4.23
693.249	7.23
693.278	-5.77
693.307	22.23
693.336	-7.77
693.365	-14.77
693.395	3.23
693.424	-12.77
693.453	13.23
693.482	2.23
693.511	10.23
693.54	4.23
693.569	2.23
693.598	4.23
693.628	16.23
693.657	2.23
693.686	5.23
693.715	4.23
693.744	6.23
693.773	21.23
693.802	7.23
693.831	7.23
693.86	10.23
693.889	-10.77
693.919	13.23
693.948	-1.77
693.977	6.23
694.006	-4.77
694.035	3.23
694.064	-7.77
694.093	2.23
694.122	-6.77
694.151	1.23
694.18	1.23
694.209	27.23
694.238	4.23
694.267	23.23
694.296	14.23
694.325	-0.77
694.354	9.23
694.383	6.23
694.412	-4.77
694.441	0.23
694.471	7.23
694.5	-15.77
694.529	1.23
694.558	7.23
694.587	7.23
694.616	7.23
694.645	2.23
694.674	16.23
694.703	-2.77
694.732	-16.77
694.761	6.23
694.79	10.23
694.819	3.23
694.848	8.23
694.877	21.23
694.906	19.23
694.935	16.23
694.963	0.23
694.992	-8.77
695.021	1.23
695.05	13.23
695.079	8.23
695.108	3.23
695.137	19.23
695.166	1.23
695.195	-0.77
695.224	23.23
695.253	2.23
695.282	-2.77
695.311	-1.77
695.34	-7.77
695.369	2.23
695.398	11.23
695.427	26.23
695.456	2.23
695.485	0.23
695.513	-2.77
695.542	0.23
695.571	2.23
695.6	11.23
695.629	16.23
695.658	26.23
695.687	10.23
695.716	4.23
695.745	15.23
695.774	1.23
695.802	-15.77
695.831	-2.77
695.86	14.23
695.889	18.23
695.918	15.23
695.947	7.23
695.976	-7.77
696.005	4.23
696.033	11.23
696.062	19.23
696.091	-10.77
696.12	6.23
696.149	3.23
696.178	-6.77
696.207	5.23
696.235	-15.77
696.264	-0.77
696.293	2.23
696.322	19.23
696.351	12.23
696.38	-19.77
696.408	6.23
696.437	-0.77
696.466	21.23
696.495	15.23
696.524	18.23
696.553	3.23
696.581	6.23
696.61	2.23
696.639	-7.77
696.668	0.23
696.697	-4.77
696.725	23.23
696.754	14.23
696.783	-8.77
696.812	-15.77
696.84	-3.77
696.869	-3.77
696.898	0.23
696.927	-0.77
696.956	6.23
696.984	4.23
697.013	8.23
697.042	3.23
697.071	23.23
697.099	6.23
697.128	3.23
697.157	-1.77
697.186	-13.77
697.214	-10.77
697.243	-0.77
697.272	-16.77
697.301	3.23
697.329	1.23
697.358	14.23
697.387	21.23
697.415	12.23
697.444	17.23
697.473	5.23
697.502	3.23
697.53	18.23
697.559	0.23
697.588	-4.77
697.616	4.23
697.645	-0.77
697.674	12.23
697.703	8.23
697.731	23.23
697.76	8.23
697.789	4.23
697.817	7.23
697.846	15.23
697.875	-6.77
697.903	28.23
697.932	-1.77
697.961	6.23
697.989	1.23
698.018	12.23
698.047	3.23
698.075	8.23
698.104	-3.77
698.133	-1.77
698.161	-3.77
698.19	7.23
698.218	-10.77
698.247	14.23
698.276	0.23
698.304	11.23
698.333	10.23
698.362	12.23
698.39	23.23
698.419	2.23
698.447	-6.77
698.476	-4.77
698.505	1.23
698.533	1.23
698.562	-3.77
698.591	-8.77
698.619	-12.77
698.648	-1.77
698.676	-2.77
698.705	-12.77
698.733	-15.77
698.762	-8.77
698.791	12.23
698.819	2.23
698.848	-3.77
698.876	8.23
698.905	9.23
698.933	17.23
698.962	-0.77
698.991	-2.77
699.019	4.23
699.048	-9.77
699.076	-8.77
699.105	-9.77
699.133	-8.77
699.162	6.23
699.19	19.23
699.219	5.23
699.248	-2.77
699.276	-3.77
699.305	2.23
699.333	3.23
699.362	0.23
699.39	-2.77
699.419	-5.77
699.447	19.23
699.476	9.23
699.504	-0.77
699.533	4.23
699.561	-4.77
699.59	5.23
699.618	-1.77
699.647	3.23
699.675	4.23
699.704	2.23
699.732	6.23
699.761	0.23
699.789	0.23
699.818	9.23
699.846	-5.77
699.874	-10.77
699.903	-0.77
699.931	-9.77
699.96	10.23
699.988	6.23
700.017	-8.77
700.045	4.23
700.074	-14.77
700.102	0.23
700.13	-12.77
700.159	0.23
700.187	1.23
700.216	-0.77
700.244	2.23
700.273	0.23
700.301	6.23
700.329	-0.77
700.358	7.23
700.386	-6.77
700.415	-0.77
700.443	0.23
700.472	-6.77
700.5	24.23
700.528	6.23
700.557	3.23
700.585	7.23
700.614	-0.77
700.642	2.23
700.67	5.23
700.699	3.23
700.727	-2.77
700.755	1.23
700.784	-3.77
700.812	2.23
700.841	2.23
700.869	0.23
700.897	-13.77
700.926	2.23
700.954	7.23
700.982	-0.77
701.011	2.23
701.039	1.23
701.067	-7.77
701.096	7.23
701.124	-16.77
701.152	-8.77
701.181	3.23
701.209	-2.77
701.237	-1.77
701.266	-4.77
701.294	-11.77
701.322	-1.77
701.351	-6.77
701.379	2.23
701.407	-0.77
701.435	4.23
701.464	16.23
701.492	13.23
701.52	-4.77
701.549	-10.77
701.577	-23.77
701.605	7.23
701.634	15.23
701.662	11.23
701.69	-15.77
701.718	-8.77
701.747	2.23
701.775	1.23
701.803	-4.77
701.831	16.23
701.86	-6.77
701.888	2.23
701.916	-3.77
701.944	-3.77
701.973	2.23
702.001	4.23
702.029	1.23
702.057	-10.77
702.086	-12.77
702.114	-25.77
702.142	-1.77
702.17	0.23
702.199	19.23
702.227	10.23
702.255	1.23
702.283	14.23
702.311	7.23
702.34	12.23
702.368	-5.77
702.396	2.23
702.424	-1.77
702.452	-0.77
702.481	0.23
702.509	-0.77
702.537	0.23
702.565	4.23
702.593	-28.77
702.621	-17.77
702.65	6.23
702.678	0.23
702.706	5.23
702.734	10.23
702.762	4.23
702.79	-7.77
702.819	-6.77
702.847	11.23
702.875	15.23
702.903	4.23
702.931	-9.77
702.959	-1.77
702.988	0.23
703.016	-8.77
703.044	-4.77
703.072	0.23
703.1	-9.77
703.128	-12.77
703.156	-5.77
703.184	9.23
703.212	15.23
703.241	-4.77
703.269	-1.77
703.297	-1.77
703.325	8.23
703.353	-6.77
703.381	-7.77
703.409	-5.77
703.437	-6.77
703.465	5.23
703.493	-4.77
703.522	2.23
703.55	0.23
703.578	5.23
703.606	-4.77
703.634	-14.77
703.662	-9.77
703.69	-0.77
703.718	2.23
703.746	2.23
703.774	9.23
703.802	9.23
703.83	-4.77
703.858	-13.77
703.886	-21.77
703.914	-16.77
703.942	14.23
703.97	-9.77
703.998	-15.77
704.027	8.23
704.055	10.23
704.083	-1.77
704.111	-5.77
704.139	-8.77
704.167	-3.77
704.195	-8.77
704.223	-14.77
704.251	8.23
704.279	-2.77
704.307	0.23
704.335	-2.77
704.363	-4.77
704.391	8.23
704.419	-11.77
704.447	3.23
704.475	11.23
704.503	-4.77
704.531	12.23
704.558	5.23
704.586	6.23
704.614	5.23
704.642	1.23
704.67	-27.77
704.698	-0.77
704.726	-0.77
704.754	8.23
704.782	5.23
704.81	11.23
704.838	26.23
704.866	2.23
704.894	-3.77
704.922	4.23
704.95	4.23
704.978	5.23
705.006	0.23
705.034	11.23
705.061	8.23
705.089	3.23
705.117	-14.77
705.145	-12.77
705.173	7.23
705.201	-4.77
705.229	8.23
705.257	4.23
705.285	11.23
705.313	1.23
705.34	7.23
705.368	-0.77
705.396	-4.77
705.424	-3.77
705.452	3.23
705.48	0.23
705.508	-6.77
705.536	-1.77
705.563	-6.77
705.591	8.23
705.619	2.23
705.647	-16.77
705.675	-2.77
705.703	10.23
705.731	-6.77
705.758	-0.77
705.786	7.23
705.814	23.23
705.842	1.23
705.87	7.23
705.898	-4.77
705.925	1.23
705.953	3.23
705.981	-3.77
706.009	9.23
706.037	11.23
706.065	-10.77
706.092	3.23
706.12	10.23
706.148	-0.77
706.176	-7.77
706.204	7.23
706.231	12.23
706.259	6.23
706.287	6.23
706.315	1.23
706.342	3.23
706.37	10.23
706.398	1.23
706.426	-1.77
706.454	-2.77
706.481	14.23
706.509	0.23
706.537	-6.77
706.565	4.23
706.592	9.23
706.62	10.23
706.648	10.23
706.676	-12.77
706.703	-1.77
706.731	-8.77
706.759	-0.77
706.787	2.23
706.814	-7.77
706.842	-4.77
706.87	-10.77
706.897	-4.77
706.925	0.23
706.953	12.23
706.981	22.23
707.008	2.23
707.036	10.23
707.064	0.23
707.091	-12.77
707.119	3.23
707.147	8.23
707.174	-5.77
707.202	12.23
707.23	-0.77
707.258	-1.77
707.285	-2.77
707.313	-4.77
707.341	-14.77
707.368	-3.77
707.396	9.23
707.424	16.23
707.451	-1.77
707.479	2.23
707.507	10.23
707.534	3.23
707.562	-1.77
707.59	-1.77
707.617	-5.77
707.645	-18.77
707.672	7.23
707.7	11.23
707.728	15.23
707.755	-1.77
707.783	-6.77
707.811	-2.77
707.838	-8.77
707.866	-8.77
707.893	2.23
707.921	-11.77
707.949	3.23
707.976	12.23
708.004	4.23
708.031	-11.77
708.059	-0.77
708.087	-11.77
708.114	-2.77
708.142	0.23
708.169	-5.77
708.197	-7.77
708.225	1.23
708.252	-10.77
708.28	-2.77
708.307	-8.77
708.335	-5.77
708.362	-7.77
708.39	-1.77
708.418	-5.77
708.445	-13.77
708.473	-3.77
708.5	-27.77
708.528	1.23
708.555	-21.77
708.583	0.23
708.61	-3.77
708.638	-4.77
708.665	-7.77
708.693	3.23
708.72	-3.77
708.748	-8.77
708.776	-1.77
708.803	3.23
708.831	10.23
708.858	23.23
708.886	0.23
708.913	0.23
708.941	4.23
708.968	6.23
708.996	-6.77
709.023	4.23
709.051	-19.77
709.078	-7.77
709.105	-3.77
709.133	-8.77
709.16	8.23
709.188	17.23
709.215	5.23
709.243	-5.77
709.27	-5.77
709.298	7.23
709.325	-3.77
709.353	-6.77
709.38	9.23
709.408	5.23
709.435	-4.77
709.462	-17.77
709.49	-8.77
709.517	-10.77
709.545	-19.77
709.572	2.23
709.6	-5.77
709.627	4.23
709.655	-19.77
709.682	-19.77
709.709	0.23
709.737	-10.77
709.764	5.23
709.792	8.23
709.819	1.23
709.846	2.23
709.874	9.23
709.901	3.23
709.929	27.23
709.956	0.23
709.983	-21.77
710.011	-16.77
710.038	0.23
710.066	28.23
710.093	21.23
710.12	8.23
710.148	-8.77
710.175	-9.77
710.202	-17.77
710.23	0.23
710.257	2.23
710.284	16.23
710.312	11.23
710.339	-4.77
710.366	4.23
710.394	2.23
710.421	-5.77
710.448	-1.77
710.476	-24.77
710.503	2.23
710.53	11.23
710.558	10.23
710.585	3.23
710.612	7.23
710.64	-2.77
710.667	-2.77
710.694	-0.77
710.722	-6.77
710.749	-0.77
710.776	10.23
710.804	9.23
710.831	3.23
710.858	11.23
710.885	-12.77
710.913	3.23
710.94	28.23
710.967	-3.77
710.995	-4.77
711.022	-1.77
711.049	3.23
711.076	-1.77
711.104	-7.77
711.131	-17.77
711.158	-1.77
711.185	9.23
711.213	4.23
711.24	2.23
711.267	-1.77
711.294	0.23
711.322	8.23
711.349	-2.77
711.376	-4.77
711.403	31.23
711.431	10.23
711.458	9.23
711.485	-3.77
711.512	-7.77
711.54	9.23
711.567	3.23
711.594	7.23
711.621	3.23
711.648	6.23
711.676	2.23
711.703	-3.77
711.73	-4.77
711.757	6.23
711.784	6.23
711.812	12.23
711.839	-10.77
711.866	-10.77
711.893	0.23
711.92	12.23
711.947	-5.77
711.975	14.23
712.002	5.23
712.029	-13.77
712.056	-4.77
712.083	21.23
712.11	-5.77
712.138	2.23
712.165	13.23
712.192	2.23
712.219	5.23
712.246	-6.77
712.273	-4.77
712.3	2.23
712.328	-1.77
712.355	3.23
712.382	-5.77
712.409	15.23
712.436	-13.77
712.463	0.23
712.49	6.23
712.517	14.23
712.544	-6.77
712.572	-4.77
712.599	2.23
712.626	19.23
712.653	-13.77
712.68	-5.77
712.707	14.23
712.734	4.23
712.761	6.23
712.788	8.23
712.815	7.23
712.842	11.23
712.87	-5.77
712.897	-16.77
712.924	-8.77
712.951	4.23
712.978	17.23
713.005	18.23
713.032	-0.77
713.059	6.23
713.086	-10.77
713.113	-3.77
713.14	-6.77
713.167	11.23
713.194	12.23
713.221	-3.77
713.248	0.23
713.275	1.23
713.302	-14.77
713.329	-4.77
713.356	9.23
713.383	-2.77
713.41	5.23
713.437	-9.77
713.464	3.23
713.491	13.23
713.518	3.23
713.545	-18.77
713.572	-4.77
713.599	9.23
713.626	-7.77
713.653	0.23
713.68	-25.77
713.707	-1.77
713.734	5.23
713.761	-7.77
713.788	16.23
713.815	4.23
713.842	0.23
713.869	-7.77
713.896	1.23
713.923	7.23
713.95	-3.77
713.977	6.23
714.004	4.23
714.031	-2.77
714.058	-3.77
714.085	1.23
714.112	14.23
714.139	-5.77
714.165	-6.77
714.192	-6.77
714.219	7.23
714.246	12.23
714.273	8.23
714.3	-9.77
714.327	3.23
714.354	9.23
714.381	15.23
714.408	-3.77
714.435	-16.77
714.461	1.23
714.488	7.23
714.515	-2.77
714.542	-12.77
714.569	-23.77
714.596	-20.77
714.623	2.23
714.65	-4.77
714.677	-10.77
714.703	3.23
714.73	6.23
714.757	18.23
714.784	20.23
714.811	-20.77
714.838	7.23
714.865	-1.77
714.891	15.23
714.918	0.23
714.945	-9.77
714.972	-3.77
714.999	10.23
715.026	-2.77
715.052	27.23
715.079	3.23
715.106	-10.77
715.133	4.23
715.16	-8.77
715.187	4.23
715.213	16.23
715.24	-13.77
715.267	0.23
715.294	-8.77
715.321	1.23
715.347	-7.77
715.374	-6.77
715.401	0.23
715.428	2.23
715.455	-1.77
715.481	-2.77
715.508	14.23
715.535	0.23
715.562	6.23
715.588	-3.77
715.615	-4.77
715.642	-1.77
715.669	-0.77
715.695	-7.77
715.722	-3.77
715.749	-1.77
715.776	15.23
715.802	2.23
715.829	0.23
715.856	-12.77
715.883	3.23
715.909	-10.77
715.936	-0.77
715.963	5.23
715.99	-4.77
716.016	13.23
716.043	-1.77
716.07	-23.77
716.096	-17.77
716.123	3.23
716.15	0.23
716.177	9.23
716.203	20.23
716.23	12.23
716.257	-0.77
716.283	18.23
716.31	2.23
716.337	12.23
716.363	0.23
716.39	8.23
716.417	7.23
716.443	2.23
716.47	-0.77
716.497	5.23
716.523	11.23
716.55	3.23
716.577	21.23
716.603	-7.77
716.63	2.23
716.657	11.23
716.683	-0.77
716.71	4.23
716.737	-0.77
716.763	-7.77
716.79	1.23
716.817	8.23
716.843	5.23
716.87	-8.77
716.897	11.23
716.923	20.23
716.95	1.23
716.976	3.23
717.003	-4.77
717.03	-0.77
717.056	-9.77
717.083	7.23
717.109	1.23
717.136	7.23
717.163	0.23
717.189	-16.77
717.216	-7.77
717.242	-9.77
717.269	-7.77
717.296	11.23
717.322	9.23
717.349	3.23
717.375	0.23
717.402	-3.77
717.428	-16.77
717.455	-0.77
717.481	6.23
717.508	5.23
717.535	14.23
717.561	7.23
717.588	-10.77
717.614	-3.77
717.641	11.23
717.667	0.23
717.694	10.23
717.72	-1.77
717.747	-6.77
717.773	-14.77
717.8	13.23
717.826	-0.77
717.853	-5.77
717.88	15.23
717.906	3.23
717.933	5.23
717.959	7.23
717.986	13.23
718.012	-0.77
718.039	16.23
718.065	10.23
718.092	11.23
718.118	0.23
718.144	-3.77
718.171	8.23
718.197	6.23
718.224	-9.77
718.25	7.23
718.277	-5.77
718.303	11.23
718.33	12.23
718.356	6.23
718.383	-0.77
718.409	-9.77
718.436	3.23
718.462	-3.77
718.489	-17.77
718.515	-12.77
718.541	-5.77
718.568	-0.77
718.594	-8.77
718.621	7.23
718.647	2.23
718.674	-0.77
718.7	5.23
718.726	-7.77
718.753	13.23
718.779	11.23
718.806	-6.77
718.832	-19.77
718.858	-4.77
718.885	-13.77
718.911	3.23
718.938	6.23
718.964	-19.77
718.99	-4.77
719.017	8.23
719.043	5.23
719.07	7.23
719.096	-16.77
719.122	2.23
719.149	-8.77
719.175	12.23
719.201	-8.77
719.228	-6.77
719.254	-1.77
719.281	4.23
719.307	-7.77
719.333	4.23
719.36	6.23
719.386	1.23
719.412	7.23
719.439	-9.77
719.465	1.23
719.491	-5.77
719.518	2.23
719.544	-9.77
719.57	14.23
719.597	-6.77
719.623	-9.77
719.649	4.23
719.675	-1.77
719.702	-3.77
719.728	7.23
719.754	-7.77
719.781	-5.77
719.807	3.23
719.833	0.23
719.86	-7.77
719.886	-1.77
719.912	-6.77
719.938	-3.77
719.965	7.23
719.991	15.23
720.017	-14.77
720.044	-5.77
720.07	5.23
720.096	2.23
720.122	-4.77
720.149	10.23
720.175	22.23
720.201	5.23
720.227	-0.77
720.254	7.23
720.28	-3.77
720.306	2.23
720.332	2.23
720.359	5.23
720.385	5.23
720.411	-11.77
720.437	9.23
720.463	8.23
720.49	10.23
720.516	-10.77
720.542	-12.77
720.568	-4.77
720.595	17.23
720.621	6.23
720.647	12.23
720.673	6.23
720.699	-14.77
720.725	-2.77
720.752	1.23
720.778	12.23
720.804	11.23
720.83	17.23
720.856	7.23
720.883	-22.77
720.909	0.23
720.935	7.23
720.961	20.23
720.987	5.23
721.013	11.23
721.04	-6.77
721.066	-13.77
721.092	-11.77
721.118	-8.77
721.144	-1.77
721.17	-4.77
721.196	6.23
721.223	-12.77
721.249	-3.77
721.275	14.23
721.301	13.23
721.327	6.23
721.353	9.23
721.379	-0.77
721.405	15.23
721.432	2.23
721.458	-11.77
721.484	12.23
721.51	-27.77
721.536	-0.77
721.562	-1.77
721.588	-6.77
721.614	-5.77
721.64	-7.77
721.666	-8.77
721.693	-5.77
721.719	-11.77
721.745	-16.77
721.771	-16.77
721.797	-1.77
721.823	7.23
721.849	11.23
721.875	1.23
721.901	10.23
721.927	-14.77
721.953	4.23
721.979	11.23
722.005	3.23
722.031	-20.77
722.057	15.23
722.083	-0.77
722.109	-1.77
722.135	-0.77
722.161	7.23
722.187	-0.77
722.214	-0.77
722.24	-3.77
722.266	-0.77
722.292	2.23
722.318	1.23
722.344	0.23
722.37	-2.77
722.396	2.23
722.422	-8.77
722.448	0.23
722.474	-5.77
722.5	7.23
722.526	1.23
722.552	3.23
722.578	0.23
722.603	11.23
722.629	-10.77
722.655	-14.77
722.681	4.23
722.707	2.23
722.733	-2.77
722.759	-5.77
722.785	10.23
722.811	-4.77
722.837	0.23
722.863	3.23
722.889	6.23
722.915	-26.77
722.941	-3.77
722.967	0.23
722.993	-6.77
723.019	13.23
723.045	8.23
723.071	-0.77
723.097	15.23
723.122	7.23
723.148	0.23
723.174	2.23
723.2	15.23
723.226	12.23
723.252	-6.77
723.278	-0.77
723.304	-5.77
723.33	15.23
723.356	-14.77
723.381	-5.77
723.407	-20.77
723.433	1.23
723.459	-3.77
723.485	1.23
723.511	-3.77
723.537	2.23
723.563	-13.77
723.588	-6.77
723.614	3.23
723.64	-0.77
723.666	-6.77
723.692	8.23
723.718	-5.77
723.744	-0.77
723.769	-16.77
723.795	-21.77
723.821	8.23
723.847	-11.77
723.873	-7.77
723.899	2.23
723.924	-6.77
723.95	2.23
723.976	-1.77
724.002	9.23
724.028	6.23
724.053	-7.77
724.079	-5.77
724.105	-0.77
724.131	-5.77
724.157	-14.77
724.182	10.23
724.208	-11.77
724.234	-6.77
724.26	-4.77
724.286	-5.77
724.311	-7.77
724.337	-14.77
724.363	-11.77
724.389	-1.77
724.415	4.23
724.44	-0.77
724.466	-7.77
724.492	-8.77
724.518	14.23
724.543	-0.77
724.569	-5.77
724.595	-8.77
724.621	-4.77
724.646	-5.77
724.672	-3.77
724.698	-5.77
724.723	-5.77
724.749	6.23
724.775	9.23
724.801	4.23
724.826	-14.77
724.852	-8.77
724.878	6.23
724.904	-13.77
724.929	-0.77
724.955	0.23
724.981	10.23
725.006	6.23
725.032	11.23
725.058	18.23
725.083	-0.77
725.109	-27.77
725.135	5.23
725.161	-7.77
725.186	-11.77
725.212	-10.77
725.238	-1.77
725.263	-4.77
725.289	-11.77
725.315	-6.77
725.34	-5.77
725.366	6.23
725.392	-3.77
725.417	-11.77
725.443	-6.77
725.468	5.23
725.494	17.23
725.52	24.23
725.545	3.23
725.571	5.23
725.597	-11.77
725.622	-5.77
725.648	9.23
725.674	25.23
725.699	4.23
725.725	7.23
725.75	27.23
725.776	-4.77
725.802	4.23
725.827	-4.77
725.853	-3.77
725.878	-1.77
725.904	-7.77
725.93	-17.77
725.955	-4.77
725.981	-14.77
726.006	-3.77
726.032	10.23
726.057	-7.77
726.083	-13.77
726.109	1.23
726.134	-5.77
726.16	3.23
726.185	-4.77
726.211	-7.77
726.236	2.23
726.262	11.23
726.288	1.23
726.313	2.23
726.339	-3.77
726.364	1.23
726.39	15.23
726.415	-7.77
726.441	-7.77
726.466	-9.77
726.492	1.23
726.517	14.23
726.543	0.23
726.568	-3.77
726.594	8.23
726.619	0.23
726.645	14.23
726.67	6.23
726.696	17.23
726.721	-15.77
726.747	-22.77
726.772	-8.77
726.798	10.23
726.823	-1.77
726.849	-4.77
726.874	12.23
726.9	5.23
726.925	0.23
726.951	-1.77
726.976	18.23
727.002	-9.77
727.027	9.23
727.053	7.23
727.078	-22.77
727.104	8.23
727.129	-5.77
727.155	2.23
727.18	-6.77
727.205	-14.77
727.231	-4.77
727.256	-4.77
727.282	-9.77
727.307	14.23
727.333	-5.77
727.358	-3.77
727.383	-19.77
727.409	-6.77
727.434	2.23
727.46	-2.77
727.485	-4.77
727.511	3.23
727.536	-16.77
727.561	-4.77
727.587	4.23
727.612	9.23
727.637	-3.77
727.663	-10.77
727.688	17.23
727.714	-5.77
727.739	-3.77
727.764	8.23
727.79	-0.77
727.815	3.23
727.841	6.23
727.866	6.23
727.891	-3.77
727.917	-24.77
727.942	-11.77
727.967	-4.77
727.993	-4.77
728.018	-4.77
728.043	-20.77
728.069	-11.77
728.094	6.23
728.119	-6.77
728.145	-0.77
728.17	2.23
728.195	-4.77
728.221	11.23
728.246	-8.77
728.271	-12.77
728.297	-11.77
728.322	-4.77
728.347	12.23
728.373	12.23
728.398	11.23
728.423	5.23
728.448	6.23
728.474	2.23
728.499	-5.77
728.524	-5.77
728.55	7.23
728.575	9.23
728.6	-0.77
728.625	1.23
728.651	6.23
728.676	1.23
728.701	4.23
728.727	9.23
728.752	-0.77
728.777	-6.77
728.802	-5.77
728.828	-0.77
728.853	-7.77
728.878	2.23
728.903	-12.77
728.929	2.23
728.954	4.23
728.979	18.23
729.004	-1.77
729.03	-5.77
729.055	2.23
729.08	-19.77
729.105	1.23
729.13	13.23
729.156	7.23
729.181	-6.77
729.206	-13.77
729.231	-1.77
729.256	12.23
729.282	-7.77
729.307	-29.77
729.332	-7.77
729.357	-5.77
729.382	-4.77
729.408	-7.77
729.433	-1.77
729.458	6.23
729.483	-6.77
729.508	25.23
729.533	-1.77
729.559	10.23
729.584	-16.77
729.609	-4.77
729.634	8.23
729.659	-0.77
729.684	-5.77
729.71	5.23
729.735	0.23
729.76	6.23
729.785	10.23
729.81	2.23
729.835	-4.77
729.86	-8.77
729.886	5.23
729.911	8.23
729.936	-6.77
729.961	16.23
729.986	-17.77
730.011	-17.77
730.036	2.23
730.061	11.23
730.086	5.23
730.112	-0.77
730.137	16.23
730.162	1.23
730.187	-25.77
730.212	-10.77
730.237	-10.77
730.262	-6.77
730.287	10.23
730.312	22.23
730.337	-5.77
730.362	13.23
730.387	1.23
730.413	-3.77
730.438	4.23
730.463	2.23
730.488	-9.77
730.513	4.23
730.538	-6.77
730.563	11.23
730.588	17.23
730.613	7.23
730.638	2.23
730.663	7.23
730.688	21.23
730.713	7.23
730.738	-6.77
730.763	10.23
730.788	-20.77
730.813	-0.77
730.838	-1.77
730.863	7.23
730.888	7.23
730.913	-9.77
730.938	-19.77
730.963	7.23
730.988	-4.77
731.013	17.23
731.038	-3.77
731.063	2.23
731.088	-3.77
731.113	-9.77
731.138	-6.77
731.163	-2.77
731.188	-5.77
731.213	2.23
731.238	7.23
731.263	-1.77
731.288	21.23
731.313	10.23
731.338	-2.77
731.363	7.23
731.388	-0.77
731.413	-5.77
731.438	19.23
731.463	-1.77
731.487	10.23
731.512	2.23
731.537	-23.77
731.562	-4.77
731.587	15.23
731.612	2.23
731.637	-1.77
731.662	-3.77
731.687	7.23
731.712	-4.77
731.737	8.23
731.762	-2.77
731.786	6.23
731.811	2.23
731.836	8.23
731.861	2.23
731.886	-4.77
731.911	1.23
731.936	-0.77
731.961	16.23
731.986	0.23
732.01	8.23
732.035	2.23
732.06	18.23
732.085	0.23
732.11	-10.77
732.135	-14.77
732.16	-4.77
732.184	-4.77
732.209	3.23
732.234	4.23
732.259	5.23
732.284	10.23
732.309	-1.77
732.334	-1.77
732.358	-3.77
732.383	-7.77
732.408	0.23
732.433	3.23
732.458	4.23
732.482	-3.77
732.507	2.23
732.532	0.23
732.557	12.23
732.582	-12.77
732.607	-7.77
732.631	-4.77
732.656	-1.77
732.681	-6.77
732.706	2.23
732.73	-3.77
732.755	-12.77
732.78	-3.77
732.805	-4.77
732.83	0.23
732.854	11.23
732.879	9.23
732.904	6.23
732.929	-0.77
732.953	3.23
732.978	-6.77
733.003	-7.77
733.028	-3.77
733.052	8.23
733.077	1.23
733.102	5.23
733.127	5.23
733.151	-7.77
733.176	-0.77
733.201	2.23
733.226	2.23
733.25	6.23
733.275	-3.77
733.3	14.23
733.324	8.23
733.349	7.23
733.374	19.23
733.399	-2.77
733.423	0.23
733.448	-0.77
733.473	-4.77
733.497	-1.77
733.522	-3.77
733.547	3.23
733.571	28.23
733.596	7.23
733.621	10.23
733.646	23.23
733.67	0.23
733.695	1.23
733.72	18.23
733.744	15.23
733.769	9.23
733.794	12.23
733.818	6.23
733.843	-11.77
733.867	-4.77
733.892	-1.77
733.917	6.23
733.941	3.23
733.966	-4.77
733.991	-12.77
734.015	10.23
734.04	-0.77
734.065	19.23
734.089	6.23
734.114	-5.77
734.138	4.23
734.163	0.23
734.188	4.23
734.212	10.23
734.237	4.23
734.261	9.23
734.286	-0.77
734.311	-13.77
734.335	-4.77
734.36	8.23
734.384	21.23
734.409	14.23
734.434	6.23
734.458	18.23
734.483	15.23
734.507	-10.77
734.532	-12.77
734.556	6.23
734.581	-4.77
734.606	0.23
734.63	-6.77
734.655	-3.77
734.679	6.23
734.704	-11.77
734.728	7.23
734.753	1.23
734.777	2.23
734.802	5.23
734.826	9.23
734.851	-12.77
734.876	13.23
734.9	15.23
734.925	11.23
734.949	-1.77
734.974	-1.77
734.998	-4.77
735.023	-6.77
735.047	-23.77
735.072	9.23
735.096	-1.77
735.121	-7.77
735.145	4.23
735.17	0.23
735.194	2.23
735.219	-16.77
735.243	6.23
735.268	14.23
735.292	7.23
735.317	8.23
735.341	2.23
735.365	-6.77
735.39	18.23
735.414	19.23
735.439	12.23
735.463	14.23
735.488	6.23
735.512	-4.77
735.537	-3.77
735.561	-1.77
735.586	7.23
735.61	7.23
735.634	-0.77
735.659	14.23
735.683	18.23
735.708	-3.77
735.732	-2.77
735.757	6.23
735.781	6.23
735.805	-8.77
735.83	-0.77
735.854	3.23
735.879	8.23
735.903	5.23
735.927	-1.77
735.952	10.23
735.976	-5.77
736.001	-4.77
736.025	2.23
736.049	0.23
736.074	-6.77
736.098	6.23
736.123	4.23
736.147	2.23
736.171	2.23
736.196	11.23
736.22	2.23
736.244	13.23
736.269	0.23
736.293	-9.77
736.317	-1.77
736.342	10.23
736.366	14.23
736.39	9.23
736.415	-1.77
736.439	7.23
736.463	9.23
736.488	9.23
736.512	2.23
736.536	-0.77
736.561	16.23
736.585	3.23
736.609	1.23
736.634	-11.77
736.658	1.23
736.682	-13.77
736.707	-5.77
736.731	-19.77
736.755	-11.77
736.78	9.23
736.804	3.23
736.828	23.23
736.852	-3.77
736.877	2.23
736.901	9.23
736.925	-4.77
736.949	14.23
736.974	5.23
736.998	-0.77
737.022	-4.77
737.047	-1.77
737.071	15.23
737.095	6.23
737.119	18.23
737.144	6.23
737.168	-9.77
737.192	-4.77
737.216	9.23
737.241	2.23
737.265	-10.77
737.289	-0.77
737.313	2.23
737.337	0.23
737.362	20.23
737.386	-5.77
737.41	-3.77
737.434	11.23
737.459	-3.77
737.483	-6.77
737.507	8.23
737.531	11.23
737.555	4.23
737.58	20.23
737.604	18.23
737.628	-26.77
737.652	-8.77
737.676	16.23
737.701	3.23
737.725	8.23
737.749	8.23
737.773	9.23
737.797	-11.77
737.821	-0.77
737.846	-3.77
737.87	22.23
737.894	8.23
737.918	4.23
737.942	-9.77
737.966	6.23
737.99	15.23
738.015	5.23
738.039	-6.77
738.063	9.23
738.087	11.23
738.111	-4.77
738.135	7.23
738.159	1.23
738.184	-5.77
738.208	9.23
738.232	11.23
738.256	12.23
738.28	-4.77
738.304	6.23
738.328	4.23
738.352	9.23
738.376	-5.77
738.4	0.23
738.425	-1.77
738.449	-6.77
738.473	7.23
738.497	1.23
738.521	18.23
738.545	4.23
738.569	11.23
738.593	1.23
738.617	15.23
738.641	5.23
738.665	6.23
738.689	4.23
738.713	5.23
738.737	14.23
738.762	30.23
738.786	9.23
738.81	-1.77
738.834	-2.77
738.858	1.23
738.882	-13.77
738.906	-12.77
738.93	-9.77
738.954	-7.77
738.978	8.23
739.002	-9.77
739.026	7.23
739.05	9.23
739.074	-3.77
739.098	26.23
739.122	18.23
739.146	-1.77
739.17	11.23
739.194	12.23
739.218	-8.77
739.242	-1.77
739.266	-0.77
739.29	7.23
739.314	20.23
739.338	4.23
739.362	-7.77
739.386	1.23
739.41	-2.77
739.434	-5.77
739.458	20.23
739.482	14.23
739.506	-2.77
739.53	2.23
739.554	12.23
739.577	-7.77
739.601	11.23
739.625	-3.77
739.649	7.23
739.673	-1.77
739.697	5.23
739.721	1.23
739.745	5.23
739.769	5.23
739.793	6.23
739.817	9.23
739.841	5.23
739.865	-2.77
739.889	-2.77
739.912	9.23
739.936	3.23
739.96	-1.77
739.984	24.23
740.008	-7.77
740.032	-13.77
740.056	-1.77
740.08	-5.77
740.104	4.23
740.127	10.23
740.151	9.23
740.175	9.23
740.199	11.23
740.223	42.23
740.247	6.23
740.271	7.23
740.295	-2.77
740.318	-1.77
740.342	-0.77
740.366	-4.77
740.39	12.23
740.414	-4.77
740.438	-14.77
740.461	6.23
740.485	2.23
740.509	5.23
740.533	8.23
740.557	1.23
740.581	5.23
740.604	-4.77
740.628	0.23
740.652	7.23
740.676	-6.77
740.7	22.23
740.723	-1.77
740.747	-11.77
740.771	-16.77
740.795	-17.77
740.819	-4.77
740.842	0.23
740.866	6.23
740.89	-1.77
740.914	-1.77
740.938	-11.77
740.961	19.23
740.985	7.23
741.009	4.23
741.033	3.23
741.056	-0.77
741.08	-11.77
741.104	-0.77
741.128	-3.77
741.151	21.23
741.175	2.23
741.199	-1.77
741.223	-2.77
741.246	-9.77
741.27	-1.77
741.294	2.23
741.318	-4.77
741.341	0.23
741.365	-0.77
741.389	0.23
741.413	3.23
741.436	22.23
741.46	-2.77
741.484	8.23
741.507	7.23
741.531	31.23
741.555	18.23
741.579	4.23
741.602	5.23
741.626	-0.77
741.65	3.23
741.673	9.23
741.697	3.23
741.721	5.23
741.744	-13.77
741.768	-4.77
741.792	2.23
741.815	2.23
741.839	14.23
741.863	11.23
741.886	19.23
741.91	20.23
741.934	5.23
741.957	3.23
741.981	17.23
742.005	-12.77
742.028	-8.77
742.052	-2.77
742.075	17.23
742.099	12.23
742.123	0.23
742.146	-6.77
742.17	0.23
742.194	-2.77
742.217	-9.77
742.241	-3.77
742.264	-2.77
742.288	24.23
742.312	-3.77
742.335	7.23
742.359	1.23
742.382	14.23
742.406	11.23
742.43	-4.77
742.453	11.23
742.477	0.23
742.5	14.23
742.524	0.23
742.548	-3.77
742.571	-9.77
742.595	-8.77
742.618	-5.77
742.642	-0.77
742.665	13.23
742.689	-0.77
742.712	1.23
742.736	-12.77
742.76	5.23
742.783	3.23
742.807	8.23
742.83	23.23
742.854	-0.77
742.877	4.23
742.901	4.23
742.924	-5.77
742.948	10.23
742.971	-5.77
742.995	-6.77
743.018	-1.77
743.042	-7.77
743.065	-3.77
743.089	-4.77
743.112	-2.77
743.136	-17.77
743.159	-12.77
743.183	-12.77
743.206	0.23
743.23	-3.77
743.253	12.23
743.277	7.23
743.3	-4.77
743.324	-9.77
743.347	-13.77
743.371	20.23
743.394	1.23
743.418	18.23
743.441	10.23
743.465	13.23
743.488	4.23
743.512	-9.77
743.535	8.23
743.558	3.23
743.582	8.23
743.605	0.23
743.629	18.23
743.652	8.23
743.676	-5.77
743.699	4.23
743.723	9.23
743.746	1.23
743.769	7.23
743.793	3.23
743.816	-8.77
743.84	11.23
743.863	14.23
743.886	13.23
743.91	15.23
743.933	13.23
743.957	-1.77
743.98	-1.77
744.003	-1.77
744.027	-0.77
744.05	-8.77
744.074	-3.77
744.097	-13.77
744.12	-13.77
744.144	-3.77
744.167	15.23
744.19	15.23
744.214	2.23
744.237	-5.77
744.26	12.23
744.284	0.23
744.307	-13.77
744.331	6.23
744.354	-8.77
744.377	-14.77
744.401	-5.77
744.424	-9.77
744.447	-15.77
744.471	-6.77
