Data from HighRes_H2_15_09_11_07_2024_HR4C61891__70__15-11-03-402.txt Node

Date: Thu Nov 07 15:11:03 EST 2024
User: crc00042
Spectrometer: HR4C6189
Trigger mode: 4
Integration Time (sec): 1.000000E-1
Scans to average: 1
Electric dark correction enabled: true
Nonlinearity correction enabled: false
Boxcar width: 0
XAxis mode: Wavelengths
Number of Pixels in Spectrum: 3648
>>>>>Begin Spectral Data<<<<<
639.567	-56.69
639.602	-56.69
639.636	-56.69
639.67	-46.69
639.704	-14.69
639.738	12.31
639.773	19.31
639.807	-16.69
639.841	-7.69
639.875	2.31
639.909	4.31
639.943	-3.69
639.978	8.31
640.012	-8.69
640.046	9.31
640.08	-6.69
640.114	-7.69
640.148	-4.69
640.182	-22.69
640.217	0.31
640.251	26.31
640.285	20.31
640.319	0.31
640.353	9.31
640.387	-3.69
640.421	-11.69
640.455	-9.69
640.49	-3.69
640.524	7.31
640.558	9.31
640.592	1.31
640.626	-0.69
640.66	1.31
640.694	0.31
640.728	7.31
640.762	15.31
640.796	31.31
640.83	26.31
640.865	-0.69
640.899	8.31
640.933	1.31
640.967	-1.69
641.001	10.31
641.035	6.31
641.069	6.31
641.103	-8.69
641.137	1.31
641.171	11.31
641.205	23.31
641.239	-2.69
641.273	20.31
641.307	9.31
641.341	5.31
641.375	-10.69
641.409	0.31
641.443	14.31
641.477	8.31
641.511	13.31
641.545	3.31
641.579	10.31
641.614	1.31
641.648	4.31
641.682	-6.69
641.716	7.31
641.75	7.31
641.784	3.31
641.818	7.31
641.852	12.31
641.886	-2.69
641.919	36.31
641.953	9.31
641.987	-6.69
642.021	-4.69
642.055	9.31
642.089	18.31
642.123	0.31
642.157	6.31
642.191	-3.69
642.225	20.31
642.259	2.31
642.293	24.31
642.327	14.31
642.361	6.31
642.395	22.31
642.429	18.31
642.463	8.31
642.497	21.31
642.531	8.31
642.565	7.31
642.599	6.31
642.633	6.31
642.666	12.31
642.7	-1.69
642.734	12.31
642.768	-5.69
642.802	4.31
642.836	9.31
642.87	-6.69
642.904	0.31
642.938	26.31
642.972	10.31
643.005	9.31
643.039	22.31
643.073	21.31
643.107	17.31
643.141	-1.69
643.175	-0.69
643.209	-1.69
643.243	-4.69
643.276	8.31
643.31	6.31
643.344	2.31
643.378	17.31
643.412	5.31
643.446	-4.69
643.48	-13.69
643.513	6.31
643.547	0.31
643.581	1.31
643.615	14.31
643.649	-1.69
643.683	13.31
643.716	0.31
643.75	8.31
643.784	-0.69
643.818	19.31
643.852	-9.69
643.886	5.31
643.919	10.31
643.953	13.31
643.987	10.31
644.021	-6.69
644.055	9.31
644.088	6.31
644.122	3.31
644.156	8.31
644.19	28.31
644.224	-16.69
644.257	-5.69
644.291	20.31
644.325	12.31
644.359	5.31
644.392	23.31
644.426	17.31
644.46	8.31
644.494	15.31
644.527	1.31
644.561	7.31
644.595	5.31
644.629	-0.69
644.662	2.31
644.696	22.31
644.73	5.31
644.764	9.31
644.797	7.31
644.831	-4.69
644.865	8.31
644.899	1.31
644.932	19.31
644.966	2.31
645	15.31
645.033	21.31
645.067	-2.69
645.101	10.31
645.135	16.31
645.168	-4.69
645.202	12.31
645.236	10.31
645.269	21.31
645.303	-0.69
645.337	3.31
645.37	1.31
645.404	8.31
645.438	-2.69
645.471	6.31
645.505	7.31
645.539	2.31
645.572	-10.69
645.606	-12.69
645.64	11.31
645.673	6.31
645.707	31.31
645.741	12.31
645.774	-1.69
645.808	12.31
645.842	4.31
645.875	17.31
645.909	1.31
645.943	-16.69
645.976	5.31
646.01	-4.69
646.043	9.31
646.077	7.31
646.111	16.31
646.144	6.31
646.178	8.31
646.212	-4.69
646.245	1.31
646.279	7.31
646.312	19.31
646.346	13.31
646.38	6.31
646.413	6.31
646.447	-1.69
646.48	-5.69
646.514	4.31
646.547	15.31
646.581	-3.69
646.615	4.31
646.648	0.31
646.682	10.31
646.715	11.31
646.749	22.31
646.782	7.31
646.816	7.31
646.85	0.31
646.883	-0.69
646.917	21.31
646.95	9.31
646.984	3.31
647.017	-2.69
647.051	13.31
647.084	12.31
647.118	10.31
647.151	9.31
647.185	-0.69
647.218	-3.69
647.252	-6.69
647.285	3.31
647.319	-1.69
647.353	16.31
647.386	25.31
647.42	10.31
647.453	14.31
647.487	-4.69
647.52	7.31
647.553	17.31
647.587	10.31
647.62	0.31
647.654	28.31
647.687	10.31
647.721	-2.69
647.754	2.31
647.788	1.31
647.821	-0.69
647.855	16.31
647.888	24.31
647.922	26.31
647.955	5.31
647.989	24.31
648.022	5.31
648.055	13.31
648.089	-12.69
648.122	16.31
648.156	-0.69
648.189	7.31
648.223	15.31
648.256	16.31
648.29	1.31
648.323	5.31
648.356	8.31
648.39	0.31
648.423	16.31
648.457	-10.69
648.49	22.31
648.523	12.31
648.557	4.31
648.59	11.31
648.624	12.31
648.657	8.31
648.69	32.31
648.724	20.31
648.757	18.31
648.791	3.31
648.824	6.31
648.857	31.31
648.891	-3.69
648.924	15.31
648.957	21.31
648.991	8.31
649.024	25.31
649.057	-0.69
649.091	3.31
649.124	16.31
649.158	9.31
649.191	34.31
649.224	8.31
649.258	13.31
649.291	12.31
649.324	8.31
649.358	2.31
649.391	3.31
649.424	11.31
649.458	-0.69
649.491	18.31
649.524	0.31
649.557	-16.69
649.591	-11.69
649.624	22.31
649.657	12.31
649.691	5.31
649.724	11.31
649.757	-5.69
649.791	1.31
649.824	0.31
649.857	16.31
649.89	-7.69
649.924	-3.69
649.957	-6.69
649.99	-5.69
650.023	-0.69
650.057	3.31
650.09	16.31
650.123	8.31
650.157	14.31
650.19	21.31
650.223	4.31
650.256	7.31
650.29	17.31
650.323	0.31
650.356	1.31
650.389	5.31
650.423	-4.69
650.456	5.31
650.489	-3.69
650.522	11.31
650.555	32.31
650.589	22.31
650.622	12.31
650.655	7.31
650.688	17.31
650.721	8.31
650.755	6.31
650.788	25.31
650.821	8.31
650.854	9.31
650.887	28.31
650.921	11.31
650.954	-10.69
650.987	7.31
651.02	1.31
651.053	-15.69
651.087	-9.69
651.12	30.31
651.153	26.31
651.186	11.31
651.219	-8.69
651.252	11.31
651.286	14.31
651.319	-5.69
651.352	0.31
651.385	12.31
651.418	15.31
651.451	3.31
651.484	6.31
651.518	-10.69
651.551	19.31
651.584	2.31
651.617	34.31
651.65	17.31
651.683	23.31
651.716	-3.69
651.749	-9.69
651.783	-6.69
651.816	-1.69
651.849	-0.69
651.882	8.31
651.915	9.31
651.948	16.31
651.981	12.31
652.014	-8.69
652.047	-5.69
652.08	1.31
652.114	17.31
652.147	7.31
652.18	12.31
652.213	30.31
652.246	9.31
652.279	2.31
652.312	15.31
652.345	19.31
652.378	4.31
652.411	31.31
652.444	15.31
652.477	3.31
652.51	25.31
652.543	5.31
652.576	0.31
652.609	-1.69
652.642	9.31
652.675	22.31
652.709	13.31
652.742	18.31
652.775	15.31
652.808	13.31
652.841	9.31
652.874	2.31
652.907	0.31
652.94	7.31
652.973	-9.69
653.006	-15.69
653.039	1.31
653.072	15.31
653.105	21.31
653.138	-22.69
653.171	7.31
653.204	8.31
653.237	11.31
653.27	-9.69
653.303	10.31
653.336	18.31
653.368	1.31
653.401	9.31
653.434	7.31
653.467	18.31
653.5	-11.69
653.533	-9.69
653.566	7.31
653.599	-3.69
653.632	11.31
653.665	1.31
653.698	1.31
653.731	12.31
653.764	7.31
653.797	-4.69
653.83	18.31
653.863	14.31
653.896	17.31
653.929	-5.69
653.961	-4.69
653.994	4.31
654.027	-3.69
654.06	13.31
654.093	13.31
654.126	17.31
654.159	6.31
654.192	1.31
654.225	6.31
654.258	4.31
654.29	9.31
654.323	-0.69
654.356	-0.69
654.389	7.31
654.422	-17.69
654.455	2.31
654.488	3.31
654.521	-2.69
654.553	-11.69
654.586	23.31
654.619	2.31
654.652	1.31
654.685	7.31
654.718	25.31
654.751	8.31
654.783	0.31
654.816	22.31
654.849	4.31
654.882	-2.69
654.915	-15.69
654.948	20.31
654.98	-3.69
655.013	-5.69
655.046	2.31
655.079	17.31
655.112	13.31
655.144	-2.69
655.177	24.31
655.21	32.31
655.243	13.31
655.276	13.31
655.308	9.31
655.341	1.31
655.374	13.31
655.407	5.31
655.44	3.31
655.472	2.31
655.505	10.31
655.538	15.31
655.571	12.31
655.603	5.31
655.636	16.31
655.669	28.31
655.702	7.31
655.734	15.31
655.767	2.31
655.8	24.31
655.833	36.31
655.865	34.31
655.898	21.31
655.931	21.31
655.964	42.31
655.996	52.31
656.029	52.31
656.062	59.31
656.095	71.31
656.127	61.31
656.16	104.31
656.193	119.31
656.225	164.31
656.258	297.31
656.291	512.31
656.324	1132.31
656.356	3411.31
656.389	7533.31
656.422	6070.31
656.454	2090.31
656.487	683.31
656.52	275.31
656.552	132.31
656.585	74.31
656.618	68.31
656.65	58.31
656.683	24.31
656.716	18.31
656.748	14.31
656.781	2.31
656.814	-15.69
656.846	7.31
656.879	5.31
656.912	4.31
656.944	-9.69
656.977	2.31
657.01	7.31
657.042	8.31
657.075	8.31
657.108	-9.69
657.14	1.31
657.173	39.31
657.205	12.31
657.238	11.31
657.271	12.31
657.303	7.31
657.336	10.31
657.369	-1.69
657.401	7.31
657.434	-1.69
657.466	0.31
657.499	-5.69
657.532	0.31
657.564	12.31
657.597	9.31
657.629	0.31
657.662	-2.69
657.694	7.31
657.727	-8.69
657.76	25.31
657.792	9.31
657.825	7.31
657.857	11.31
657.89	5.31
657.922	24.31
657.955	9.31
657.987	15.31
658.02	30.31
658.053	22.31
658.085	3.31
658.118	9.31
658.15	4.31
658.183	18.31
658.215	4.31
658.248	15.31
658.28	8.31
658.313	28.31
658.345	17.31
658.378	14.31
658.41	-2.69
658.443	16.31
658.475	0.31
658.508	1.31
658.54	18.31
658.573	-16.69
658.605	10.31
658.638	7.31
658.67	14.31
658.703	19.31
658.735	8.31
658.768	12.31
658.8	2.31
658.833	29.31
658.865	1.31
658.898	6.31
658.93	13.31
658.963	-0.69
658.995	-14.69
659.028	14.31
659.06	-0.69
659.092	-2.69
659.125	7.31
659.157	1.31
659.19	1.31
659.222	5.31
659.255	16.31
659.287	12.31
659.32	-1.69
659.352	11.31
659.384	12.31
659.417	-3.69
659.449	18.31
659.482	31.31
659.514	-3.69
659.546	-0.69
659.579	11.31
659.611	16.31
659.644	-0.69
659.676	10.31
659.708	0.31
659.741	-2.69
659.773	7.31
659.806	-0.69
659.838	-0.69
659.87	-1.69
659.903	-0.69
659.935	14.31
659.967	10.31
660	-12.69
660.032	-21.69
660.065	12.31
660.097	13.31
660.129	-1.69
660.162	-11.69
660.194	16.31
660.226	11.31
660.259	8.31
660.291	-5.69
660.323	-11.69
660.356	-8.69
660.388	-18.69
660.42	10.31
660.453	-1.69
660.485	12.31
660.517	19.31
660.55	19.31
660.582	-4.69
660.614	3.31
660.647	8.31
660.679	-6.69
660.711	5.31
660.743	-11.69
660.776	3.31
660.808	-6.69
660.84	8.31
660.873	15.31
660.905	5.31
660.937	5.31
660.969	11.31
661.002	8.31
661.034	10.31
661.066	5.31
661.099	1.31
661.131	30.31
661.163	13.31
661.195	-2.69
661.228	22.31
661.26	-0.69
661.292	-16.69
661.324	-2.69
661.357	4.31
661.389	15.31
661.421	17.31
661.453	3.31
661.485	-6.69
661.518	12.31
661.55	-15.69
661.582	-8.69
661.614	-1.69
661.647	20.31
661.679	14.31
661.711	0.31
661.743	-7.69
661.775	16.31
661.808	21.31
661.84	-10.69
661.872	4.31
661.904	2.31
661.936	6.31
661.969	-7.69
662.001	-18.69
662.033	-15.69
662.065	-4.69
662.097	5.31
662.129	18.31
662.162	14.31
662.194	4.31
662.226	-5.69
662.258	20.31
662.29	11.31
662.322	-8.69
662.355	-10.69
662.387	9.31
662.419	9.31
662.451	17.31
662.483	7.31
662.515	0.31
662.547	2.31
662.58	-12.69
662.612	-3.69
662.644	-6.69
662.676	-4.69
662.708	19.31
662.74	-5.69
662.772	22.31
662.804	11.31
662.836	0.31
662.869	4.31
662.901	9.31
662.933	4.31
662.965	5.31
662.997	8.31
663.029	7.31
663.061	-5.69
663.093	4.31
663.125	-6.69
663.157	1.31
663.189	4.31
663.221	20.31
663.254	12.31
663.286	11.31
663.318	2.31
663.35	-4.69
663.382	-15.69
663.414	7.31
663.446	14.31
663.478	-2.69
663.51	23.31
663.542	5.31
663.574	2.31
663.606	8.31
663.638	-21.69
663.67	6.31
663.702	6.31
663.734	9.31
663.766	-6.69
663.798	9.31
663.83	18.31
663.862	20.31
663.894	18.31
663.926	-1.69
663.958	13.31
663.99	1.31
664.022	10.31
664.054	4.31
664.086	-2.69
664.118	-6.69
664.15	-3.69
664.182	-2.69
664.214	-2.69
664.246	24.31
664.278	12.31
664.31	26.31
664.342	13.31
664.374	17.31
664.406	-19.69
664.438	5.31
664.47	24.31
664.502	-0.69
664.534	8.31
664.566	7.31
664.598	13.31
664.63	-6.69
664.662	6.31
664.693	-4.69
664.725	5.31
664.757	3.31
664.789	-9.69
664.821	8.31
664.853	10.31
664.885	6.31
664.917	11.31
664.949	26.31
664.981	26.31
665.013	21.31
665.045	2.31
665.076	4.31
665.108	4.31
665.14	-8.69
665.172	9.31
665.204	-1.69
665.236	-19.69
665.268	23.31
665.3	15.31
665.331	-6.69
665.363	15.31
665.395	-11.69
665.427	-14.69
665.459	8.31
665.491	15.31
665.523	3.31
665.555	0.31
665.586	4.31
665.618	5.31
665.65	-4.69
665.682	21.31
665.714	18.31
665.746	7.31
665.777	5.31
665.809	6.31
665.841	16.31
665.873	7.31
665.905	9.31
665.937	18.31
665.968	5.31
666	13.31
666.032	16.31
666.064	-11.69
666.096	6.31
666.127	14.31
666.159	20.31
666.191	32.31
666.223	7.31
666.255	8.31
666.286	10.31
666.318	8.31
666.35	20.31
666.382	-2.69
666.413	-7.69
666.445	-5.69
666.477	-23.69
666.509	7.31
666.54	-1.69
666.572	-6.69
666.604	-4.69
666.636	5.31
666.667	35.31
666.699	18.31
666.731	5.31
666.763	3.31
666.794	0.31
666.826	14.31
666.858	-16.69
666.89	7.31
666.921	12.31
666.953	16.31
666.985	31.31
667.017	26.31
667.048	22.31
667.08	4.31
667.112	-5.69
667.143	-9.69
667.175	8.31
667.207	10.31
667.238	12.31
667.27	7.31
667.302	0.31
667.334	6.31
667.365	18.31
667.397	1.31
667.429	10.31
667.46	13.31
667.492	12.31
667.524	0.31
667.555	10.31
667.587	11.31
667.619	4.31
667.65	4.31
667.682	16.31
667.714	7.31
667.745	-8.69
667.777	1.31
667.808	25.31
667.84	-0.69
667.872	-2.69
667.903	23.31
667.935	14.31
667.967	22.31
667.998	5.31
668.03	6.31
668.061	7.31
668.093	0.31
668.125	14.31
668.156	5.31
668.188	-5.69
668.22	-5.69
668.251	-5.69
668.283	9.31
668.314	16.31
668.346	6.31
668.377	10.31
668.409	1.31
668.441	23.31
668.472	17.31
668.504	18.31
668.535	13.31
668.567	13.31
668.599	20.31
668.63	12.31
668.662	12.31
668.693	32.31
668.725	6.31
668.756	4.31
668.788	3.31
668.819	1.31
668.851	-3.69
668.882	10.31
668.914	4.31
668.946	-1.69
668.977	-2.69
669.009	3.31
669.04	-3.69
669.072	-8.69
669.103	-10.69
669.135	-4.69
669.166	0.31
669.198	8.31
669.229	6.31
669.261	11.31
669.292	9.31
669.324	11.31
669.355	20.31
669.387	-12.69
669.418	14.31
669.45	-4.69
669.481	7.31
669.513	29.31
669.544	12.31
669.576	1.31
669.607	15.31
669.639	29.31
669.67	-8.69
669.701	-3.69
669.733	-17.69
669.764	-4.69
669.796	6.31
669.827	-2.69
669.859	7.31
669.89	-2.69
669.922	7.31
669.953	-0.69
669.985	8.31
670.016	19.31
670.047	21.31
670.079	11.31
670.11	16.31
670.142	12.31
670.173	0.31
670.204	7.31
670.236	0.31
670.267	-11.69
670.299	6.31
670.33	9.31
670.362	5.31
670.393	-6.69
670.424	12.31
670.456	-10.69
670.487	-0.69
670.518	13.31
670.55	7.31
670.581	-0.69
670.613	7.31
670.644	8.31
670.675	-7.69
670.707	11.31
670.738	11.31
670.769	10.31
670.801	-19.69
670.832	2.31
670.864	-5.69
670.895	2.31
670.926	-6.69
670.958	13.31
670.989	3.31
671.02	-15.69
671.052	-6.69
671.083	-11.69
671.114	2.31
671.146	12.31
671.177	5.31
671.208	9.31
671.24	-15.69
671.271	-13.69
671.302	-0.69
671.333	6.31
671.365	-3.69
671.396	-2.69
671.427	1.31
671.459	10.31
671.49	15.31
671.521	11.31
671.553	12.31
671.584	27.31
671.615	12.31
671.646	16.31
671.678	19.31
671.709	-4.69
671.74	2.31
671.771	4.31
671.803	2.31
671.834	-2.69
671.865	-6.69
671.896	12.31
671.928	12.31
671.959	9.31
671.99	0.31
672.021	-0.69
672.053	5.31
672.084	15.31
672.115	18.31
672.146	3.31
672.178	-5.69
672.209	7.31
672.24	2.31
672.271	17.31
672.303	0.31
672.334	9.31
672.365	10.31
672.396	10.31
672.427	20.31
672.459	17.31
672.49	24.31
672.521	10.31
672.552	7.31
672.583	3.31
672.615	20.31
672.646	2.31
672.677	1.31
672.708	2.31
672.739	10.31
672.77	20.31
672.802	4.31
672.833	8.31
672.864	2.31
672.895	17.31
672.926	3.31
672.957	-8.69
672.989	-2.69
673.02	10.31
673.051	-0.69
673.082	7.31
673.113	6.31
673.144	6.31
673.175	10.31
673.206	0.31
673.238	13.31
673.269	-0.69
673.3	-3.69
673.331	9.31
673.362	-1.69
673.393	17.31
673.424	24.31
673.455	17.31
673.487	9.31
673.518	26.31
673.549	9.31
673.58	-2.69
673.611	18.31
673.642	0.31
673.673	-15.69
673.704	-9.69
673.735	-1.69
673.766	-1.69
673.797	-5.69
673.828	1.31
673.86	-14.69
673.891	-7.69
673.922	2.31
673.953	-5.69
673.984	13.31
674.015	13.31
674.046	-1.69
674.077	7.31
674.108	-5.69
674.139	-2.69
674.17	4.31
674.201	-4.69
674.232	10.31
674.263	0.31
674.294	-0.69
674.325	-8.69
674.356	8.31
674.387	15.31
674.418	20.31
674.449	6.31
674.48	-5.69
674.511	10.31
674.542	17.31
674.573	-10.69
674.604	9.31
674.635	3.31
674.666	0.31
674.697	1.31
674.728	22.31
674.759	9.31
674.79	-5.69
674.821	-6.69
674.852	6.31
674.883	-7.69
674.914	2.31
674.945	11.31
674.976	1.31
675.007	9.31
675.038	1.31
675.069	-20.69
675.1	7.31
675.131	8.31
675.162	-15.69
675.193	-3.69
675.224	-3.69
675.254	21.31
675.285	13.31
675.316	18.31
675.347	-2.69
675.378	-8.69
675.409	-8.69
675.44	10.31
675.471	15.31
675.502	7.31
675.533	16.31
675.564	12.31
675.595	-10.69
675.625	4.31
675.656	12.31
675.687	-2.69
675.718	-11.69
675.749	5.31
675.78	10.31
675.811	1.31
675.842	0.31
675.873	2.31
675.903	6.31
675.934	2.31
675.965	14.31
675.996	1.31
676.027	7.31
676.058	7.31
676.089	-11.69
676.119	13.31
676.15	4.31
676.181	6.31
676.212	3.31
676.243	12.31
676.274	3.31
676.304	4.31
676.335	-6.69
676.366	0.31
676.397	11.31
676.428	1.31
676.459	14.31
676.489	5.31
676.52	9.31
676.551	5.31
676.582	-3.69
676.613	10.31
676.643	2.31
676.674	9.31
676.705	1.31
676.736	-9.69
676.767	14.31
676.797	6.31
676.828	10.31
676.859	-7.69
676.89	-9.69
676.92	9.31
676.951	8.31
676.982	7.31
677.013	0.31
677.044	29.31
677.074	3.31
677.105	2.31
677.136	16.31
677.167	9.31
677.197	28.31
677.228	6.31
677.259	1.31
677.289	1.31
677.32	-9.69
677.351	6.31
677.382	-2.69
677.412	-3.69
677.443	7.31
677.474	11.31
677.505	-2.69
677.535	26.31
677.566	-4.69
677.597	-11.69
677.627	-5.69
677.658	1.31
677.689	-7.69
677.72	4.31
677.75	5.31
677.781	2.31
677.812	3.31
677.842	3.31
677.873	7.31
677.904	1.31
677.934	-0.69
677.965	9.31
677.996	-9.69
678.026	-3.69
678.057	7.31
678.088	-8.69
678.118	1.31
678.149	1.31
678.18	8.31
678.21	19.31
678.241	-0.69
678.272	0.31
678.302	2.31
678.333	8.31
678.363	5.31
678.394	15.31
678.425	-1.69
678.455	6.31
678.486	9.31
678.517	-0.69
678.547	-0.69
678.578	-3.69
678.608	-3.69
678.639	11.31
678.67	-1.69
678.7	4.31
678.731	1.31
678.761	-0.69
678.792	13.31
678.823	14.31
678.853	4.31
678.884	-14.69
678.914	16.31
678.945	11.31
678.975	-8.69
679.006	3.31
679.037	2.31
679.067	25.31
679.098	10.31
679.128	4.31
679.159	17.31
679.189	17.31
679.22	-2.69
679.25	7.31
679.281	-14.69
679.312	10.31
679.342	11.31
679.373	37.31
679.403	13.31
679.434	9.31
679.464	9.31
679.495	12.31
679.525	8.31
679.556	8.31
679.586	3.31
679.617	-3.69
679.647	9.31
679.678	7.31
679.708	11.31
679.739	8.31
679.769	-0.69
679.8	5.31
679.83	8.31
679.861	8.31
679.891	12.31
679.922	-10.69
679.952	-2.69
679.983	23.31
680.013	10.31
680.044	-24.69
680.074	19.31
680.105	4.31
680.135	5.31
680.165	24.31
680.196	2.31
680.226	9.31
680.257	9.31
680.287	-0.69
680.318	10.31
680.348	3.31
680.379	14.31
680.409	8.31
680.439	4.31
680.47	0.31
680.5	0.31
680.531	0.31
680.561	5.31
680.592	5.31
680.622	1.31
680.652	-2.69
680.683	11.31
680.713	-5.69
680.744	-5.69
680.774	-2.69
680.804	16.31
680.835	7.31
680.865	-12.69
680.896	26.31
680.926	22.31
680.956	14.31
680.987	20.31
681.017	18.31
681.047	7.31
681.078	-9.69
681.108	14.31
681.139	11.31
681.169	0.31
681.199	-16.69
681.23	14.31
681.26	-5.69
681.29	13.31
681.321	-10.69
681.351	5.31
681.381	-0.69
681.412	1.31
681.442	-5.69
681.472	11.31
681.503	22.31
681.533	20.31
681.563	16.31
681.594	9.31
681.624	18.31
681.654	6.31
681.685	3.31
681.715	7.31
681.745	-7.69
681.775	-7.69
681.806	10.31
681.836	13.31
681.866	4.31
681.897	7.31
681.927	17.31
681.957	-5.69
681.987	14.31
682.018	15.31
682.048	3.31
682.078	1.31
682.109	24.31
682.139	21.31
682.169	13.31
682.199	12.31
682.23	4.31
682.26	3.31
682.29	-7.69
682.32	3.31
682.351	-9.69
682.381	4.31
682.411	13.31
682.441	9.31
682.472	17.31
682.502	-0.69
682.532	-1.69
682.562	1.31
682.592	10.31
682.623	19.31
682.653	25.31
682.683	5.31
682.713	-1.69
682.743	2.31
682.774	-14.69
682.804	4.31
682.834	19.31
682.864	-5.69
682.894	-12.69
682.925	2.31
682.955	0.31
682.985	8.31
683.015	-6.69
683.045	8.31
683.076	-3.69
683.106	-7.69
683.136	1.31
683.166	-7.69
683.196	-1.69
683.226	4.31
683.257	1.31
683.287	-5.69
683.317	-8.69
683.347	13.31
683.377	6.31
683.407	5.31
683.437	7.31
683.468	6.31
683.498	-9.69
683.528	-8.69
683.558	-2.69
683.588	2.31
683.618	4.31
683.648	5.31
683.678	19.31
683.708	29.31
683.739	4.31
683.769	13.31
683.799	7.31
683.829	6.31
683.859	6.31
683.889	13.31
683.919	1.31
683.949	4.31
683.979	9.31
684.009	8.31
684.039	15.31
684.07	-2.69
684.1	14.31
684.13	5.31
684.16	0.31
684.19	6.31
684.22	18.31
684.25	3.31
684.28	4.31
684.31	23.31
684.34	1.31
684.37	-4.69
684.4	-9.69
684.43	6.31
684.46	8.31
684.49	0.31
684.52	10.31
684.55	10.31
684.58	-0.69
684.61	3.31
684.64	13.31
684.67	15.31
684.7	2.31
684.73	15.31
684.76	-0.69
684.79	4.31
684.82	5.31
684.85	0.31
684.88	18.31
684.91	3.31
684.94	6.31
684.97	3.31
685	-8.69
685.03	-15.69
685.06	13.31
685.09	12.31
685.12	23.31
685.15	4.31
685.18	13.31
685.21	3.31
685.24	7.31
685.27	15.31
685.3	-10.69
685.33	4.31
685.36	-8.69
685.39	11.31
685.42	5.31
685.45	15.31
685.48	9.31
685.51	12.31
685.54	21.31
685.569	8.31
685.599	13.31
685.629	23.31
685.659	8.31
685.689	2.31
685.719	12.31
685.749	0.31
685.779	7.31
685.809	0.31
685.839	11.31
685.869	6.31
685.898	15.31
685.928	-0.69
685.958	6.31
685.988	14.31
686.018	3.31
686.048	11.31
686.078	5.31
686.108	15.31
686.137	5.31
686.167	24.31
686.197	3.31
686.227	6.31
686.257	51.31
686.287	30.31
686.317	-0.69
686.346	0.31
686.376	4.31
686.406	1.31
686.436	15.31
686.466	6.31
686.496	16.31
686.525	15.31
686.555	-0.69
686.585	19.31
686.615	31.31
686.645	17.31
686.675	2.31
686.704	4.31
686.734	11.31
686.764	21.31
686.794	8.31
686.824	-4.69
686.853	5.31
686.883	15.31
686.913	1.31
686.943	9.31
686.973	15.31
687.002	15.31
687.032	7.31
687.062	1.31
687.092	28.31
687.121	10.31
687.151	20.31
687.181	20.31
687.211	16.31
687.24	1.31
687.27	6.31
687.3	5.31
687.33	-6.69
687.359	-2.69
687.389	25.31
687.419	6.31
687.449	13.31
687.478	-9.69
687.508	0.31
687.538	10.31
687.568	19.31
687.597	6.31
687.627	21.31
687.657	-4.69
687.686	7.31
687.716	17.31
687.746	-3.69
687.776	8.31
687.805	8.31
687.835	-1.69
687.865	21.31
687.894	13.31
687.924	1.31
687.954	14.31
687.983	9.31
688.013	8.31
688.043	15.31
688.072	9.31
688.102	16.31
688.132	7.31
688.161	7.31
688.191	-14.69
688.221	16.31
688.25	5.31
688.28	18.31
688.31	-1.69
688.339	8.31
688.369	-12.69
688.399	-5.69
688.428	2.31
688.458	-8.69
688.488	0.31
688.517	33.31
688.547	1.31
688.576	35.31
688.606	19.31
688.636	4.31
688.665	15.31
688.695	24.31
688.725	25.31
688.754	25.31
688.784	11.31
688.813	21.31
688.843	8.31
688.873	-6.69
688.902	9.31
688.932	-0.69
688.961	-7.69
688.991	23.31
689.02	36.31
689.05	-0.69
689.08	4.31
689.109	36.31
689.139	1.31
689.168	4.31
689.198	2.31
689.227	-0.69
689.257	5.31
689.287	12.31
689.316	9.31
689.346	-4.69
689.375	-10.69
689.405	17.31
689.434	-4.69
689.464	14.31
689.493	4.31
689.523	-8.69
689.552	-11.69
689.582	1.31
689.611	1.31
689.641	10.31
689.67	7.31
689.7	14.31
689.73	27.31
689.759	10.31
689.789	28.31
689.818	4.31
689.848	-1.69
689.877	29.31
689.906	7.31
689.936	-8.69
689.965	4.31
689.995	-0.69
690.024	24.31
690.054	17.31
690.083	12.31
690.113	13.31
690.142	5.31
690.172	9.31
690.201	10.31
690.231	6.31
690.26	20.31
690.29	1.31
690.319	11.31
690.348	13.31
690.378	5.31
690.407	13.31
690.437	-3.69
690.466	0.31
690.496	4.31
690.525	11.31
690.555	8.31
690.584	15.31
690.613	11.31
690.643	13.31
690.672	20.31
690.702	9.31
690.731	-5.69
690.76	4.31
690.79	0.31
690.819	9.31
690.849	24.31
690.878	10.31
690.907	4.31
690.937	14.31
690.966	7.31
690.996	8.31
691.025	1.31
691.054	8.31
691.084	7.31
691.113	-1.69
691.142	9.31
691.172	21.31
691.201	26.31
691.23	21.31
691.26	17.31
691.289	19.31
691.319	-5.69
691.348	18.31
691.377	12.31
691.407	-3.69
691.436	12.31
691.465	3.31
691.495	6.31
691.524	6.31
691.553	-0.69
691.583	-1.69
691.612	29.31
691.641	16.31
691.67	17.31
691.7	5.31
691.729	-2.69
691.758	9.31
691.788	16.31
691.817	4.31
691.846	7.31
691.876	6.31
691.905	6.31
691.934	1.31
691.963	15.31
691.993	-2.69
692.022	2.31
692.051	-7.69
692.081	-0.69
692.11	17.31
692.139	11.31
692.168	6.31
692.198	25.31
692.227	17.31
692.256	14.31
692.285	8.31
692.315	-4.69
692.344	7.31
692.373	5.31
692.402	-11.69
692.432	2.31
692.461	-5.69
692.49	21.31
692.519	-0.69
692.548	23.31
692.578	11.31
692.607	-4.69
692.636	9.31
692.665	24.31
692.694	11.31
692.724	12.31
692.753	8.31
692.782	13.31
692.811	11.31
692.84	5.31
692.87	7.31
692.899	-3.69
692.928	1.31
692.957	16.31
692.986	5.31
693.016	8.31
693.045	1.31
693.074	8.31
693.103	1.31
693.132	1.31
693.161	13.31
693.191	6.31
693.22	7.31
693.249	6.31
693.278	5.31
693.307	18.31
693.336	-14.69
693.365	-11.69
693.395	15.31
693.424	5.31
693.453	15.31
693.482	-2.69
693.511	6.31
693.54	8.31
693.569	22.31
693.598	6.31
693.628	9.31
693.657	13.31
693.686	14.31
693.715	21.31
693.744	17.31
693.773	27.31
693.802	11.31
693.831	2.31
693.86	25.31
693.889	0.31
693.919	4.31
693.948	7.31
693.977	8.31
694.006	6.31
694.035	-9.69
694.064	-7.69
694.093	8.31
694.122	11.31
694.151	5.31
694.18	23.31
694.209	29.31
694.238	8.31
694.267	22.31
694.296	19.31
694.325	1.31
694.354	18.31
694.383	4.31
694.412	1.31
694.441	14.31
694.471	8.31
694.5	8.31
694.529	20.31
694.558	17.31
694.587	11.31
694.616	8.31
694.645	20.31
694.674	6.31
694.703	9.31
694.732	-4.69
694.761	22.31
694.79	17.31
694.819	-20.69
694.848	8.31
694.877	14.31
694.906	21.31
694.935	3.31
694.963	34.31
694.992	14.31
695.021	20.31
695.05	6.31
695.079	15.31
695.108	9.31
695.137	26.31
695.166	7.31
695.195	-4.69
695.224	8.31
695.253	8.31
695.282	7.31
695.311	15.31
695.34	-2.69
695.369	8.31
695.398	23.31
695.427	11.31
695.456	19.31
695.485	6.31
695.513	2.31
695.542	6.31
695.571	8.31
695.6	17.31
695.629	18.31
695.658	5.31
695.687	16.31
695.716	4.31
695.745	28.31
695.774	1.31
695.802	-2.69
695.831	9.31
695.86	24.31
695.889	7.31
695.918	9.31
695.947	5.31
695.976	16.31
696.005	9.31
696.033	16.31
696.062	3.31
696.091	7.31
696.12	12.31
696.149	28.31
696.178	3.31
696.207	12.31
696.235	-0.69
696.264	0.31
696.293	10.31
696.322	15.31
696.351	32.31
696.38	5.31
696.408	23.31
696.437	17.31
696.466	4.31
696.495	20.31
696.524	19.31
696.553	13.31
696.581	20.31
696.61	15.31
696.639	8.31
696.668	11.31
696.697	-3.69
696.725	25.31
696.754	11.31
696.783	26.31
696.812	1.31
696.84	17.31
696.869	-0.69
696.898	5.31
696.927	10.31
696.956	16.31
696.984	-1.69
697.013	5.31
697.042	6.31
697.071	-10.69
697.099	4.31
697.128	8.31
697.157	11.31
697.186	11.31
697.214	15.31
697.243	5.31
697.272	-2.69
697.301	9.31
697.329	7.31
697.358	13.31
697.387	30.31
697.415	23.31
697.444	10.31
697.473	2.31
697.502	-3.69
697.53	2.31
697.559	15.31
697.588	3.31
697.616	6.31
697.645	5.31
697.674	27.31
697.703	-1.69
697.731	7.31
697.76	2.31
697.789	12.31
697.817	9.31
697.846	15.31
697.875	-1.69
697.903	18.31
697.932	21.31
697.961	9.31
697.989	1.31
698.018	7.31
698.047	6.31
698.075	21.31
698.104	-15.69
698.133	0.31
698.161	-2.69
698.19	-3.69
698.218	0.31
698.247	4.31
698.276	3.31
698.304	9.31
698.333	15.31
698.362	13.31
698.39	8.31
698.419	14.31
698.447	17.31
698.476	14.31
698.505	6.31
698.533	13.31
698.562	6.31
698.591	-1.69
698.619	-9.69
698.648	13.31
698.676	0.31
698.705	0.31
698.733	-0.69
698.762	8.31
698.791	11.31
698.819	13.31
698.848	17.31
698.876	15.31
698.905	8.31
698.933	1.31
698.962	11.31
698.991	-5.69
699.019	25.31
699.048	18.31
699.076	7.31
699.105	4.31
699.133	-3.69
699.162	-2.69
699.19	20.31
699.219	18.31
699.248	11.31
699.276	4.31
699.305	11.31
699.333	19.31
699.362	-3.69
699.39	5.31
699.419	11.31
699.447	13.31
699.476	9.31
699.504	3.31
699.533	21.31
699.561	8.31
699.59	6.31
699.618	6.31
699.647	7.31
699.675	8.31
699.704	1.31
699.732	15.31
699.761	19.31
699.789	8.31
699.818	26.31
699.846	0.31
699.874	3.31
699.903	3.31
699.931	-12.69
699.96	9.31
699.988	-2.69
700.017	4.31
700.045	8.31
700.074	8.31
700.102	7.31
700.13	-1.69
700.159	2.31
700.187	10.31
700.216	8.31
700.244	-6.69
700.273	5.31
700.301	16.31
700.329	5.31
700.358	23.31
700.386	7.31
700.415	4.31
700.443	-0.69
700.472	-11.69
700.5	6.31
700.528	8.31
700.557	16.31
700.585	6.31
700.614	3.31
700.642	16.31
700.67	20.31
700.699	15.31
700.727	0.31
700.755	10.31
700.784	6.31
700.812	10.31
700.841	17.31
700.869	4.31
700.897	2.31
700.926	1.31
700.954	15.31
700.982	11.31
701.011	7.31
701.039	2.31
701.067	6.31
701.096	7.31
701.124	-3.69
701.152	10.31
701.181	7.31
701.209	-28.69
701.237	-12.69
701.266	10.31
701.294	3.31
701.322	6.31
701.351	17.31
701.379	0.31
701.407	-0.69
701.435	2.31
701.464	12.31
701.492	16.31
701.52	-8.69
701.549	5.31
701.577	12.31
701.605	7.31
701.634	8.31
701.662	10.31
701.69	-15.69
701.718	-17.69
701.747	17.31
701.775	4.31
701.803	-0.69
701.831	17.31
701.86	2.31
701.888	14.31
701.916	5.31
701.944	10.31
701.973	-2.69
702.001	-15.69
702.029	-6.69
702.057	-4.69
702.086	-8.69
702.114	3.31
702.142	6.31
702.17	-10.69
702.199	8.31
702.227	-0.69
702.255	-7.69
702.283	-0.69
702.311	17.31
702.34	7.31
702.368	-8.69
702.396	3.31
702.424	12.31
702.452	8.31
702.481	7.31
702.509	17.31
702.537	13.31
702.565	12.31
702.593	-10.69
702.621	-0.69
702.65	3.31
702.678	17.31
702.706	17.31
702.734	0.31
702.762	18.31
702.79	12.31
702.819	19.31
702.847	8.31
702.875	15.31
702.903	8.31
702.931	-8.69
702.959	0.31
702.988	14.31
703.016	-6.69
703.044	-0.69
703.072	12.31
703.1	6.31
703.128	18.31
703.156	9.31
703.184	4.31
703.212	22.31
703.241	-10.69
703.269	3.31
703.297	1.31
703.325	9.31
703.353	-6.69
703.381	0.31
703.409	13.31
703.437	4.31
703.465	13.31
703.493	9.31
703.522	-0.69
703.55	-1.69
703.578	9.31
703.606	-1.69
703.634	-12.69
703.662	2.31
703.69	-0.69
703.718	12.31
703.746	19.31
703.774	-4.69
703.802	20.31
703.83	-4.69
703.858	6.31
703.886	-8.69
703.914	4.31
703.942	23.31
703.97	6.31
703.998	-9.69
704.027	38.31
704.055	18.31
704.083	4.31
704.111	-1.69
704.139	0.31
704.167	-2.69
704.195	9.31
704.223	3.31
704.251	-5.69
704.279	16.31
704.307	23.31
704.335	-0.69
704.363	1.31
704.391	6.31
704.419	-6.69
704.447	0.31
704.475	-2.69
704.503	-12.69
704.531	8.31
704.558	10.31
704.586	16.31
704.614	9.31
704.642	24.31
704.67	-9.69
704.698	-7.69
704.726	16.31
704.754	4.31
704.782	11.31
704.81	-8.69
704.838	24.31
704.866	13.31
704.894	-6.69
704.922	11.31
704.95	16.31
704.978	24.31
705.006	19.31
705.034	18.31
705.061	-4.69
705.089	-9.69
705.117	1.31
705.145	6.31
705.173	13.31
705.201	14.31
705.229	11.31
705.257	13.31
705.285	10.31
705.313	9.31
705.34	4.31
705.368	5.31
705.396	4.31
705.424	16.31
705.452	8.31
705.48	24.31
705.508	-1.69
705.536	12.31
705.563	4.31
705.591	13.31
705.619	7.31
705.647	10.31
705.675	4.31
705.703	17.31
705.731	14.31
705.758	21.31
705.786	0.31
705.814	22.31
705.842	0.31
705.87	2.31
705.898	9.31
705.925	11.31
705.953	20.31
705.981	2.31
706.009	-5.69
706.037	16.31
706.065	-1.69
706.092	3.31
706.12	18.31
706.148	-1.69
706.176	-2.69
706.204	9.31
706.231	4.31
706.259	3.31
706.287	7.31
706.315	21.31
706.342	-1.69
706.37	3.31
706.398	-0.69
706.426	-4.69
706.454	-5.69
706.481	-1.69
706.509	21.31
706.537	-3.69
706.565	-7.69
706.592	15.31
706.62	15.31
706.648	-2.69
706.676	-3.69
706.703	12.31
706.731	-1.69
706.759	-0.69
706.787	6.31
706.814	12.31
706.842	-7.69
706.87	-10.69
706.897	3.31
706.925	12.31
706.953	4.31
706.981	10.31
707.008	8.31
707.036	18.31
707.064	0.31
707.091	-2.69
707.119	1.31
707.147	-1.69
707.174	-14.69
707.202	5.31
707.23	-9.69
707.258	17.31
707.285	-11.69
707.313	11.31
707.341	-14.69
707.368	7.31
707.396	12.31
707.424	8.31
707.451	7.31
707.479	-5.69
707.507	6.31
707.534	-5.69
707.562	-0.69
707.59	1.31
707.617	2.31
707.645	-5.69
707.672	8.31
707.7	4.31
707.728	16.31
707.755	-6.69
707.783	-8.69
707.811	11.31
707.838	-3.69
707.866	4.31
707.893	14.31
707.921	8.31
707.949	5.31
707.976	3.31
708.004	0.31
708.031	7.31
708.059	-1.69
708.087	8.31
708.114	-4.69
708.142	-1.69
708.169	3.31
708.197	-16.69
708.225	-8.69
708.252	-11.69
708.28	12.31
708.307	6.31
708.335	-12.69
708.362	-4.69
708.39	-3.69
708.418	8.31
708.445	-0.69
708.473	-6.69
708.5	-0.69
708.528	4.31
708.555	-2.69
708.583	-0.69
708.61	5.31
708.638	19.31
708.665	-9.69
708.693	6.31
708.72	-5.69
708.748	0.31
708.776	1.31
708.803	12.31
708.831	4.31
708.858	18.31
708.886	9.31
708.913	15.31
708.941	4.31
708.968	1.31
708.996	-3.69
709.023	27.31
709.051	1.31
709.078	-5.69
709.105	5.31
709.133	-7.69
709.16	-0.69
709.188	0.31
709.215	18.31
709.243	-1.69
709.27	-14.69
709.298	1.31
709.325	1.31
709.353	1.31
709.38	14.31
709.408	20.31
709.435	4.31
709.462	1.31
709.49	5.31
709.517	0.31
709.545	-6.69
709.572	0.31
709.6	-2.69
709.627	3.31
709.655	-4.69
709.682	0.31
709.709	3.31
709.737	0.31
709.764	-7.69
709.792	17.31
709.819	4.31
709.846	-7.69
709.874	12.31
709.901	13.31
709.929	5.31
709.956	18.31
709.983	2.31
710.011	-8.69
710.038	0.31
710.066	10.31
710.093	-0.69
710.12	-1.69
710.148	-14.69
710.175	-3.69
710.202	-14.69
710.23	14.31
710.257	3.31
710.284	21.31
710.312	-0.69
710.339	-2.69
710.366	2.31
710.394	-7.69
710.421	5.31
710.448	-3.69
710.476	-10.69
710.503	10.31
710.53	10.31
710.558	18.31
710.585	21.31
710.612	8.31
710.64	0.31
710.667	2.31
710.694	-7.69
710.722	-2.69
710.749	-8.69
710.776	3.31
710.804	27.31
710.831	13.31
710.858	7.31
710.885	3.31
710.913	14.31
710.94	24.31
710.967	9.31
710.995	7.31
711.022	8.31
711.049	-2.69
711.076	-10.69
711.104	1.31
711.131	-11.69
711.158	8.31
711.185	4.31
711.213	-6.69
711.24	-14.69
711.267	-4.69
711.294	18.31
711.322	13.31
711.349	-4.69
711.376	-6.69
711.403	10.31
711.431	1.31
711.458	5.31
711.485	6.31
711.512	7.31
711.54	-0.69
711.567	-2.69
711.594	2.31
711.621	-3.69
711.648	-6.69
711.676	29.31
711.703	15.31
711.73	-3.69
711.757	-5.69
711.784	-6.69
711.812	6.31
711.839	12.31
711.866	6.31
711.893	-6.69
711.92	1.31
711.947	12.31
711.975	2.31
712.002	-3.69
712.029	11.31
712.056	-0.69
712.083	14.31
712.11	-6.69
712.138	2.31
712.165	15.31
712.192	11.31
712.219	-0.69
712.246	3.31
712.273	17.31
712.3	1.31
712.328	0.31
712.355	12.31
712.382	-8.69
712.409	13.31
712.436	-2.69
712.463	4.31
712.49	13.31
712.517	14.31
712.544	3.31
712.572	18.31
712.599	-12.69
712.626	7.31
712.653	3.31
712.68	5.31
712.707	5.31
712.734	24.31
712.761	16.31
712.788	8.31
712.815	4.31
712.842	12.31
712.87	20.31
712.897	-10.69
712.924	-6.69
712.951	12.31
712.978	20.31
713.005	25.31
713.032	21.31
713.059	4.31
713.086	-8.69
713.113	-16.69
713.14	-2.69
713.167	9.31
713.194	12.31
713.221	-4.69
713.248	-0.69
713.275	-18.69
713.302	-3.69
713.329	27.31
713.356	8.31
713.383	5.31
713.41	-6.69
713.437	-12.69
713.464	-2.69
713.491	-11.69
713.518	7.31
713.545	-2.69
713.572	-6.69
713.599	5.31
713.626	-2.69
713.653	7.31
713.68	-8.69
713.707	-4.69
713.734	10.31
713.761	6.31
713.788	18.31
713.815	8.31
713.842	-2.69
713.869	4.31
713.896	7.31
713.923	7.31
713.95	-6.69
713.977	-1.69
714.004	2.31
714.031	3.31
714.058	16.31
714.085	5.31
714.112	3.31
714.139	-1.69
714.165	-0.69
714.192	-0.69
714.219	10.31
714.246	9.31
714.273	3.31
714.3	-3.69
714.327	30.31
714.354	9.31
714.381	5.31
714.408	1.31
714.435	13.31
714.461	-4.69
714.488	4.31
714.515	0.31
714.542	-2.69
714.569	-8.69
714.596	-7.69
714.623	6.31
714.65	4.31
714.677	-1.69
714.703	2.31
714.73	14.31
714.757	4.31
714.784	5.31
714.811	-1.69
714.838	8.31
714.865	-0.69
714.891	-4.69
714.918	-0.69
714.945	-6.69
714.972	1.31
714.999	8.31
715.026	4.31
715.052	13.31
715.079	13.31
715.106	-0.69
715.133	3.31
715.16	-4.69
715.187	6.31
715.213	3.31
715.24	1.31
715.267	9.31
715.294	9.31
715.321	-14.69
715.347	4.31
715.374	-13.69
715.401	0.31
715.428	13.31
715.455	12.31
715.481	-1.69
715.508	23.31
715.535	0.31
715.562	30.31
715.588	8.31
715.615	-17.69
715.642	-7.69
715.669	19.31
715.695	-13.69
715.722	0.31
715.749	6.31
715.776	17.31
715.802	9.31
715.829	3.31
715.856	-7.69
715.883	17.31
715.909	-3.69
715.936	-0.69
715.963	15.31
715.99	-2.69
716.016	2.31
716.043	11.31
716.07	-16.69
716.096	-19.69
716.123	7.31
716.15	-11.69
716.177	9.31
716.203	8.31
716.23	11.31
716.257	5.31
716.283	9.31
716.31	-2.69
716.337	-7.69
716.363	-10.69
716.39	0.31
716.417	14.31
716.443	-0.69
716.47	24.31
716.497	18.31
716.523	23.31
716.55	11.31
716.577	10.31
716.603	-1.69
716.63	6.31
716.657	16.31
716.683	8.31
716.71	16.31
716.737	7.31
716.763	-1.69
716.79	11.31
716.817	37.31
716.843	15.31
716.87	14.31
716.897	4.31
716.923	10.31
716.95	11.31
716.976	-2.69
717.003	1.31
717.03	18.31
717.056	16.31
717.083	-8.69
717.109	13.31
717.136	8.31
717.163	3.31
717.189	27.31
717.216	3.31
717.242	7.31
717.269	10.31
717.296	-4.69
717.322	1.31
717.349	13.31
717.375	15.31
717.402	7.31
717.428	10.31
717.455	8.31
717.481	-1.69
717.508	11.31
717.535	5.31
717.561	5.31
717.588	8.31
717.614	5.31
717.641	7.31
717.667	1.31
717.694	1.31
717.72	1.31
717.747	-3.69
717.773	-0.69
717.8	1.31
717.826	17.31
717.853	3.31
717.88	15.31
717.906	-1.69
717.933	0.31
717.959	6.31
717.986	4.31
718.012	-6.69
718.039	5.31
718.065	12.31
718.092	7.31
718.118	-6.69
718.144	6.31
718.171	19.31
718.197	26.31
718.224	19.31
718.25	8.31
718.277	25.31
718.303	3.31
718.33	3.31
718.356	-10.69
718.383	-0.69
718.409	4.31
718.436	9.31
718.462	4.31
718.489	-1.69
718.515	16.31
718.541	18.31
718.568	-1.69
718.594	0.31
718.621	0.31
718.647	16.31
718.674	24.31
718.7	9.31
718.726	21.31
718.753	22.31
718.779	6.31
718.806	4.31
718.832	6.31
718.858	9.31
718.885	20.31
718.911	11.31
718.938	8.31
718.964	3.31
718.99	-0.69
719.017	6.31
719.043	16.31
719.07	12.31
719.096	0.31
719.122	14.31
719.149	-3.69
719.175	18.31
719.201	3.31
719.228	5.31
719.254	9.31
719.281	11.31
719.307	-14.69
719.333	0.31
719.36	8.31
719.386	-2.69
719.412	0.31
719.439	-13.69
719.465	2.31
719.491	-6.69
719.518	9.31
719.544	8.31
719.57	15.31
719.597	5.31
719.623	-12.69
719.649	0.31
719.675	-10.69
719.702	-3.69
719.728	13.31
719.754	-6.69
719.781	2.31
719.807	-0.69
719.833	0.31
719.86	-0.69
719.886	2.31
719.912	-2.69
719.938	-2.69
719.965	-0.69
719.991	16.31
720.017	12.31
720.044	13.31
720.07	0.31
720.096	13.31
720.122	8.31
720.149	5.31
720.175	16.31
720.201	4.31
720.227	0.31
720.254	-11.69
720.28	3.31
720.306	-10.69
720.332	-1.69
720.359	15.31
720.385	7.31
720.411	-1.69
720.437	8.31
720.463	3.31
720.49	20.31
720.516	11.31
720.542	-4.69
720.568	12.31
720.595	17.31
720.621	11.31
720.647	15.31
720.673	11.31
720.699	7.31
720.725	22.31
720.752	3.31
720.778	16.31
720.804	6.31
720.83	8.31
720.856	2.31
720.883	-11.69
720.909	2.31
720.935	4.31
720.961	16.31
720.987	7.31
721.013	13.31
721.04	-1.69
721.066	12.31
721.092	4.31
721.118	2.31
721.144	-2.69
721.17	0.31
721.196	1.31
721.223	-7.69
721.249	8.31
721.275	18.31
721.301	-1.69
721.327	20.31
721.353	5.31
721.379	0.31
721.405	4.31
721.432	28.31
721.458	13.31
721.484	19.31
721.51	-6.69
721.536	14.31
721.562	15.31
721.588	0.31
721.614	12.31
721.64	7.31
721.666	8.31
721.693	-4.69
721.719	-3.69
721.745	5.31
721.771	5.31
721.797	9.31
721.823	10.31
721.849	20.31
721.875	11.31
721.901	8.31
721.927	9.31
721.953	17.31
721.979	22.31
722.005	8.31
722.031	-3.69
722.057	13.31
722.083	8.31
722.109	14.31
722.135	12.31
722.161	8.31
722.187	-6.69
722.214	7.31
722.24	4.31
722.266	-4.69
722.292	11.31
722.318	5.31
722.344	4.31
722.37	13.31
722.396	24.31
722.422	19.31
722.448	-5.69
722.474	-14.69
722.5	8.31
722.526	5.31
722.552	11.31
722.578	2.31
722.603	9.31
722.629	13.31
722.655	15.31
722.681	-9.69
722.707	3.31
722.733	3.31
722.759	-13.69
722.785	4.31
722.811	-0.69
722.837	21.31
722.863	9.31
722.889	10.31
722.915	7.31
722.941	1.31
722.967	10.31
722.993	23.31
723.019	10.31
723.045	12.31
723.071	13.31
723.097	13.31
723.122	8.31
723.148	-0.69
723.174	-11.69
723.2	13.31
723.226	4.31
723.252	15.31
723.278	11.31
723.304	-4.69
723.33	3.31
723.356	-1.69
723.381	-11.69
723.407	-22.69
723.433	9.31
723.459	-6.69
723.485	2.31
723.511	16.31
723.537	14.31
723.563	10.31
723.588	2.31
723.614	0.31
723.64	7.31
723.666	17.31
723.692	7.31
723.718	7.31
723.744	15.31
723.769	-7.69
723.795	-3.69
723.821	14.31
723.847	6.31
723.873	3.31
723.899	4.31
723.924	-2.69
723.95	7.31
723.976	8.31
724.002	14.31
724.028	15.31
724.053	7.31
724.079	5.31
724.105	10.31
724.131	2.31
724.157	0.31
724.182	-0.69
724.208	-4.69
724.234	-1.69
724.26	1.31
724.286	4.31
724.311	10.31
724.337	-19.69
724.363	8.31
724.389	2.31
724.415	-5.69
724.44	28.31
724.466	-3.69
724.492	-7.69
724.518	9.31
724.543	-0.69
724.569	12.31
724.595	5.31
724.621	12.31
724.646	-6.69
724.672	2.31
724.698	-4.69
724.723	12.31
724.749	16.31
724.775	13.31
724.801	4.31
724.826	12.31
724.852	-3.69
724.878	-3.69
724.904	-12.69
724.929	3.31
724.955	4.31
724.981	-8.69
725.006	-1.69
725.032	5.31
725.058	13.31
725.083	-3.69
725.109	-3.69
725.135	3.31
725.161	14.31
725.186	1.31
725.212	-0.69
725.238	15.31
725.263	8.31
725.289	8.31
725.315	-9.69
725.34	5.31
725.366	23.31
725.392	3.31
725.417	6.31
725.443	11.31
725.468	10.31
725.494	25.31
725.52	22.31
725.545	0.31
725.571	6.31
725.597	5.31
725.622	-1.69
725.648	5.31
725.674	11.31
725.699	4.31
725.725	5.31
725.75	28.31
725.776	2.31
725.802	2.31
725.827	9.31
725.853	3.31
725.878	-1.69
725.904	-1.69
725.93	11.31
725.955	-1.69
725.981	1.31
726.006	-0.69
726.032	10.31
726.057	3.31
726.083	-5.69
726.109	4.31
726.134	4.31
726.16	14.31
726.185	-6.69
726.211	0.31
726.236	10.31
726.262	25.31
726.288	3.31
726.313	19.31
726.339	9.31
726.364	13.31
726.39	12.31
726.415	-3.69
726.441	1.31
726.466	5.31
726.492	2.31
726.517	6.31
726.543	5.31
726.568	-19.69
726.594	-2.69
726.619	4.31
726.645	10.31
726.67	12.31
726.696	7.31
726.721	3.31
726.747	-23.69
726.772	-1.69
726.798	8.31
726.823	16.31
726.849	6.31
726.874	15.31
726.9	27.31
726.925	14.31
726.951	-0.69
726.976	9.31
727.002	7.31
727.027	17.31
727.053	3.31
727.078	-0.69
727.104	-2.69
727.129	-17.69
727.155	-2.69
727.18	0.31
727.205	-2.69
727.231	4.31
727.256	11.31
727.282	12.31
727.307	16.31
727.333	7.31
727.358	4.31
727.383	5.31
727.409	-2.69
727.434	11.31
727.46	-10.69
727.485	14.31
727.511	0.31
727.536	-2.69
727.561	-8.69
727.587	-1.69
727.612	5.31
727.637	12.31
727.663	10.31
727.688	6.31
727.714	5.31
727.739	10.31
727.764	7.31
727.79	21.31
727.815	8.31
727.841	15.31
727.866	-9.69
727.891	5.31
727.917	-11.69
727.942	-4.69
727.967	3.31
727.993	-9.69
728.018	2.31
728.043	0.31
728.069	-1.69
728.094	3.31
728.119	5.31
728.145	7.31
728.17	7.31
728.195	3.31
728.221	8.31
728.246	0.31
728.271	-2.69
728.297	0.31
728.322	1.31
728.347	4.31
728.373	8.31
728.398	18.31
728.423	3.31
728.448	7.31
728.474	13.31
728.499	15.31
728.524	5.31
728.55	-5.69
728.575	-3.69
728.6	1.31
728.625	1.31
728.651	3.31
728.676	2.31
728.701	2.31
728.727	13.31
728.752	5.31
728.777	2.31
728.802	-0.69
728.828	-0.69
728.853	5.31
728.878	7.31
728.903	-5.69
728.929	-7.69
728.954	3.31
728.979	4.31
729.004	-5.69
729.03	1.31
729.055	1.31
729.08	-9.69
729.105	5.31
729.13	17.31
729.156	5.31
729.181	1.31
729.206	-17.69
729.231	-4.69
729.256	7.31
729.282	0.31
729.307	-6.69
729.332	0.31
729.357	-8.69
729.382	12.31
729.408	-6.69
729.433	5.31
729.458	21.31
729.483	15.31
729.508	18.31
729.533	15.31
729.559	9.31
729.584	1.31
729.609	14.31
729.634	10.31
729.659	-0.69
729.684	-14.69
729.71	16.31
729.735	8.31
729.76	3.31
729.785	-3.69
729.81	14.31
729.835	-0.69
729.86	-3.69
729.886	7.31
729.911	2.31
729.936	0.31
729.961	1.31
729.986	-5.69
730.011	10.31
730.036	4.31
730.061	8.31
730.086	0.31
730.112	12.31
730.137	19.31
730.162	-6.69
730.187	6.31
730.212	19.31
730.237	-14.69
730.262	-0.69
730.287	-2.69
730.312	15.31
730.337	-5.69
730.362	12.31
730.387	5.31
730.413	0.31
730.438	5.31
730.463	7.31
730.488	-9.69
730.513	5.31
730.538	7.31
730.563	9.31
730.588	6.31
730.613	16.31
730.638	-4.69
730.663	3.31
730.688	23.31
730.713	20.31
730.738	7.31
730.763	-1.69
730.788	-12.69
730.813	8.31
730.838	-12.69
730.863	0.31
730.888	4.31
730.913	1.31
730.938	-0.69
730.963	13.31
730.988	7.31
731.013	7.31
731.038	-7.69
731.063	-10.69
731.088	8.31
731.113	-6.69
731.138	2.31
731.163	3.31
731.188	-5.69
731.213	4.31
731.238	8.31
731.263	3.31
731.288	6.31
731.313	32.31
731.338	3.31
731.363	-0.69
731.388	6.31
731.413	6.31
731.438	-6.69
731.463	8.31
731.487	11.31
731.512	3.31
731.537	12.31
731.562	1.31
731.587	10.31
731.612	8.31
731.637	11.31
731.662	8.31
731.687	1.31
731.712	-7.69
731.737	3.31
731.762	4.31
731.786	5.31
731.811	19.31
731.836	3.31
731.861	-4.69
731.886	-1.69
731.911	15.31
731.936	17.31
731.961	-2.69
731.986	-14.69
732.01	1.31
732.035	16.31
732.06	13.31
732.085	23.31
732.11	3.31
732.135	-9.69
732.16	-3.69
732.184	4.31
732.209	3.31
732.234	13.31
732.259	-7.69
732.284	9.31
732.309	6.31
732.334	3.31
732.358	-14.69
732.383	-11.69
732.408	7.31
732.433	-1.69
732.458	8.31
732.482	7.31
732.507	-0.69
732.532	25.31
732.557	20.31
732.582	8.31
732.607	-5.69
732.631	-5.69
732.656	-0.69
732.681	13.31
732.706	12.31
732.73	1.31
732.755	-8.69
732.78	-7.69
732.805	13.31
732.83	13.31
732.854	7.31
732.879	12.31
732.904	-2.69
732.929	6.31
732.953	13.31
732.978	23.31
733.003	-4.69
733.028	-1.69
733.052	-0.69
733.077	2.31
733.102	6.31
733.127	13.31
733.151	-9.69
733.176	3.31
733.201	8.31
733.226	1.31
733.25	9.31
733.275	16.31
733.3	25.31
733.324	13.31
733.349	-8.69
733.374	17.31
733.399	12.31
733.423	-5.69
733.448	1.31
733.473	7.31
733.497	1.31
733.522	4.31
733.547	17.31
733.571	1.31
733.596	5.31
733.621	12.31
733.646	-4.69
733.67	18.31
733.695	7.31
733.72	9.31
733.744	17.31
733.769	9.31
733.794	12.31
733.818	13.31
733.843	2.31
733.867	-5.69
733.892	0.31
733.917	3.31
733.941	10.31
733.966	-11.69
733.991	-6.69
734.015	25.31
734.04	5.31
734.065	-5.69
734.089	27.31
734.114	-4.69
734.138	1.31
734.163	3.31
734.188	3.31
734.212	7.31
734.237	6.31
734.261	4.31
734.286	9.31
734.311	9.31
734.335	3.31
734.36	3.31
734.384	4.31
734.409	-1.69
734.434	-2.69
734.458	16.31
734.483	7.31
734.507	-8.69
734.532	3.31
734.556	6.31
734.581	4.31
734.606	8.31
734.63	2.31
734.655	-0.69
734.679	16.31
734.704	5.31
734.728	6.31
734.753	3.31
734.777	17.31
734.802	5.31
734.826	10.31
734.851	6.31
734.876	3.31
734.9	23.31
734.925	6.31
734.949	7.31
734.974	-7.69
734.998	11.31
735.023	8.31
735.047	-10.69
735.072	9.31
735.096	17.31
735.121	4.31
735.145	-18.69
735.17	3.31
735.194	19.31
735.219	15.31
735.243	4.31
735.268	11.31
735.292	-14.69
735.317	4.31
735.341	11.31
735.365	7.31
735.39	4.31
735.414	0.31
735.439	9.31
735.463	-4.69
735.488	15.31
735.512	6.31
735.537	1.31
735.561	10.31
735.586	9.31
735.61	16.31
735.634	-5.69
735.659	2.31
735.683	17.31
735.708	3.31
735.732	0.31
735.757	-2.69
735.781	19.31
735.805	22.31
735.83	-1.69
735.854	-6.69
735.879	-4.69
735.903	8.31
735.927	9.31
735.952	16.31
735.976	-1.69
736.001	-3.69
736.025	-2.69
736.049	13.31
736.074	11.31
736.098	4.31
736.123	1.31
736.147	0.31
736.171	4.31
736.196	-0.69
736.22	-16.69
736.244	-0.69
736.269	10.31
736.293	7.31
736.317	0.31
736.342	7.31
736.366	31.31
736.39	12.31
736.415	9.31
736.439	8.31
736.463	4.31
736.488	9.31
736.512	16.31
736.536	11.31
736.561	20.31
736.585	4.31
736.609	13.31
736.634	-6.69
736.658	-0.69
736.682	-0.69
736.707	-4.69
736.731	-9.69
736.755	-4.69
736.78	18.31
736.804	20.31
736.828	17.31
736.852	8.31
736.877	3.31
736.901	8.31
736.925	0.31
736.949	3.31
736.974	9.31
736.998	-7.69
737.022	3.31
737.047	3.31
737.071	5.31
737.095	18.31
737.119	33.31
737.144	3.31
737.168	-9.69
737.192	-3.69
737.216	6.31
737.241	0.31
737.265	-2.69
737.289	3.31
737.313	-3.69
737.337	-1.69
737.362	7.31
737.386	1.31
737.41	0.31
737.434	10.31
737.459	-2.69
737.483	-2.69
737.507	7.31
737.531	10.31
737.555	4.31
737.58	-1.69
737.604	11.31
737.628	-5.69
737.652	1.31
737.676	-0.69
737.701	-1.69
737.725	9.31
737.749	11.31
737.773	14.31
737.797	-5.69
737.821	-3.69
737.846	6.31
737.87	10.31
737.894	3.31
737.918	4.31
737.942	3.31
737.966	5.31
737.99	7.31
738.015	-5.69
738.039	-2.69
738.063	9.31
738.087	15.31
738.111	15.31
738.135	23.31
738.159	13.31
738.184	11.31
738.208	12.31
738.232	4.31
738.256	31.31
738.28	12.31
738.304	23.31
738.328	-0.69
738.352	22.31
738.376	-8.69
738.4	15.31
738.425	5.31
738.449	6.31
738.473	17.31
738.497	-2.69
738.521	12.31
738.545	13.31
738.569	-0.69
738.593	19.31
738.617	10.31
738.641	-2.69
738.665	-5.69
738.689	11.31
738.713	9.31
738.737	8.31
738.762	18.31
738.786	9.31
738.81	-7.69
738.834	1.31
738.858	-0.69
738.882	11.31
738.906	-7.69
738.93	-5.69
738.954	13.31
738.978	10.31
739.002	9.31
739.026	26.31
739.05	11.31
739.074	6.31
739.098	17.31
739.122	5.31
739.146	12.31
739.17	19.31
739.194	10.31
739.218	4.31
739.242	5.31
739.266	6.31
739.29	20.31
739.314	21.31
739.338	5.31
739.362	11.31
739.386	1.31
739.41	3.31
739.434	7.31
739.458	20.31
739.482	12.31
739.506	8.31
739.53	-4.69
739.554	-1.69
739.577	-12.69
739.601	3.31
739.625	-1.69
739.649	-0.69
739.673	-4.69
739.697	10.31
739.721	-3.69
739.745	27.31
739.769	7.31
739.793	14.31
739.817	25.31
739.841	-4.69
739.865	2.31
739.889	-12.69
739.912	15.31
739.936	3.31
739.96	13.31
739.984	28.31
740.008	-4.69
740.032	4.31
740.056	11.31
740.08	4.31
740.104	-0.69
740.127	6.31
740.151	11.31
740.175	22.31
740.199	11.31
740.223	41.31
740.247	12.31
740.271	-6.69
740.295	6.31
740.318	-3.69
740.342	0.31
740.366	7.31
740.39	15.31
740.414	0.31
740.438	1.31
740.461	26.31
740.485	15.31
740.509	8.31
740.533	25.31
740.557	10.31
740.581	1.31
740.604	-0.69
740.628	1.31
740.652	13.31
740.676	4.31
740.7	4.31
740.723	2.31
740.747	2.31
740.771	-0.69
740.795	-0.69
740.819	18.31
740.842	16.31
740.866	13.31
740.89	4.31
740.914	7.31
740.938	-11.69
740.961	-1.69
740.985	6.31
741.009	0.31
741.033	15.31
741.056	32.31
741.08	21.31
741.104	8.31
741.128	3.31
741.151	4.31
741.175	4.31
741.199	15.31
741.223	9.31
741.246	-0.69
741.27	14.31
741.294	9.31
741.318	5.31
741.341	-2.69
741.365	15.31
741.389	8.31
741.413	16.31
741.436	17.31
741.46	4.31
741.484	10.31
741.507	16.31
741.531	34.31
741.555	6.31
741.579	20.31
741.602	16.31
741.626	7.31
741.65	6.31
741.673	11.31
741.697	14.31
741.721	-0.69
741.744	-18.69
741.768	3.31
741.792	16.31
741.815	13.31
741.839	11.31
741.863	35.31
741.886	23.31
741.91	15.31
741.934	1.31
741.957	-4.69
741.981	24.31
742.005	6.31
742.028	-14.69
742.052	-4.69
742.075	3.31
742.099	20.31
742.123	4.31
742.146	18.31
742.17	6.31
742.194	5.31
742.217	12.31
742.241	11.31
742.264	13.31
742.288	23.31
742.312	23.31
742.335	-7.69
742.359	7.31
742.382	23.31
742.406	19.31
742.43	1.31
742.453	2.31
742.477	-9.69
742.5	-0.69
742.524	3.31
742.548	-10.69
742.571	-2.69
742.595	0.31
742.618	13.31
742.642	3.31
742.665	15.31
742.689	-16.69
742.712	12.31
742.736	7.31
742.76	20.31
742.783	12.31
742.807	8.31
742.83	20.31
742.854	8.31
742.877	-7.69
742.901	-7.69
742.924	-4.69
742.948	6.31
742.971	18.31
742.995	21.31
743.018	1.31
743.042	0.31
743.065	-2.69
743.089	2.31
743.112	10.31
743.136	7.31
743.159	2.31
743.183	-10.69
743.206	16.31
743.23	-0.69
743.253	9.31
743.277	10.31
743.3	14.31
743.324	4.31
743.347	3.31
743.371	5.31
743.394	8.31
743.418	28.31
743.441	22.31
743.465	11.31
743.488	11.31
743.512	-1.69
743.535	6.31
743.558	3.31
743.582	1.31
743.605	1.31
743.629	17.31
743.652	28.31
743.676	4.31
743.699	6.31
743.723	11.31
743.746	29.31
743.769	8.31
743.793	12.31
743.816	-3.69
743.84	23.31
743.863	13.31
743.886	12.31
743.91	24.31
743.933	6.31
743.957	11.31
743.98	7.31
744.003	16.31
744.027	11.31
744.05	9.31
744.074	4.31
744.097	-7.69
744.12	4.31
744.144	-0.69
744.167	6.31
744.19	1.31
744.214	-2.69
744.237	3.31
744.26	23.31
744.284	4.31
744.307	-6.69
744.331	6.31
744.354	-3.69
744.377	-4.69
744.401	1.31
744.424	11.31
744.447	5.31
744.471	-8.69
