Data from HighRes_H2_15_09_11_07_2024_HR4C61891__101__15-11-06-501.txt Node

Date: Thu Nov 07 15:11:06 EST 2024
User: crc00042
Spectrometer: HR4C6189
Trigger mode: 4
Integration Time (sec): 1.000000E-1
Scans to average: 1
Electric dark correction enabled: true
Nonlinearity correction enabled: false
Boxcar width: 0
XAxis mode: Wavelengths
Number of Pixels in Spectrum: 3648
>>>>>Begin Spectral Data<<<<<
639.567	-32.85
639.602	-32.85
639.636	-32.85
639.67	-58.85
639.704	-23.85
639.738	-10.85
639.773	8.15
639.807	-9.85
639.841	4.15
639.875	25.15
639.909	5.15
639.943	-4.85
639.978	-8.85
640.012	1.15
640.046	-1.85
640.08	1.15
640.114	5.15
640.148	-13.85
640.182	3.15
640.217	-14.85
640.251	0.15
640.285	25.15
640.319	-13.85
640.353	-16.85
640.387	0.15
640.421	-1.85
640.455	-9.85
640.49	-1.85
640.524	1.15
640.558	-3.85
640.592	-1.85
640.626	-1.85
640.66	17.15
640.694	-20.85
640.728	-5.85
640.762	-2.85
640.796	25.15
640.83	6.15
640.865	2.15
640.899	5.15
640.933	-2.85
640.967	3.15
641.001	5.15
641.035	0.15
641.069	8.15
641.103	-18.85
641.137	-0.85
641.171	-5.85
641.205	9.15
641.239	-9.85
641.273	22.15
641.307	17.15
641.341	5.15
641.375	-1.85
641.409	-6.85
641.443	-2.85
641.477	10.15
641.511	0.15
641.545	6.15
641.579	-12.85
641.614	1.15
641.648	-1.85
641.682	-14.85
641.716	8.15
641.75	20.15
641.784	-7.85
641.818	1.15
641.852	-0.85
641.886	-2.85
641.919	27.15
641.953	-7.85
641.987	-19.85
642.021	7.15
642.055	1.15
642.089	10.15
642.123	2.15
642.157	-9.85
642.191	-32.85
642.225	18.15
642.259	-5.85
642.293	11.15
642.327	-9.85
642.361	-8.85
642.395	10.15
642.429	1.15
642.463	-1.85
642.497	2.15
642.531	-15.85
642.565	-4.85
642.599	27.15
642.633	-15.85
642.666	15.15
642.7	7.15
642.734	-1.85
642.768	-14.85
642.802	1.15
642.836	2.15
642.87	2.15
642.904	4.15
642.938	5.15
642.972	10.15
643.005	9.15
643.039	33.15
643.073	-0.85
643.107	8.15
643.141	-0.85
643.175	7.15
643.209	-5.85
643.243	-0.85
643.276	10.15
643.31	4.15
643.344	-0.85
643.378	1.15
643.412	18.15
643.446	3.15
643.48	-6.85
643.513	0.15
643.547	-2.85
643.581	-2.85
643.615	4.15
643.649	2.15
643.683	3.15
643.716	0.15
643.75	-2.85
643.784	-13.85
643.818	-3.85
643.852	-0.85
643.886	-13.85
643.919	2.15
643.953	-4.85
643.987	-6.85
644.021	4.15
644.055	-0.85
644.088	5.15
644.122	-3.85
644.156	4.15
644.19	-4.85
644.224	15.15
644.257	13.15
644.291	18.15
644.325	4.15
644.359	-5.85
644.392	17.15
644.426	9.15
644.46	1.15
644.494	8.15
644.527	-9.85
644.561	6.15
644.595	-7.85
644.629	5.15
644.662	5.15
644.696	7.15
644.73	-8.85
644.764	-0.85
644.797	5.15
644.831	1.15
644.865	11.15
644.899	-1.85
644.932	28.15
644.966	-1.85
645	12.15
645.033	16.15
645.067	-2.85
645.101	0.15
645.135	-1.85
645.168	-3.85
645.202	-7.85
645.236	-8.85
645.269	3.15
645.303	-9.85
645.337	-13.85
645.37	-1.85
645.404	-1.85
645.438	-8.85
645.471	-1.85
645.505	0.15
645.539	-1.85
645.572	-12.85
645.606	-15.85
645.64	10.15
645.673	-0.85
645.707	17.15
645.741	-4.85
645.774	-23.85
645.808	1.15
645.842	-8.85
645.875	8.15
645.909	-0.85
645.943	-8.85
645.976	8.15
646.01	3.15
646.043	14.15
646.077	11.15
646.111	-2.85
646.144	6.15
646.178	4.15
646.212	-9.85
646.245	10.15
646.279	8.15
646.312	3.15
646.346	11.15
646.38	-13.85
646.413	6.15
646.447	-4.85
646.48	7.15
646.514	-2.85
646.547	-19.85
646.581	-13.85
646.615	6.15
646.648	-6.85
646.682	-7.85
646.715	-8.85
646.749	13.15
646.782	-11.85
646.816	-1.85
646.85	4.15
646.883	4.15
646.917	3.15
646.95	2.15
646.984	5.15
647.017	2.15
647.051	4.15
647.084	-0.85
647.118	2.15
647.151	-5.85
647.185	1.15
647.218	-3.85
647.252	10.15
647.285	1.15
647.319	-3.85
647.353	-0.85
647.386	2.15
647.42	-2.85
647.453	2.15
647.487	13.15
647.52	2.15
647.553	3.15
647.587	0.15
647.62	-16.85
647.654	-15.85
647.687	9.15
647.721	-0.85
647.754	-8.85
647.788	-5.85
647.821	-14.85
647.855	9.15
647.888	15.15
647.922	18.15
647.955	-4.85
647.989	4.15
648.022	3.15
648.055	15.15
648.089	-5.85
648.122	24.15
648.156	-4.85
648.189	9.15
648.223	10.15
648.256	8.15
648.29	12.15
648.323	7.15
648.356	-4.85
648.39	0.15
648.423	-12.85
648.457	-6.85
648.49	7.15
648.523	4.15
648.557	-9.85
648.59	-12.85
648.624	-7.85
648.657	6.15
648.69	23.15
648.724	8.15
648.757	9.15
648.791	3.15
648.824	9.15
648.857	22.15
648.891	2.15
648.924	7.15
648.957	12.15
648.991	0.15
649.024	9.15
649.057	-12.85
649.091	3.15
649.124	-8.85
649.158	9.15
649.191	25.15
649.224	4.15
649.258	2.15
649.291	7.15
649.324	10.15
649.358	-1.85
649.391	4.15
649.424	2.15
649.458	-4.85
649.491	1.15
649.524	-13.85
649.557	-12.85
649.591	-17.85
649.624	9.15
649.657	-21.85
649.691	1.15
649.724	6.15
649.757	9.15
649.791	-7.85
649.824	-2.85
649.857	4.15
649.89	8.15
649.924	-12.85
649.957	4.15
649.99	-12.85
650.023	-4.85
650.057	-12.85
650.09	8.15
650.123	-7.85
650.157	14.15
650.19	18.15
650.223	6.15
650.256	1.15
650.29	-0.85
650.323	3.15
650.356	12.15
650.389	-17.85
650.423	-2.85
650.456	-1.85
650.489	-4.85
650.522	-3.85
650.555	10.15
650.589	14.15
650.622	4.15
650.655	7.15
650.688	-1.85
650.721	0.15
650.755	0.15
650.788	16.15
650.821	-5.85
650.854	3.15
650.887	-3.85
650.921	-1.85
650.954	2.15
650.987	6.15
651.02	-3.85
651.053	-9.85
651.087	-18.85
651.12	10.15
651.153	-6.85
651.186	4.15
651.219	-11.85
651.252	9.15
651.286	2.15
651.319	-2.85
651.352	-0.85
651.385	3.15
651.418	15.15
651.451	25.15
651.484	7.15
651.518	-8.85
651.551	15.15
651.584	-15.85
651.617	15.15
651.65	-4.85
651.683	14.15
651.716	8.15
651.749	-15.85
651.783	3.15
651.816	15.15
651.849	-1.85
651.882	-1.85
651.915	-3.85
651.948	10.15
651.981	6.15
652.014	6.15
652.047	-4.85
652.08	4.15
652.114	14.15
652.147	-12.85
652.18	2.15
652.213	30.15
652.246	-6.85
652.279	-6.85
652.312	5.15
652.345	14.15
652.378	6.15
652.411	18.15
652.444	6.15
652.477	-1.85
652.51	4.15
652.543	-12.85
652.576	-1.85
652.609	-8.85
652.642	-5.85
652.675	-7.85
652.709	6.15
652.742	7.15
652.775	3.15
652.808	21.15
652.841	1.15
652.874	-12.85
652.907	-1.85
652.94	3.15
652.973	-9.85
653.006	6.15
653.039	6.15
653.072	1.15
653.105	-1.85
653.138	3.15
653.171	-2.85
653.204	-5.85
653.237	8.15
653.27	-24.85
653.303	7.15
653.336	3.15
653.368	-3.85
653.401	13.15
653.434	4.15
653.467	-3.85
653.5	-9.85
653.533	-9.85
653.566	-4.85
653.599	2.15
653.632	10.15
653.665	-5.85
653.698	-12.85
653.731	-9.85
653.764	-4.85
653.797	-7.85
653.83	5.15
653.863	-11.85
653.896	-8.85
653.929	4.15
653.961	-8.85
653.994	-0.85
654.027	-16.85
654.06	0.15
654.093	9.15
654.126	-5.85
654.159	-23.85
654.192	-3.85
654.225	1.15
654.258	-20.85
654.29	-4.85
654.323	8.15
654.356	2.15
654.389	-5.85
654.422	13.15
654.455	3.15
654.488	5.15
654.521	-6.85
654.553	-12.85
654.586	9.15
654.619	3.15
654.652	-0.85
654.685	0.15
654.718	8.15
654.751	7.15
654.783	-11.85
654.816	18.15
654.849	-10.85
654.882	-16.85
654.915	3.15
654.948	0.15
654.98	6.15
655.013	1.15
655.046	-14.85
655.079	-10.85
655.112	-1.85
655.144	-12.85
655.177	-0.85
655.21	7.15
655.243	15.15
655.276	-5.85
655.308	25.15
655.341	-0.85
655.374	6.15
655.407	-1.85
655.44	-10.85
655.472	22.15
655.505	9.15
655.538	-5.85
655.571	30.15
655.603	22.15
655.636	1.15
655.669	11.15
655.702	12.15
655.734	6.15
655.767	19.15
655.8	17.15
655.833	22.15
655.865	25.15
655.898	26.15
655.931	34.15
655.964	50.15
655.996	24.15
656.029	53.15
656.062	47.15
656.095	70.15
656.127	60.15
656.16	106.15
656.193	137.15
656.225	181.15
656.258	287.15
656.291	489.15
656.324	1132.15
656.356	3390.15
656.389	7570.15
656.422	5964.15
656.454	2026.15
656.487	668.15
656.52	251.15
656.552	122.15
656.585	74.15
656.618	55.15
656.65	47.15
656.683	13.15
656.716	12.15
656.748	21.15
656.781	0.15
656.814	0.15
656.846	13.15
656.879	-7.85
656.912	21.15
656.944	-3.85
656.977	-8.85
657.01	6.15
657.042	6.15
657.075	6.15
657.108	-10.85
657.14	-4.85
657.173	10.15
657.205	25.15
657.238	8.15
657.271	9.15
657.303	-11.85
657.336	0.15
657.369	5.15
657.401	1.15
657.434	5.15
657.466	5.15
657.499	7.15
657.532	7.15
657.564	6.15
657.597	12.15
657.629	13.15
657.662	-9.85
657.694	-5.85
657.727	-20.85
657.76	6.15
657.792	-20.85
657.825	-9.85
657.857	-6.85
657.89	3.15
657.922	9.15
657.955	-8.85
657.987	-7.85
658.02	11.15
658.053	11.15
658.085	6.15
658.118	9.15
658.15	3.15
658.183	20.15
658.215	-2.85
658.248	-1.85
658.28	16.15
658.313	-3.85
658.345	2.15
658.378	6.15
658.41	-4.85
658.443	1.15
658.475	0.15
658.508	4.15
658.54	-6.85
658.573	-7.85
658.605	8.15
658.638	-5.85
658.67	-1.85
658.703	8.15
658.735	-12.85
658.768	6.15
658.8	-4.85
658.833	17.15
658.865	4.15
658.898	-14.85
658.93	-13.85
658.963	-8.85
658.995	-27.85
659.028	-2.85
659.06	-0.85
659.092	-0.85
659.125	-0.85
659.157	2.15
659.19	3.15
659.222	1.15
659.255	4.15
659.287	-20.85
659.32	-4.85
659.352	3.15
659.384	0.15
659.417	2.15
659.449	6.15
659.482	8.15
659.514	8.15
659.546	7.15
659.579	-5.85
659.611	8.15
659.644	4.15
659.676	4.15
659.708	-23.85
659.741	-15.85
659.773	14.15
659.806	6.15
659.838	9.15
659.87	1.15
659.903	-2.85
659.935	3.15
659.967	3.15
660	6.15
660.032	-10.85
660.065	2.15
660.097	7.15
660.129	-0.85
660.162	-21.85
660.194	3.15
660.226	10.15
660.259	-13.85
660.291	4.15
660.323	3.15
660.356	2.15
660.388	3.15
660.42	12.15
660.453	6.15
660.485	3.15
660.517	7.15
660.55	7.15
660.582	-6.85
660.614	4.15
660.647	1.15
660.679	-4.85
660.711	1.15
660.743	-15.85
660.776	1.15
660.808	-1.85
660.84	-4.85
660.873	9.15
660.905	1.15
660.937	-1.85
660.969	8.15
661.002	7.15
661.034	3.15
661.066	-7.85
661.099	14.15
661.131	0.15
661.163	-0.85
661.195	-5.85
661.228	16.15
661.26	-2.85
661.292	3.15
661.324	1.15
661.357	3.15
661.389	2.15
661.421	-0.85
661.453	11.15
661.485	5.15
661.518	5.15
661.55	-2.85
661.582	-6.85
661.614	-14.85
661.647	3.15
661.679	-3.85
661.711	2.15
661.743	-12.85
661.775	2.15
661.808	29.15
661.84	3.15
661.872	0.15
661.904	9.15
661.936	14.15
661.969	-1.85
662.001	4.15
662.033	-1.85
662.065	-5.85
662.097	3.15
662.129	28.15
662.162	-10.85
662.194	-9.85
662.226	5.15
662.258	-2.85
662.29	-13.85
662.322	-21.85
662.355	-17.85
662.387	10.15
662.419	16.15
662.451	21.15
662.483	7.15
662.515	-1.85
662.547	-13.85
662.58	-10.85
662.612	1.15
662.644	-12.85
662.676	-11.85
662.708	5.15
662.74	-26.85
662.772	-21.85
662.804	-9.85
662.836	14.15
662.869	5.15
662.901	7.15
662.933	-8.85
662.965	15.15
662.997	17.15
663.029	-8.85
663.061	-3.85
663.093	-2.85
663.125	14.15
663.157	13.15
663.189	15.15
663.221	11.15
663.254	-9.85
663.286	8.15
663.318	8.15
663.35	-6.85
663.382	-2.85
663.414	4.15
663.446	-1.85
663.478	-14.85
663.51	22.15
663.542	-5.85
663.574	-0.85
663.606	-11.85
663.638	-24.85
663.67	-8.85
663.702	3.15
663.734	-1.85
663.766	7.15
663.798	-18.85
663.83	-2.85
663.862	-3.85
663.894	-3.85
663.926	-9.85
663.958	-0.85
663.99	-16.85
664.022	-1.85
664.054	6.15
664.086	-5.85
664.118	-2.85
664.15	-9.85
664.182	9.15
664.214	11.15
664.246	13.15
664.278	8.15
664.31	9.15
664.342	2.15
664.374	-4.85
664.406	-7.85
664.438	-8.85
664.47	10.15
664.502	-4.85
664.534	2.15
664.566	3.15
664.598	10.15
664.63	-28.85
664.662	-0.85
664.693	-2.85
664.725	-13.85
664.757	-14.85
664.789	-6.85
664.821	2.15
664.853	13.15
664.885	-0.85
664.917	-2.85
664.949	10.15
664.981	15.15
665.013	-6.85
665.045	-21.85
665.076	-17.85
665.108	7.15
665.14	-4.85
665.172	-11.85
665.204	0.15
665.236	-15.85
665.268	12.15
665.3	-13.85
665.331	-6.85
665.363	7.15
665.395	-4.85
665.427	0.15
665.459	1.15
665.491	-7.85
665.523	-1.85
665.555	-11.85
665.586	-4.85
665.618	3.15
665.65	-13.85
665.682	3.15
665.714	12.15
665.746	-4.85
665.777	-14.85
665.809	8.15
665.841	11.15
665.873	-13.85
665.905	-6.85
665.937	14.15
665.968	-8.85
666	-6.85
666.032	1.15
666.064	6.15
666.096	-9.85
666.127	-3.85
666.159	17.15
666.191	13.15
666.223	8.15
666.255	-11.85
666.286	-3.85
666.318	-20.85
666.35	15.15
666.382	-10.85
666.413	-16.85
666.445	-22.85
666.477	0.15
666.509	-10.85
666.54	-4.85
666.572	-7.85
666.604	-12.85
666.636	2.15
666.667	26.15
666.699	25.15
666.731	0.15
666.763	-15.85
666.794	0.15
666.826	10.15
666.858	-16.85
666.89	7.15
666.921	6.15
666.953	-7.85
666.985	16.15
667.017	23.15
667.048	1.15
667.08	0.15
667.112	-4.85
667.143	-14.85
667.175	-4.85
667.207	5.15
667.238	11.15
667.27	7.15
667.302	-5.85
667.334	4.15
667.365	24.15
667.397	-0.85
667.429	-15.85
667.46	24.15
667.492	2.15
667.524	-1.85
667.555	1.15
667.587	10.15
667.619	-3.85
667.65	-16.85
667.682	-4.85
667.714	12.15
667.745	-1.85
667.777	-2.85
667.808	12.15
667.84	9.15
667.872	5.15
667.903	18.15
667.935	-5.85
667.967	-8.85
667.998	0.15
668.03	9.15
668.061	6.15
668.093	4.15
668.125	11.15
668.156	-4.85
668.188	-3.85
668.22	-10.85
668.251	5.15
668.283	18.15
668.314	0.15
668.346	-9.85
668.377	-1.85
668.409	-6.85
668.441	17.15
668.472	14.15
668.504	-8.85
668.535	13.15
668.567	6.15
668.599	-4.85
668.63	8.15
668.662	-1.85
668.693	5.15
668.725	-13.85
668.756	14.15
668.788	8.15
668.819	-3.85
668.851	-1.85
668.882	3.15
668.914	0.15
668.946	-2.85
668.977	-9.85
669.009	-8.85
669.04	-14.85
669.072	-6.85
669.103	18.15
669.135	7.15
669.166	-1.85
669.198	-14.85
669.229	18.15
669.261	-13.85
669.292	-14.85
669.324	-5.85
669.355	-2.85
669.387	-4.85
669.418	4.15
669.45	-4.85
669.481	0.15
669.513	3.15
669.544	17.15
669.576	2.15
669.607	5.15
669.639	17.15
669.67	0.15
669.701	5.15
669.733	-5.85
669.764	0.15
669.796	-11.85
669.827	-13.85
669.859	-18.85
669.89	6.15
669.922	19.15
669.953	-2.85
669.985	7.15
670.016	5.15
670.047	0.15
670.079	2.15
670.11	3.15
670.142	2.15
670.173	5.15
670.204	8.15
670.236	-5.85
670.267	-3.85
670.299	-4.85
670.33	5.15
670.362	8.15
670.393	-9.85
670.424	8.15
670.456	-21.85
670.487	1.15
670.518	0.15
670.55	18.15
670.581	4.15
670.613	2.15
670.644	0.15
670.675	-25.85
670.707	1.15
670.738	7.15
670.769	9.15
670.801	-5.85
670.832	12.15
670.864	1.15
670.895	3.15
670.926	9.15
670.958	2.15
670.989	-4.85
671.02	-6.85
671.052	10.15
671.083	6.15
671.114	4.15
671.146	10.15
671.177	4.15
671.208	-12.85
671.24	-5.85
671.271	-8.85
671.302	4.15
671.333	2.15
671.365	-17.85
671.396	-17.85
671.427	1.15
671.459	-1.85
671.49	4.15
671.521	18.15
671.553	9.15
671.584	7.15
671.615	6.15
671.646	2.15
671.678	1.15
671.709	2.15
671.74	-7.85
671.771	-7.85
671.803	8.15
671.834	7.15
671.865	-0.85
671.896	1.15
671.928	-11.85
671.959	-11.85
671.99	-11.85
672.021	-12.85
672.053	-12.85
672.084	10.15
672.115	-9.85
672.146	-11.85
672.178	-16.85
672.209	-6.85
672.24	-9.85
672.271	12.15
672.303	-7.85
672.334	5.15
672.365	-4.85
672.396	0.15
672.427	-4.85
672.459	9.15
672.49	20.15
672.521	3.15
672.552	12.15
672.583	10.15
672.615	7.15
672.646	10.15
672.677	-3.85
672.708	3.15
672.739	8.15
672.77	26.15
672.802	11.15
672.833	-8.85
672.864	-29.85
672.895	-7.85
672.926	-5.85
672.957	-4.85
672.989	-9.85
673.02	4.15
673.051	-13.85
673.082	-4.85
673.113	-7.85
673.144	-9.85
673.175	2.15
673.206	-16.85
673.238	-9.85
673.269	0.15
673.3	-27.85
673.331	2.15
673.362	21.15
673.393	6.15
673.424	-1.85
673.455	22.15
673.487	-9.85
673.518	11.15
673.549	5.15
673.58	-0.85
673.611	16.15
673.642	-0.85
673.673	-30.85
673.704	-0.85
673.735	1.15
673.766	-10.85
673.797	-10.85
673.828	-10.85
673.86	-9.85
673.891	-2.85
673.922	-24.85
673.953	-0.85
673.984	-5.85
674.015	6.15
674.046	-2.85
674.077	4.15
674.108	-16.85
674.139	-7.85
674.17	1.15
674.201	-3.85
674.232	-0.85
674.263	-6.85
674.294	-22.85
674.325	-7.85
674.356	6.15
674.387	21.15
674.418	-2.85
674.449	2.15
674.48	-9.85
674.511	-13.85
674.542	2.15
674.573	-10.85
674.604	13.15
674.635	4.15
674.666	-6.85
674.697	-0.85
674.728	-4.85
674.759	-14.85
674.79	-8.85
674.821	-3.85
674.852	9.15
674.883	0.15
674.914	-13.85
674.945	-4.85
674.976	6.15
675.007	-2.85
675.038	-1.85
675.069	-11.85
675.1	-15.85
675.131	-2.85
675.162	-8.85
675.193	-15.85
675.224	-9.85
675.254	5.15
675.285	5.15
675.316	10.15
675.347	-3.85
675.378	-9.85
675.409	-13.85
675.44	4.15
675.471	-0.85
675.502	-16.85
675.533	2.15
675.564	6.15
675.595	-1.85
675.625	16.15
675.656	-4.85
675.687	1.15
675.718	-12.85
675.749	18.15
675.78	7.15
675.811	-4.85
675.842	4.15
675.873	-1.85
675.903	-9.85
675.934	-8.85
675.965	-28.85
675.996	-4.85
676.027	-1.85
676.058	-0.85
676.089	-11.85
676.119	7.15
676.15	-4.85
676.181	7.15
676.212	9.15
676.243	10.15
676.274	1.15
676.304	-1.85
676.335	-21.85
676.366	-1.85
676.397	-0.85
676.428	5.15
676.459	-3.85
676.489	3.15
676.52	-10.85
676.551	2.15
676.582	-9.85
676.613	-11.85
676.643	-5.85
676.674	1.15
676.705	-3.85
676.736	-1.85
676.767	19.15
676.797	9.15
676.828	-7.85
676.859	-4.85
676.89	-9.85
676.92	7.15
676.951	-7.85
676.982	-10.85
677.013	1.15
677.044	15.15
677.074	2.15
677.105	-6.85
677.136	7.15
677.167	3.15
677.197	6.15
677.228	1.15
677.259	-18.85
677.289	-13.85
677.32	-4.85
677.351	-6.85
677.382	-7.85
677.412	-24.85
677.443	-4.85
677.474	6.15
677.505	-9.85
677.535	12.15
677.566	-18.85
677.597	-9.85
677.627	-20.85
677.658	-5.85
677.689	-4.85
677.72	-10.85
677.75	-8.85
677.781	7.15
677.812	-0.85
677.842	9.15
677.873	1.15
677.904	7.15
677.934	0.15
677.965	-5.85
677.996	-18.85
678.026	4.15
678.057	5.15
678.088	-25.85
678.118	1.15
678.149	-5.85
678.18	-13.85
678.21	-9.85
678.241	11.15
678.272	-5.85
678.302	3.15
678.333	3.15
678.363	5.15
678.394	0.15
678.425	-23.85
678.455	0.15
678.486	16.15
678.517	7.15
678.547	6.15
678.578	2.15
678.608	-14.85
678.639	0.15
678.67	-6.85
678.7	-15.85
678.731	8.15
678.761	-3.85
678.792	0.15
678.823	12.15
678.853	11.15
678.884	-17.85
678.914	-1.85
678.945	7.15
678.975	-3.85
679.006	9.15
679.037	-23.85
679.067	6.15
679.098	2.15
679.128	-7.85
679.159	8.15
679.189	1.15
679.22	-8.85
679.25	3.15
679.281	-6.85
679.312	-5.85
679.342	0.15
679.373	20.15
679.403	5.15
679.434	-10.85
679.464	-6.85
679.495	-1.85
679.525	2.15
679.556	7.15
679.586	11.15
679.617	11.15
679.647	1.15
679.678	1.15
679.708	7.15
679.739	7.15
679.769	1.15
679.8	-13.85
679.83	7.15
679.861	11.15
679.891	-13.85
679.922	-6.85
679.952	1.15
679.983	9.15
680.013	-3.85
680.044	-25.85
680.074	-5.85
680.105	7.15
680.135	-3.85
680.165	12.15
680.196	16.15
680.226	-7.85
680.257	-9.85
680.287	-6.85
680.318	-8.85
680.348	-17.85
680.379	27.15
680.409	-2.85
680.439	-1.85
680.47	1.15
680.5	6.15
680.531	-16.85
680.561	7.15
680.592	3.15
680.622	13.15
680.652	0.15
680.683	2.15
680.713	0.15
680.744	-1.85
680.774	-3.85
680.804	15.15
680.835	8.15
680.865	4.15
680.896	18.15
680.926	8.15
680.956	12.15
680.987	-4.85
681.017	3.15
681.047	2.15
681.078	-14.85
681.108	6.15
681.139	12.15
681.169	-12.85
681.199	-4.85
681.23	-0.85
681.26	9.15
681.29	14.15
681.321	-12.85
681.351	7.15
681.381	-7.85
681.412	-11.85
681.442	10.15
681.472	8.15
681.503	0.15
681.533	-0.85
681.563	14.15
681.594	-0.85
681.624	0.15
681.654	-10.85
681.685	-2.85
681.715	5.15
681.745	-3.85
681.775	0.15
681.806	-0.85
681.836	5.15
681.866	-0.85
681.897	-7.85
681.927	-26.85
681.957	-28.85
681.987	20.15
682.018	7.15
682.048	2.15
682.078	-13.85
682.109	13.15
682.139	1.15
682.169	-5.85
682.199	6.15
682.23	2.15
682.26	7.15
682.29	2.15
682.32	5.15
682.351	-16.85
682.381	2.15
682.411	-0.85
682.441	-24.85
682.472	-15.85
682.502	-7.85
682.532	6.15
682.562	7.15
682.592	5.15
682.623	10.15
682.653	-10.85
682.683	-2.85
682.713	10.15
682.743	-4.85
682.774	-12.85
682.804	3.15
682.834	2.15
682.864	0.15
682.894	1.15
682.925	0.15
682.955	4.15
682.985	-20.85
683.015	-4.85
683.045	13.15
683.076	-9.85
683.106	-7.85
683.136	1.15
683.166	-2.85
683.196	-2.85
683.226	-14.85
683.257	-17.85
683.287	4.15
683.317	-2.85
683.347	2.15
683.377	-0.85
683.407	22.15
683.437	0.15
683.468	2.15
683.498	-9.85
683.528	-9.85
683.558	6.15
683.588	-6.85
683.618	-0.85
683.648	-3.85
683.678	10.15
683.708	13.15
683.739	-4.85
683.769	5.15
683.799	3.15
683.829	-1.85
683.859	6.15
683.889	13.15
683.919	-4.85
683.949	16.15
683.979	-5.85
684.009	-2.85
684.039	5.15
684.07	5.15
684.1	20.15
684.13	-2.85
684.16	-18.85
684.19	12.15
684.22	-5.85
684.25	-17.85
684.28	-6.85
684.31	13.15
684.34	-3.85
684.37	2.15
684.4	11.15
684.43	-6.85
684.46	-9.85
684.49	12.15
684.52	13.15
684.55	32.15
684.58	18.15
684.61	8.15
684.64	17.15
684.67	6.15
684.7	-4.85
684.73	-4.85
684.76	-10.85
684.79	7.15
684.82	-2.85
684.85	-5.85
684.88	-2.85
684.91	-5.85
684.94	0.15
684.97	3.15
685	2.15
685.03	2.15
685.06	-7.85
685.09	-0.85
685.12	26.15
685.15	6.15
685.18	1.15
685.21	0.15
685.24	4.15
685.27	12.15
685.3	2.15
685.33	4.15
685.36	4.15
685.39	6.15
685.42	-9.85
685.45	-1.85
685.48	15.15
685.51	-0.85
685.54	4.15
685.569	12.15
685.599	15.15
685.629	1.15
685.659	-9.85
685.689	-17.85
685.719	-0.85
685.749	-0.85
685.779	16.15
685.809	3.15
685.839	5.15
685.869	-15.85
685.898	5.15
685.928	4.15
685.958	7.15
685.988	9.15
686.018	-10.85
686.048	6.15
686.078	16.15
686.108	4.15
686.137	-0.85
686.167	9.15
686.197	-11.85
686.227	10.15
686.257	19.15
686.287	16.15
686.317	1.15
686.346	-16.85
686.376	-13.85
686.406	-7.85
686.436	7.15
686.466	-1.85
686.496	-12.85
686.525	-14.85
686.555	-5.85
686.585	12.15
686.615	34.15
686.645	20.15
686.675	13.15
686.704	-1.85
686.734	9.15
686.764	-29.85
686.794	-12.85
686.824	-12.85
686.853	0.15
686.883	10.15
686.913	11.15
686.943	-1.85
686.973	4.15
687.002	-1.85
687.032	-3.85
687.062	1.15
687.092	0.15
687.121	-13.85
687.151	0.15
687.181	10.15
687.211	-3.85
687.24	-16.85
687.27	-0.85
687.3	-6.85
687.33	-7.85
687.359	-6.85
687.389	11.15
687.419	19.15
687.449	7.15
687.478	12.15
687.508	-0.85
687.538	7.15
687.568	11.15
687.597	-4.85
687.627	-5.85
687.657	-1.85
687.686	-5.85
687.716	16.15
687.746	-14.85
687.776	-4.85
687.805	5.15
687.835	-5.85
687.865	1.15
687.894	5.15
687.924	-14.85
687.954	7.15
687.983	6.15
688.013	-0.85
688.043	-7.85
688.072	6.15
688.102	16.15
688.132	-1.85
688.161	1.15
688.191	-14.85
688.221	18.15
688.25	-12.85
688.28	7.15
688.31	-9.85
688.339	13.15
688.369	-9.85
688.399	5.15
688.428	4.15
688.458	-5.85
688.488	1.15
688.517	9.15
688.547	10.15
688.576	33.15
688.606	12.15
688.636	-8.85
688.665	4.15
688.695	1.15
688.725	11.15
688.754	1.15
688.784	4.15
688.813	10.15
688.843	-12.85
688.873	-14.85
688.902	-18.85
688.932	-16.85
688.961	17.15
688.991	7.15
689.02	12.15
689.05	-12.85
689.08	-7.85
689.109	3.15
689.139	0.15
689.168	16.15
689.198	0.15
689.227	-4.85
689.257	1.15
689.287	13.15
689.316	-2.85
689.346	-8.85
689.375	-10.85
689.405	-6.85
689.434	-15.85
689.464	0.15
689.493	0.15
689.523	-7.85
689.552	-1.85
689.582	2.15
689.611	-2.85
689.641	-8.85
689.67	13.15
689.7	16.15
689.73	8.15
689.759	0.15
689.789	30.15
689.818	-4.85
689.848	-8.85
689.877	10.15
689.906	-8.85
689.936	-4.85
689.965	-0.85
689.995	10.15
690.024	1.15
690.054	3.15
690.083	11.15
690.113	4.15
690.142	12.15
690.172	9.15
690.201	3.15
690.231	1.15
690.26	16.15
690.29	-8.85
690.319	11.15
690.348	4.15
690.378	14.15
690.407	9.15
690.437	-5.85
690.466	-4.85
690.496	-3.85
690.525	7.15
690.555	4.15
690.584	-2.85
690.613	-0.85
690.643	-6.85
690.672	9.15
690.702	8.15
690.731	5.15
690.76	12.15
690.79	-1.85
690.819	-15.85
690.849	10.15
690.878	0.15
690.907	-6.85
690.937	12.15
690.966	0.15
690.996	-7.85
691.025	-3.85
691.054	-3.85
691.084	-3.85
691.113	-2.85
691.142	-2.85
691.172	19.15
691.201	13.15
691.23	-19.85
691.26	18.15
691.289	2.15
691.319	-2.85
691.348	-0.85
691.377	19.15
691.407	9.15
691.436	14.15
691.465	4.15
691.495	3.15
691.524	-6.85
691.553	-9.85
691.583	-18.85
691.612	21.15
691.641	2.15
691.67	0.15
691.7	2.15
691.729	-26.85
691.758	-4.85
691.788	-6.85
691.817	-5.85
691.846	-7.85
691.876	-0.85
691.905	-2.85
691.934	-8.85
691.963	3.15
691.993	9.15
692.022	-4.85
692.051	-14.85
692.081	11.15
692.11	12.15
692.139	-1.85
692.168	-7.85
692.198	2.15
692.227	-14.85
692.256	5.15
692.285	9.15
692.315	-0.85
692.344	8.15
692.373	-2.85
692.402	-8.85
692.432	-9.85
692.461	9.15
692.49	5.15
692.519	-1.85
692.548	25.15
692.578	18.15
692.607	-4.85
692.636	-9.85
692.665	18.15
692.694	0.15
692.724	1.15
692.753	5.15
692.782	16.15
692.811	-3.85
692.84	-5.85
692.87	3.15
692.899	-6.85
692.928	-4.85
692.957	-1.85
692.986	7.15
693.016	8.15
693.045	19.15
693.074	16.15
693.103	11.15
693.132	-1.85
693.161	13.15
693.191	-2.85
693.22	-8.85
693.249	14.15
693.278	18.15
693.307	15.15
693.336	-7.85
693.365	-18.85
693.395	-7.85
693.424	-14.85
693.453	15.15
693.482	7.15
693.511	-3.85
693.54	-10.85
693.569	7.15
693.598	-8.85
693.628	17.15
693.657	16.15
693.686	8.15
693.715	8.15
693.744	6.15
693.773	15.15
693.802	9.15
693.831	-1.85
693.86	18.15
693.889	1.15
693.919	-2.85
693.948	3.15
693.977	14.15
694.006	8.15
694.035	-3.85
694.064	-27.85
694.093	-0.85
694.122	-8.85
694.151	8.15
694.18	6.15
694.209	8.15
694.238	-3.85
694.267	27.15
694.296	3.15
694.325	13.15
694.354	3.15
694.383	6.15
694.412	2.15
694.441	2.15
694.471	0.15
694.5	0.15
694.529	14.15
694.558	21.15
694.587	20.15
694.616	4.15
694.645	8.15
694.674	11.15
694.703	6.15
694.732	-4.85
694.761	17.15
694.79	2.15
694.819	-12.85
694.848	6.15
694.877	27.15
694.906	24.15
694.935	15.15
694.963	18.15
694.992	9.15
695.021	-5.85
695.05	5.15
695.079	-0.85
695.108	-14.85
695.137	20.15
695.166	2.15
695.195	-9.85
695.224	23.15
695.253	11.15
695.282	5.15
695.311	9.15
695.34	11.15
695.369	11.15
695.398	3.15
695.427	20.15
695.456	6.15
695.485	-1.85
695.513	-1.85
695.542	16.15
695.571	7.15
695.6	16.15
695.629	-9.85
695.658	-16.85
695.687	-6.85
695.716	6.15
695.745	26.15
695.774	-7.85
695.802	-7.85
695.831	12.15
695.86	10.15
695.889	-2.85
695.918	-12.85
695.947	1.15
695.976	3.15
696.005	2.15
696.033	5.15
696.062	15.15
696.091	3.15
696.12	9.15
696.149	15.15
696.178	6.15
696.207	4.15
696.235	-0.85
696.264	9.15
696.293	7.15
696.322	2.15
696.351	15.15
696.38	2.15
696.408	11.15
696.437	-4.85
696.466	11.15
696.495	12.15
696.524	8.15
696.553	-13.85
696.581	-10.85
696.61	-4.85
696.639	-5.85
696.668	0.15
696.697	-1.85
696.725	3.15
696.754	1.15
696.783	-12.85
696.812	-4.85
696.84	3.15
696.869	0.15
696.898	2.15
696.927	5.15
696.956	20.15
696.984	6.15
697.013	1.15
697.042	1.15
697.071	-2.85
697.099	11.15
697.128	7.15
697.157	-1.85
697.186	-9.85
697.214	3.15
697.243	1.15
697.272	1.15
697.301	3.15
697.329	-0.85
697.358	-2.85
697.387	9.15
697.415	3.15
697.444	-3.85
697.473	1.15
697.502	-1.85
697.53	11.15
697.559	13.15
697.588	3.15
697.616	2.15
697.645	-7.85
697.674	-0.85
697.703	-11.85
697.731	7.15
697.76	6.15
697.789	-12.85
697.817	-0.85
697.846	11.15
697.875	-1.85
697.903	29.15
697.932	19.15
697.961	1.15
697.989	-1.85
698.018	5.15
698.047	17.15
698.075	12.15
698.104	-0.85
698.133	16.15
698.161	-11.85
698.19	-2.85
698.218	-13.85
698.247	3.15
698.276	-7.85
698.304	7.15
698.333	-1.85
698.362	13.15
698.39	7.15
698.419	-6.85
698.447	-7.85
698.476	0.15
698.505	9.15
698.533	3.15
698.562	-1.85
698.591	-0.85
698.619	-2.85
698.648	-0.85
698.676	1.15
698.705	-1.85
698.733	-8.85
698.762	-0.85
698.791	-1.85
698.819	24.15
698.848	3.15
698.876	7.15
698.905	2.15
698.933	3.15
698.962	18.15
698.991	11.15
699.019	19.15
699.048	5.15
699.076	3.15
699.105	-14.85
699.133	-10.85
699.162	2.15
699.19	16.15
699.219	22.15
699.248	-1.85
699.276	5.15
699.305	-8.85
699.333	-1.85
699.362	1.15
699.39	2.15
699.419	-14.85
699.447	-1.85
699.476	10.15
699.504	10.15
699.533	7.15
699.561	1.15
699.59	19.15
699.618	-3.85
699.647	3.15
699.675	11.15
699.704	-4.85
699.732	5.15
699.761	6.15
699.789	-0.85
699.818	12.15
699.846	16.15
699.874	0.15
699.903	3.15
699.931	1.15
699.96	10.15
699.988	-1.85
700.017	1.15
700.045	-4.85
700.074	5.15
700.102	-0.85
700.13	4.15
700.159	-0.85
700.187	-0.85
700.216	-1.85
700.244	-4.85
700.273	9.15
700.301	-2.85
700.329	18.15
700.358	20.15
700.386	5.15
700.415	-2.85
700.443	-3.85
700.472	-4.85
700.5	2.15
700.528	9.15
700.557	5.15
700.585	-10.85
700.614	-3.85
700.642	6.15
700.67	24.15
700.699	-5.85
700.727	-9.85
700.755	-0.85
700.784	-2.85
700.812	7.15
700.841	-4.85
700.869	-5.85
700.897	-10.85
700.926	-0.85
700.954	3.15
700.982	10.15
701.011	6.15
701.039	12.15
701.067	1.15
701.096	-0.85
701.124	0.15
701.152	2.15
701.181	3.15
701.209	-24.85
701.237	-0.85
701.266	1.15
701.294	-10.85
701.322	3.15
701.351	18.15
701.379	19.15
701.407	-5.85
701.435	10.15
701.464	27.15
701.492	18.15
701.52	-6.85
701.549	-5.85
701.577	-1.85
701.605	-5.85
701.634	-2.85
701.662	17.15
701.69	-2.85
701.718	0.15
701.747	6.15
701.775	1.15
701.803	-25.85
701.831	10.15
701.86	3.15
701.888	7.15
701.916	-2.85
701.944	1.15
701.973	-15.85
702.001	-17.85
702.029	-13.85
702.057	1.15
702.086	-1.85
702.114	4.15
702.142	-8.85
702.17	6.15
702.199	5.15
702.227	-4.85
702.255	-1.85
702.283	3.15
702.311	16.15
702.34	5.15
702.368	0.15
702.396	7.15
702.424	-1.85
702.452	1.15
702.481	1.15
702.509	-7.85
702.537	9.15
702.565	5.15
702.593	-8.85
702.621	0.15
702.65	7.15
702.678	3.15
702.706	-0.85
702.734	1.15
702.762	8.15
702.79	-5.85
702.819	9.15
702.847	4.15
702.875	20.15
702.903	7.15
702.931	-20.85
702.959	-14.85
702.988	6.15
703.016	-15.85
703.044	-1.85
703.072	2.15
703.1	-9.85
703.128	-4.85
703.156	16.15
703.184	-0.85
703.212	9.15
703.241	7.15
703.269	11.15
703.297	3.15
703.325	-2.85
703.353	-19.85
703.381	-17.85
703.409	2.15
703.437	-1.85
703.465	-2.85
703.493	-10.85
703.522	-2.85
703.55	1.15
703.578	-4.85
703.606	-13.85
703.634	-7.85
703.662	4.15
703.69	-2.85
703.718	-0.85
703.746	16.15
703.774	3.15
703.802	9.15
703.83	-6.85
703.858	3.15
703.886	-0.85
703.914	-5.85
703.942	2.15
703.97	-2.85
703.998	2.15
704.027	6.15
704.055	21.15
704.083	13.15
704.111	-2.85
704.139	0.15
704.167	9.15
704.195	6.15
704.223	-9.85
704.251	8.15
704.279	8.15
704.307	10.15
704.335	-25.85
704.363	-2.85
704.391	-5.85
704.419	-1.85
704.447	-7.85
704.475	10.15
704.503	-12.85
704.531	14.15
704.558	-10.85
704.586	-15.85
704.614	-12.85
704.642	6.15
704.67	-13.85
704.698	-4.85
704.726	-0.85
704.754	-6.85
704.782	-4.85
704.81	10.15
704.838	21.15
704.866	13.15
704.894	-13.85
704.922	-7.85
704.95	0.15
704.978	26.15
705.006	-10.85
705.034	10.15
705.061	-8.85
705.089	-4.85
705.117	-3.85
705.145	7.15
705.173	0.15
705.201	-0.85
705.229	-1.85
705.257	-0.85
705.285	-2.85
705.313	11.15
705.34	3.15
705.368	-0.85
705.396	11.15
705.424	6.15
705.452	-13.85
705.48	9.15
705.508	2.15
705.536	-11.85
705.563	-13.85
705.591	0.15
705.619	-1.85
705.647	-11.85
705.675	8.15
705.703	4.15
705.731	-4.85
705.758	15.15
705.786	2.15
705.814	24.15
705.842	7.15
705.87	8.15
705.898	24.15
705.925	-27.85
705.953	-1.85
705.981	-16.85
706.009	15.15
706.037	-4.85
706.065	-8.85
706.092	-13.85
706.12	-16.85
706.148	-11.85
706.176	-5.85
706.204	9.15
706.231	-7.85
706.259	-15.85
706.287	-1.85
706.315	10.15
706.342	-7.85
706.37	3.15
706.398	2.15
706.426	2.15
706.454	2.15
706.481	-0.85
706.509	-3.85
706.537	-4.85
706.565	1.15
706.592	0.15
706.62	15.15
706.648	12.15
706.676	-9.85
706.703	-0.85
706.731	-1.85
706.759	2.15
706.787	7.15
706.814	7.15
706.842	-9.85
706.87	-11.85
706.897	-6.85
706.925	-2.85
706.953	0.15
706.981	10.15
707.008	-0.85
707.036	0.15
707.064	13.15
707.091	-16.85
707.119	0.15
707.147	-0.85
707.174	-10.85
707.202	14.15
707.23	-12.85
707.258	3.15
707.285	-11.85
707.313	-17.85
707.341	-13.85
707.368	-15.85
707.396	15.15
707.424	6.15
707.451	2.15
707.479	-7.85
707.507	-14.85
707.534	-7.85
707.562	3.15
707.59	-0.85
707.617	-10.85
707.645	-2.85
707.672	-21.85
707.7	-11.85
707.728	16.15
707.755	5.15
707.783	-0.85
707.811	-9.85
707.838	-22.85
707.866	1.15
707.893	-6.85
707.921	-2.85
707.949	-16.85
707.976	12.15
708.004	-4.85
708.031	-2.85
708.059	-1.85
708.087	4.15
708.114	-11.85
708.142	-12.85
708.169	-10.85
708.197	-19.85
708.225	-3.85
708.252	-10.85
708.28	0.15
708.307	-4.85
708.335	-5.85
708.362	-6.85
708.39	-6.85
708.418	-14.85
708.445	-2.85
708.473	-8.85
708.5	-8.85
708.528	11.15
708.555	4.15
708.583	16.15
708.61	-2.85
708.638	-1.85
708.665	-9.85
708.693	15.15
708.72	-11.85
708.748	-12.85
708.776	-1.85
708.803	11.15
708.831	7.15
708.858	2.15
708.886	-5.85
708.913	14.15
708.941	-15.85
708.968	-1.85
708.996	7.15
709.023	24.15
709.051	-6.85
709.078	-10.85
709.105	-10.85
709.133	-2.85
709.16	6.15
709.188	-1.85
709.215	-10.85
709.243	-5.85
709.27	-17.85
709.298	-2.85
709.325	7.15
709.353	-12.85
709.38	-1.85
709.408	-5.85
709.435	-2.85
709.462	2.15
709.49	-4.85
709.517	-10.85
709.545	-13.85
709.572	-20.85
709.6	5.15
709.627	4.15
709.655	-3.85
709.682	8.15
709.709	-14.85
709.737	-22.85
709.764	-7.85
709.792	-4.85
709.819	-8.85
709.846	-9.85
709.874	5.15
709.901	17.15
709.929	3.15
709.956	1.15
709.983	-21.85
710.011	-15.85
710.038	-12.85
710.066	16.15
710.093	19.15
710.12	-1.85
710.148	-8.85
710.175	-5.85
710.202	2.15
710.23	-0.85
710.257	-8.85
710.284	-4.85
710.312	2.15
710.339	-0.85
710.366	3.15
710.394	1.15
710.421	16.15
710.448	-1.85
710.476	-5.85
710.503	1.15
710.53	21.15
710.558	23.15
710.585	19.15
710.612	0.15
710.64	2.15
710.667	-4.85
710.694	-10.85
710.722	-5.85
710.749	-15.85
710.776	3.15
710.804	17.15
710.831	10.15
710.858	-1.85
710.885	1.15
710.913	-5.85
710.94	22.15
710.967	-0.85
710.995	6.15
711.022	-3.85
711.049	-0.85
711.076	-9.85
711.104	-15.85
711.131	-15.85
711.158	2.15
711.185	17.15
711.213	-12.85
711.24	-8.85
711.267	-11.85
711.294	-20.85
711.322	-5.85
711.349	-22.85
711.376	-4.85
711.403	-0.85
711.431	-20.85
711.458	-9.85
711.485	-22.85
711.512	-7.85
711.54	-2.85
711.567	1.15
711.594	6.15
711.621	-1.85
711.648	6.15
711.676	3.15
711.703	3.15
711.73	-19.85
711.757	-7.85
711.784	-3.85
711.812	1.15
711.839	-8.85
711.866	-1.85
711.893	-12.85
711.92	-8.85
711.947	-11.85
711.975	14.15
712.002	-8.85
712.029	6.15
712.056	7.15
712.083	6.15
712.11	-31.85
712.138	-1.85
712.165	-0.85
712.192	-4.85
712.219	5.15
712.246	0.15
712.273	-11.85
712.3	-4.85
712.328	-16.85
712.355	-2.85
712.382	-1.85
712.409	22.15
712.436	-18.85
712.463	-1.85
712.49	10.15
712.517	4.15
712.544	13.15
712.572	2.15
712.599	0.15
712.626	-2.85
712.653	6.15
712.68	0.15
712.707	18.15
712.734	-1.85
712.761	-14.85
712.788	2.15
712.815	3.15
712.842	5.15
712.87	-7.85
712.897	-15.85
712.924	-11.85
712.951	9.15
712.978	-2.85
713.005	12.15
713.032	2.15
713.059	5.15
713.086	0.15
713.113	1.15
713.14	-13.85
713.167	14.15
713.194	13.15
713.221	4.15
713.248	-6.85
713.275	-0.85
713.302	-5.85
713.329	-0.85
713.356	2.15
713.383	4.15
713.41	17.15
713.437	-16.85
713.464	-6.85
713.491	-0.85
713.518	-9.85
713.545	0.15
713.572	0.15
713.599	-13.85
713.626	-5.85
713.653	7.15
713.68	-0.85
713.707	2.15
713.734	2.15
713.761	-5.85
713.788	-9.85
713.815	-10.85
713.842	-4.85
713.869	-5.85
713.896	-2.85
713.923	-6.85
713.95	-3.85
713.977	-9.85
714.004	-11.85
714.031	-16.85
714.058	2.15
714.085	-6.85
714.112	17.15
714.139	9.15
714.165	1.15
714.192	-7.85
714.219	11.15
714.246	-3.85
714.273	-1.85
714.3	7.15
714.327	7.15
714.354	0.15
714.381	6.15
714.408	-2.85
714.435	-9.85
714.461	-6.85
714.488	9.15
714.515	-2.85
714.542	-12.85
714.569	-13.85
714.596	-1.85
714.623	-6.85
714.65	-1.85
714.677	1.15
714.703	-1.85
714.73	1.15
714.757	0.15
714.784	-8.85
714.811	10.15
714.838	3.15
714.865	-1.85
714.891	15.15
714.918	3.15
714.945	-12.85
714.972	1.15
714.999	-7.85
715.026	-5.85
715.052	15.15
715.079	-0.85
715.106	1.15
715.133	5.15
715.16	-12.85
715.187	-6.85
715.213	7.15
715.24	-8.85
715.267	-15.85
715.294	-2.85
715.321	3.15
715.347	2.15
715.374	-1.85
715.401	-9.85
715.428	-0.85
715.455	0.15
715.481	-24.85
715.508	11.15
715.535	0.15
715.562	9.15
715.588	1.15
715.615	1.15
715.642	8.15
715.669	15.15
715.695	3.15
715.722	-1.85
715.749	-1.85
715.776	2.15
715.802	-9.85
715.829	8.15
715.856	5.15
715.883	-0.85
715.909	-7.85
715.936	-4.85
715.963	-4.85
715.99	-18.85
716.016	1.15
716.043	-2.85
716.07	-7.85
716.096	-10.85
716.123	-4.85
716.15	1.15
716.177	17.15
716.203	-7.85
716.23	4.15
716.257	1.15
716.283	10.15
716.31	-0.85
716.337	5.15
716.363	5.15
716.39	-0.85
716.417	8.15
716.443	7.15
716.47	18.15
716.497	8.15
716.523	14.15
716.55	3.15
716.577	4.15
716.603	-4.85
716.63	-9.85
716.657	1.15
716.683	-3.85
716.71	-8.85
716.737	-5.85
716.763	14.15
716.79	2.15
716.817	12.15
716.843	2.15
716.87	-13.85
716.897	-1.85
716.923	10.15
716.95	7.15
716.976	-5.85
717.003	0.15
717.03	2.15
717.056	-1.85
717.083	-9.85
717.109	6.15
717.136	-2.85
717.163	-8.85
717.189	10.15
717.216	-2.85
717.242	8.15
717.269	-1.85
717.296	2.15
717.322	10.15
717.349	10.15
717.375	9.15
717.402	-19.85
717.428	1.15
717.455	4.15
717.481	6.15
717.508	11.15
717.535	10.15
717.561	-10.85
717.588	-12.85
717.614	9.15
717.641	2.15
717.667	1.15
717.694	11.15
717.72	-7.85
717.747	10.15
717.773	-5.85
717.8	0.15
717.826	-5.85
717.853	5.15
717.88	3.15
717.906	-10.85
717.933	8.15
717.959	-14.85
717.986	-1.85
718.012	-1.85
718.039	18.15
718.065	1.15
718.092	6.15
718.118	-1.85
718.144	-4.85
718.171	10.15
718.197	14.15
718.224	9.15
718.25	-9.85
718.277	9.15
718.303	8.15
718.33	-13.85
718.356	-8.85
718.383	-15.85
718.409	-2.85
718.436	1.15
718.462	5.15
718.489	9.15
718.515	19.15
718.541	17.15
718.568	0.15
718.594	12.15
718.621	15.15
718.647	1.15
718.674	-0.85
718.7	6.15
718.726	-1.85
718.753	2.15
718.779	8.15
718.806	-12.85
718.832	-9.85
718.858	10.15
718.885	-2.85
718.911	-4.85
718.938	3.15
718.964	-6.85
718.99	4.15
719.017	-10.85
719.043	12.15
719.07	16.15
719.096	-9.85
719.122	19.15
719.149	6.15
719.175	-5.85
719.201	-0.85
719.228	5.15
719.254	-6.85
719.281	-10.85
719.307	-5.85
719.333	-4.85
719.36	-8.85
719.386	-11.85
719.412	-5.85
719.439	-12.85
719.465	-2.85
719.491	-11.85
719.518	7.15
719.544	15.15
719.57	0.15
719.597	5.15
719.623	-5.85
719.649	-5.85
719.675	-0.85
719.702	-2.85
719.728	7.15
719.754	-9.85
719.781	-6.85
719.807	-4.85
719.833	-20.85
719.86	-11.85
719.886	2.15
719.912	1.15
719.938	-5.85
719.965	6.15
719.991	-0.85
720.017	-4.85
720.044	4.15
720.07	-1.85
720.096	-0.85
720.122	9.15
720.149	-8.85
720.175	16.15
720.201	15.15
720.227	-11.85
720.254	8.15
720.28	6.15
720.306	-8.85
720.332	9.15
720.359	3.15
720.385	2.15
720.411	-4.85
720.437	5.15
720.463	-1.85
720.49	5.15
720.516	-8.85
720.542	-14.85
720.568	-1.85
720.595	3.15
720.621	8.15
720.647	8.15
720.673	-2.85
720.699	-10.85
720.725	-5.85
720.752	6.15
720.778	-2.85
720.804	13.15
720.83	19.15
720.856	-17.85
720.883	-4.85
720.909	-3.85
720.935	17.15
720.961	6.15
720.987	7.15
721.013	6.15
721.04	-2.85
721.066	-4.85
721.092	-4.85
721.118	12.15
721.144	7.15
721.17	-9.85
721.196	8.15
721.223	0.15
721.249	-2.85
721.275	4.15
721.301	-4.85
721.327	7.15
721.353	12.15
721.379	6.15
721.405	15.15
721.432	15.15
721.458	-9.85
721.484	8.15
721.51	-12.85
721.536	-1.85
721.562	-9.85
721.588	5.15
721.614	3.15
721.64	-1.85
721.666	10.15
721.693	-0.85
721.719	4.15
721.745	-13.85
721.771	-15.85
721.797	-7.85
721.823	14.15
721.849	16.15
721.875	9.15
721.901	-1.85
721.927	-0.85
721.953	-1.85
721.979	15.15
722.005	14.15
722.031	-4.85
722.057	1.15
722.083	-5.85
722.109	-1.85
722.135	7.15
722.161	10.15
722.187	-8.85
722.214	11.15
722.24	4.15
722.266	-2.85
722.292	11.15
722.318	32.15
722.344	22.15
722.37	6.15
722.396	19.15
722.422	-1.85
722.448	-3.85
722.474	-14.85
722.5	10.15
722.526	-1.85
722.552	9.15
722.578	2.15
722.603	18.15
722.629	-9.85
722.655	-5.85
722.681	-7.85
722.707	3.15
722.733	-5.85
722.759	1.15
722.785	10.15
722.811	-9.85
722.837	-20.85
722.863	-7.85
722.889	7.15
722.915	-1.85
722.941	-4.85
722.967	-1.85
722.993	8.15
723.019	-0.85
723.045	-0.85
723.071	3.15
723.097	2.15
723.122	-2.85
723.148	2.15
723.174	1.15
723.2	-2.85
723.226	5.15
723.252	4.15
723.278	-7.85
723.304	-2.85
723.33	5.15
723.356	-18.85
723.381	-27.85
723.407	-10.85
723.433	-7.85
723.459	-2.85
723.485	3.15
723.511	16.15
723.537	3.15
723.563	6.15
723.588	4.15
723.614	-9.85
723.64	-5.85
723.666	9.15
723.692	21.15
723.718	5.15
723.744	2.15
723.769	-9.85
723.795	-17.85
723.821	-0.85
723.847	-5.85
723.873	16.15
723.899	4.15
723.924	-5.85
723.95	8.15
723.976	4.15
724.002	6.15
724.028	-6.85
724.053	-2.85
724.079	-1.85
724.105	6.15
724.131	-6.85
724.157	2.15
724.182	9.15
724.208	-8.85
724.234	-11.85
724.26	-7.85
724.286	5.15
724.311	4.15
724.337	-17.85
724.363	7.15
724.389	8.15
724.415	-3.85
724.44	17.15
724.466	0.15
724.492	-10.85
724.518	-7.85
724.543	-5.85
724.569	-3.85
724.595	-4.85
724.621	-3.85
724.646	-13.85
724.672	-2.85
724.698	-0.85
724.723	-7.85
724.749	-1.85
724.775	15.15
724.801	-6.85
724.826	-12.85
724.852	-2.85
724.878	-12.85
724.904	0.15
724.929	11.15
724.955	-14.85
724.981	-7.85
725.006	-1.85
725.032	-6.85
725.058	14.15
725.083	-5.85
725.109	5.15
725.135	2.15
725.161	10.15
725.186	-12.85
725.212	-1.85
725.238	12.15
725.263	12.15
725.289	-7.85
725.315	-7.85
725.34	2.15
725.366	5.15
725.392	1.15
725.417	3.15
725.443	0.15
725.468	10.15
725.494	6.15
725.52	21.15
725.545	-0.85
725.571	-4.85
725.597	7.15
725.622	0.15
725.648	-10.85
725.674	27.15
725.699	5.15
725.725	-21.85
725.75	12.15
725.776	-10.85
725.802	-1.85
725.827	16.15
725.853	-5.85
725.878	6.15
725.904	-7.85
725.93	-7.85
725.955	8.15
725.981	-11.85
726.006	-4.85
726.032	17.15
726.057	-9.85
726.083	-5.85
726.109	10.15
726.134	3.15
726.16	-3.85
726.185	-20.85
726.211	-6.85
726.236	5.15
726.262	5.15
726.288	-2.85
726.313	-2.85
726.339	-7.85
726.364	1.15
726.39	12.15
726.415	7.15
726.441	-2.85
726.466	-9.85
726.492	1.15
726.517	-1.85
726.543	-4.85
726.568	-11.85
726.594	2.15
726.619	5.15
726.645	3.15
726.67	5.15
726.696	4.15
726.721	-5.85
726.747	-18.85
726.772	-0.85
726.798	-0.85
726.823	1.15
726.849	-18.85
726.874	-0.85
726.9	19.15
726.925	5.15
726.951	-9.85
726.976	4.15
727.002	9.15
727.027	22.15
727.053	18.15
727.078	-9.85
727.104	-1.85
727.129	-16.85
727.155	-10.85
727.18	8.15
727.205	-8.85
727.231	-10.85
727.256	-7.85
727.282	3.15
727.307	11.15
727.333	9.15
727.358	-20.85
727.383	-12.85
727.409	-8.85
727.434	7.15
727.46	4.15
727.485	-2.85
727.511	5.15
727.536	-11.85
727.561	-6.85
727.587	-5.85
727.612	-6.85
727.637	-3.85
727.663	-2.85
727.688	10.15
727.714	-10.85
727.739	-15.85
727.764	2.15
727.79	-1.85
727.815	4.15
727.841	11.15
727.866	-1.85
727.891	-8.85
727.917	-9.85
727.942	-16.85
727.967	4.15
727.993	-20.85
728.018	-7.85
728.043	6.15
728.069	-2.85
728.094	7.15
728.119	3.15
728.145	17.15
728.17	10.15
728.195	10.15
728.221	10.15
728.246	-16.85
728.271	-7.85
728.297	10.15
728.322	3.15
728.347	-7.85
728.373	2.15
728.398	4.15
728.423	-3.85
728.448	13.15
728.474	-2.85
728.499	4.15
728.524	-6.85
728.55	-2.85
728.575	1.15
728.6	-10.85
728.625	-4.85
728.651	-1.85
728.676	-0.85
728.701	1.15
728.727	2.15
728.752	5.15
728.777	-16.85
728.802	-4.85
728.828	-9.85
728.853	-6.85
728.878	-4.85
728.903	-7.85
728.929	-9.85
728.954	-9.85
728.979	8.15
729.004	4.15
729.03	-2.85
729.055	-1.85
729.08	-21.85
729.105	3.15
729.13	8.15
729.156	0.15
729.181	2.15
729.206	0.15
729.231	-5.85
729.256	-8.85
729.282	5.15
729.307	-14.85
729.332	-13.85
729.357	-2.85
729.382	-10.85
729.408	2.15
729.433	11.15
729.458	-2.85
729.483	2.15
729.508	13.15
729.533	10.15
729.559	-5.85
729.584	-10.85
729.609	6.15
729.634	11.15
729.659	-3.85
729.684	-5.85
729.71	5.15
729.735	-1.85
729.76	0.15
729.785	-2.85
729.81	1.15
729.835	-1.85
729.86	-2.85
729.886	-1.85
729.911	10.15
729.936	1.15
729.961	7.15
729.986	-3.85
730.011	-2.85
730.036	-2.85
730.061	2.15
730.086	5.15
730.112	2.15
730.137	22.15
730.162	6.15
730.187	-12.85
730.212	6.15
730.237	1.15
730.262	-2.85
730.287	-9.85
730.312	8.15
730.337	7.15
730.362	7.15
730.387	-3.85
730.413	-4.85
730.438	-3.85
730.463	-0.85
730.488	-14.85
730.513	0.15
730.538	-10.85
730.563	12.15
730.588	11.15
730.613	15.15
730.638	8.15
730.663	6.15
730.688	10.15
730.713	10.15
730.738	6.15
730.763	2.15
730.788	-27.85
730.813	-10.85
730.838	0.15
730.863	5.15
730.888	-2.85
730.913	-1.85
730.938	-13.85
730.963	-10.85
730.988	2.15
731.013	8.15
731.038	-1.85
731.063	1.15
731.088	6.15
731.113	-11.85
731.138	-5.85
731.163	-1.85
731.188	-5.85
731.213	11.15
731.238	1.15
731.263	-16.85
731.288	-12.85
731.313	-10.85
731.338	0.15
731.363	-15.85
731.388	1.15
731.413	-7.85
731.438	1.15
731.463	10.15
731.487	-1.85
731.512	0.15
731.537	-5.85
731.562	-8.85
731.587	2.15
731.612	-18.85
731.637	-10.85
731.662	0.15
731.687	-1.85
731.712	-14.85
731.737	5.15
731.762	7.15
731.786	4.15
731.811	-5.85
731.836	-5.85
731.861	0.15
731.886	-9.85
731.911	10.15
731.936	-1.85
731.961	-9.85
731.986	-15.85
732.01	5.15
732.035	-8.85
732.06	13.15
732.085	-9.85
732.11	-2.85
732.135	-12.85
732.16	-1.85
732.184	10.15
732.209	3.15
732.234	12.15
732.259	-9.85
732.284	12.15
732.309	-2.85
732.334	0.15
732.358	-14.85
732.383	-17.85
732.408	-17.85
732.433	-4.85
732.458	-10.85
732.482	-6.85
732.507	2.15
732.532	10.15
732.557	11.15
732.582	12.15
732.607	-4.85
732.631	-5.85
732.656	12.15
732.681	5.15
732.706	-6.85
732.73	-0.85
732.755	-4.85
732.78	23.15
732.805	2.15
732.83	-6.85
732.854	-0.85
732.879	3.15
732.904	-4.85
732.929	-7.85
732.953	-1.85
732.978	-14.85
733.003	-14.85
733.028	-0.85
733.052	15.15
733.077	-2.85
733.102	2.15
733.127	-0.85
733.151	-1.85
733.176	17.15
733.201	-7.85
733.226	5.15
733.25	16.15
733.275	-3.85
733.3	5.15
733.324	5.15
733.349	4.15
733.374	15.15
733.399	0.15
733.423	-8.85
733.448	-1.85
733.473	-9.85
733.497	-1.85
733.522	-1.85
733.547	16.15
733.571	13.15
733.596	-5.85
733.621	12.15
733.646	8.15
733.67	1.15
733.695	-6.85
733.72	-3.85
733.744	7.15
733.769	0.15
733.794	1.15
733.818	5.15
733.843	-4.85
733.867	-21.85
733.892	-7.85
733.917	2.15
733.941	5.15
733.966	4.15
733.991	1.15
734.015	13.15
734.04	-11.85
734.065	4.15
734.089	26.15
734.114	-1.85
734.138	2.15
734.163	-3.85
734.188	3.15
734.212	13.15
734.237	19.15
734.261	13.15
734.286	-1.85
734.311	-7.85
734.335	15.15
734.36	3.15
734.384	4.15
734.409	-13.85
734.434	-8.85
734.458	20.15
734.483	-12.85
734.507	-12.85
734.532	-12.85
734.556	-5.85
734.581	1.15
734.606	0.15
734.63	-17.85
734.655	3.15
734.679	-3.85
734.704	-5.85
734.728	-2.85
734.753	-5.85
734.777	-1.85
734.802	1.15
734.826	-17.85
734.851	-0.85
734.876	26.15
734.9	1.15
734.925	16.15
734.949	8.15
734.974	10.15
734.998	11.15
735.023	-1.85
735.047	-15.85
735.072	2.15
735.096	8.15
735.121	12.15
735.145	-5.85
735.17	-4.85
735.194	18.15
735.219	0.15
735.243	9.15
735.268	9.15
735.292	-4.85
735.317	-2.85
735.341	1.15
735.365	-9.85
735.39	8.15
735.414	16.15
735.439	6.15
735.463	1.15
735.488	10.15
735.512	11.15
735.537	-1.85
735.561	-4.85
735.586	-6.85
735.61	10.15
735.634	-13.85
735.659	6.15
735.683	18.15
735.708	-8.85
735.732	-4.85
735.757	-0.85
735.781	10.15
735.805	5.15
735.83	-13.85
735.854	-6.85
735.879	-6.85
735.903	26.15
735.927	21.15
735.952	1.15
735.976	6.15
736.001	9.15
736.025	-1.85
736.049	-1.85
736.074	-9.85
736.098	6.15
736.123	6.15
736.147	-12.85
736.171	-5.85
736.196	-6.85
736.22	-11.85
736.244	11.15
736.269	-10.85
736.293	9.15
736.317	5.15
736.342	5.15
736.366	17.15
736.39	17.15
736.415	13.15
736.439	8.15
736.463	16.15
736.488	9.15
736.512	-8.85
736.536	3.15
736.561	10.15
736.585	-9.85
736.609	1.15
736.634	-28.85
736.658	0.15
736.682	1.15
736.707	-14.85
736.731	-18.85
736.755	-2.85
736.78	11.15
736.804	25.15
736.828	7.15
736.852	-1.85
736.877	-13.85
736.901	4.15
736.925	4.15
736.949	11.15
736.974	-4.85
736.998	-10.85
737.022	0.15
737.047	9.15
737.071	-0.85
737.095	15.15
737.119	13.15
737.144	4.15
737.168	2.15
737.192	-5.85
737.216	-7.85
737.241	-2.85
737.265	2.15
737.289	-12.85
737.313	5.15
737.337	7.15
737.362	3.15
737.386	-6.85
737.41	-7.85
737.434	1.15
737.459	0.15
737.483	15.15
737.507	13.15
737.531	9.15
737.555	6.15
737.58	10.15
737.604	-4.85
737.628	-10.85
737.652	-8.85
737.676	0.15
737.701	14.15
737.725	0.15
737.749	2.15
737.773	-13.85
737.797	-5.85
737.821	-8.85
737.846	-8.85
737.87	11.15
737.894	11.15
737.918	7.15
737.942	-15.85
737.966	-4.85
737.99	-5.85
738.015	1.15
738.039	12.15
738.063	-7.85
738.087	17.15
738.111	-2.85
738.135	12.15
738.159	0.15
738.184	7.15
738.208	-8.85
738.232	4.15
738.256	20.15
738.28	5.15
738.304	17.15
738.328	0.15
738.352	2.15
738.376	-15.85
738.4	6.15
738.425	6.15
738.449	-14.85
738.473	14.15
738.497	-9.85
738.521	0.15
738.545	1.15
738.569	4.15
738.593	17.15
738.617	-1.85
738.641	-6.85
738.665	9.15
738.689	14.15
738.713	-8.85
738.737	3.15
738.762	23.15
738.786	-4.85
738.81	-17.85
738.834	3.15
738.858	-11.85
738.882	3.15
738.906	-16.85
738.93	1.15
738.954	8.15
738.978	4.15
739.002	1.15
739.026	9.15
739.05	-1.85
739.074	-1.85
739.098	6.15
739.122	2.15
739.146	-4.85
739.17	15.15
739.194	19.15
739.218	2.15
739.242	-1.85
739.266	-5.85
739.29	6.15
739.314	15.15
739.338	5.15
739.362	18.15
739.386	9.15
739.41	3.15
739.434	-9.85
739.458	8.15
739.482	16.15
739.506	18.15
739.53	11.15
739.554	15.15
739.577	-0.85
739.601	3.15
739.625	0.15
739.649	-4.85
739.673	-1.85
739.697	13.15
739.721	-3.85
739.745	15.15
739.769	18.15
739.793	10.15
739.817	9.15
739.841	-8.85
739.865	-2.85
739.889	-13.85
739.912	11.15
739.936	1.15
739.96	-14.85
739.984	-1.85
740.008	-11.85
740.032	-6.85
740.056	2.15
740.08	9.15
740.104	-10.85
740.127	7.15
740.151	23.15
740.175	5.15
740.199	8.15
740.223	43.15
740.247	15.15
740.271	5.15
740.295	10.15
740.318	-13.85
740.342	5.15
740.366	-0.85
740.39	21.15
740.414	-4.85
740.438	-10.85
740.461	16.15
740.485	-2.85
740.509	-14.85
740.533	14.15
740.557	-7.85
740.581	-10.85
740.604	-11.85
740.628	-16.85
740.652	7.15
740.676	-2.85
740.7	7.15
740.723	-0.85
740.747	15.15
740.771	-12.85
740.795	3.15
740.819	12.15
740.842	2.15
740.866	5.15
740.89	1.15
740.914	-8.85
740.938	-14.85
740.961	3.15
740.985	1.15
741.009	5.15
741.033	-2.85
741.056	8.15
741.08	-2.85
741.104	-1.85
741.128	-5.85
741.151	-5.85
741.175	-8.85
741.199	-12.85
741.223	14.15
741.246	-6.85
741.27	-1.85
741.294	5.15
741.318	-11.85
741.341	-3.85
741.365	0.15
741.389	6.15
741.413	11.15
741.436	-5.85
741.46	2.15
741.484	13.15
741.507	2.15
741.531	23.15
741.555	18.15
741.579	-2.85
741.602	2.15
741.626	3.15
741.65	13.15
741.673	16.15
741.697	3.15
741.721	-2.85
741.744	-14.85
741.768	-17.85
741.792	-2.85
741.815	2.15
741.839	17.15
741.863	10.15
741.886	13.15
741.91	19.15
741.934	-0.85
741.957	-4.85
741.981	-0.85
742.005	-0.85
742.028	-21.85
742.052	-18.85
742.075	3.15
742.099	14.15
742.123	-5.85
742.146	-1.85
742.17	-4.85
742.194	-2.85
742.217	2.15
742.241	2.15
742.264	-1.85
742.288	5.15
742.312	7.15
742.335	9.15
742.359	8.15
742.382	26.15
742.406	9.15
742.43	-8.85
742.453	-9.85
742.477	-4.85
742.5	9.15
742.524	7.15
742.548	-10.85
742.571	-0.85
742.595	-2.85
742.618	-12.85
742.642	-1.85
742.665	6.15
742.689	-6.85
742.712	1.15
742.736	4.15
742.76	-12.85
742.783	-1.85
742.807	7.15
742.83	1.15
742.854	-6.85
742.877	-1.85
742.901	5.15
742.924	-7.85
742.948	5.15
742.971	3.15
742.995	7.15
743.018	-2.85
743.042	6.15
743.065	-6.85
743.089	-5.85
743.112	-4.85
743.136	-4.85
743.159	-5.85
743.183	-2.85
743.206	9.15
743.23	-9.85
743.253	9.15
743.277	8.15
743.3	-2.85
743.324	-1.85
743.347	1.15
743.371	9.15
743.394	3.15
743.418	20.15
743.441	17.15
743.465	-0.85
743.488	5.15
743.512	-2.85
743.535	-17.85
743.558	-8.85
743.582	2.15
743.605	1.15
743.629	-1.85
743.652	-4.85
743.676	-0.85
743.699	7.15
743.723	7.15
743.746	14.15
743.769	-6.85
743.793	6.15
743.816	-8.85
743.84	18.15
743.863	10.15
743.886	-1.85
743.91	7.15
743.933	3.15
743.957	1.15
743.98	-10.85
744.003	-1.85
744.027	18.15
744.05	-1.85
744.074	-2.85
744.097	-12.85
744.12	-9.85
744.144	-5.85
744.167	21.15
744.19	-2.85
744.214	6.15
744.237	-4.85
744.26	14.15
744.284	5.15
744.307	-11.85
744.331	12.15
744.354	-8.85
744.377	6.15
744.401	9.15
744.424	0.15
744.447	-11.85
744.471	-12.85
