Data from LowRes_mercury_15_20_11_07_2024_HR4C61881__61__15-23-38-370.txt Node

Date: Thu Nov 07 15:23:38 EST 2024
User: crc00042
Spectrometer: HR4C6188
Trigger mode: 4
Integration Time (sec): 1.000000E-1
Scans to average: 1
Electric dark correction enabled: true
Nonlinearity correction enabled: false
Boxcar width: 0
XAxis mode: Wavelengths
Number of Pixels in Spectrum: 3648
>>>>>Begin Spectral Data<<<<<
245.66	-96.38
245.797	-96.38
245.934	-96.38
246.071	-68.38
246.208	-9.38
246.344	-1.38
246.481	-3.38
246.618	-1.38
246.755	11.62
246.892	2.62
247.029	-14.38
247.165	-10.38
247.302	14.62
247.439	6.62
247.576	11.62
247.713	-20.38
247.849	25.62
247.986	-21.38
248.123	-2.38
248.26	-8.38
248.396	1.62
248.533	-7.38
248.67	-1.38
248.806	-4.38
248.943	5.62
249.08	9.62
249.216	16.62
249.353	-14.38
249.49	-2.38
249.626	2.62
249.763	-4.38
249.9	0.62
250.036	13.62
250.173	15.62
250.309	7.62
250.446	-1.38
250.582	-7.38
250.719	-1.38
250.856	-3.38
250.992	5.62
251.129	3.62
251.265	-2.38
251.402	11.62
251.538	5.62
251.675	-9.38
251.811	2.62
251.948	12.62
252.084	12.62
252.221	15.62
252.357	-8.38
252.493	19.62
252.63	-2.38
252.766	2.62
252.903	-20.38
253.039	10.62
253.175	19.62
253.312	-2.38
253.448	-16.38
253.585	-20.38
253.721	12.62
253.857	4.62
253.994	18.62
254.13	2.62
254.266	3.62
254.403	5.62
254.539	7.62
254.675	11.62
254.811	2.62
254.948	-2.38
255.084	-12.38
255.22	-17.38
255.356	-13.38
255.493	-1.38
255.629	0.62
255.765	13.62
255.901	22.62
256.037	-5.38
256.174	2.62
256.31	-0.38
256.446	-16.38
256.582	-11.38
256.718	9.62
256.854	26.62
256.991	7.62
257.127	30.62
257.263	-7.38
257.399	6.62
257.535	-11.38
257.671	-0.38
257.807	-13.38
257.943	-16.38
258.079	-10.38
258.215	-8.38
258.351	19.62
258.487	10.62
258.623	19.62
258.759	6.62
258.895	-13.38
259.031	-1.38
259.167	-13.38
259.303	16.62
259.439	-8.38
259.575	6.62
259.711	5.62
259.847	-4.38
259.983	5.62
260.119	17.62
260.255	-10.38
260.391	1.62
260.527	10.62
260.663	1.62
260.799	9.62
260.934	9.62
261.07	-8.38
261.206	-13.38
261.342	-27.38
261.478	4.62
261.614	2.62
261.749	13.62
261.885	-11.38
262.021	10.62
262.157	20.62
262.293	7.62
262.428	-20.38
262.564	6.62
262.7	11.62
262.836	12.62
262.971	-2.38
263.107	2.62
263.243	19.62
263.378	17.62
263.514	5.62
263.65	1.62
263.785	-2.38
263.921	7.62
264.057	0.62
264.192	-4.38
264.328	17.62
264.464	4.62
264.599	2.62
264.735	8.62
264.871	-2.38
265.006	7.62
265.142	10.62
265.277	6.62
265.413	1.62
265.548	15.62
265.684	11.62
265.819	14.62
265.955	-3.38
266.091	-8.38
266.226	-12.38
266.362	1.62
266.497	6.62
266.633	24.62
266.768	-3.38
266.903	3.62
267.039	21.62
267.174	31.62
267.31	-1.38
267.445	0.62
267.581	-12.38
267.716	14.62
267.851	8.62
267.987	13.62
268.122	21.62
268.258	14.62
268.393	-4.38
268.528	7.62
268.664	-4.38
268.799	-1.38
268.934	7.62
269.07	-2.38
269.205	-21.38
269.34	8.62
269.476	2.62
269.611	-13.38
269.746	20.62
269.881	-3.38
270.017	17.62
270.152	-3.38
270.287	18.62
270.422	23.62
270.558	13.62
270.693	5.62
270.828	-7.38
270.963	-4.38
271.098	9.62
271.234	7.62
271.369	17.62
271.504	18.62
271.639	-10.38
271.774	-8.38
271.909	-0.38
272.045	-8.38
272.18	-1.38
272.315	-9.38
272.45	0.62
272.585	-5.38
272.72	0.62
272.855	-16.38
272.99	19.62
273.125	-5.38
273.26	-11.38
273.395	-11.38
273.53	-19.38
273.665	9.62
273.8	-5.38
273.935	3.62
274.07	-5.38
274.205	1.62
274.34	7.62
274.475	3.62
274.61	18.62
274.745	-5.38
274.88	17.62
275.015	-10.38
275.15	5.62
275.285	10.62
275.42	1.62
275.555	9.62
275.69	16.62
275.825	-15.38
275.959	20.62
276.094	-20.38
276.229	-5.38
276.364	-20.38
276.499	9.62
276.634	-2.38
276.768	-17.38
276.903	-7.38
277.038	20.62
277.173	-1.38
277.308	-13.38
277.442	-2.38
277.577	-3.38
277.712	-3.38
277.847	-14.38
277.981	11.62
278.116	-7.38
278.251	18.62
278.386	15.62
278.52	9.62
278.655	-6.38
278.79	18.62
278.924	24.62
279.059	2.62
279.194	-14.38
279.328	33.62
279.463	-17.38
279.598	2.62
279.732	15.62
279.867	12.62
280.001	19.62
280.136	-5.38
280.271	-3.38
280.405	-3.38
280.54	-13.38
280.674	-0.38
280.809	19.62
280.943	-3.38
281.078	3.62
281.213	21.62
281.347	-4.38
281.482	-28.38
281.616	-9.38
281.751	-4.38
281.885	-8.38
282.02	6.62
282.154	10.62
282.288	-8.38
282.423	-12.38
282.557	-9.38
282.692	6.62
282.826	-16.38
282.961	12.62
283.095	1.62
283.229	9.62
283.364	-13.38
283.498	-3.38
283.633	13.62
283.767	-6.38
283.901	1.62
284.036	-7.38
284.17	-7.38
284.304	-1.38
284.439	-13.38
284.573	3.62
284.707	3.62
284.842	18.62
284.976	2.62
285.11	-16.38
285.244	3.62
285.379	33.62
285.513	-18.38
285.647	-1.38
285.781	-18.38
285.916	12.62
286.05	-12.38
286.184	18.62
286.318	-7.38
286.453	-14.38
286.587	-6.38
286.721	-16.38
286.855	3.62
286.989	15.62
287.123	-14.38
287.258	-13.38
287.392	-3.38
287.526	9.62
287.66	-3.38
287.794	-13.38
287.928	5.62
288.062	21.62
288.196	-6.38
288.33	7.62
288.464	20.62
288.598	12.62
288.733	-1.38
288.867	0.62
289.001	9.62
289.135	3.62
289.269	-11.38
289.403	-5.38
289.537	-0.38
289.671	2.62
289.805	-18.38
289.939	8.62
290.073	5.62
290.207	19.62
290.34	-0.38
290.474	19.62
290.608	11.62
290.742	-10.38
290.876	-17.38
291.01	-4.38
291.144	15.62
291.278	17.62
291.412	9.62
291.546	2.62
291.679	-32.38
291.813	-3.38
291.947	15.62
292.081	-6.38
292.215	-7.38
292.349	7.62
292.482	-7.38
292.616	-2.38
292.75	-9.38
292.884	-0.38
293.018	1.62
293.151	-5.38
293.285	-1.38
293.419	-30.38
293.553	-5.38
293.686	-15.38
293.82	-6.38
293.954	-1.38
294.088	24.62
294.221	-4.38
294.355	6.62
294.489	3.62
294.622	-5.38
294.756	-18.38
294.89	-3.38
295.023	2.62
295.157	-6.38
295.291	2.62
295.424	29.62
295.558	7.62
295.691	3.62
295.825	-7.38
295.959	9.62
296.092	-18.38
296.226	13.62
296.359	3.62
296.493	6.62
296.627	-1.38
296.76	-10.38
296.894	-6.38
297.027	-3.38
297.161	-0.38
297.294	-5.38
297.428	-1.38
297.561	15.62
297.695	2.62
297.828	-6.38
297.962	-4.38
298.095	-7.38
298.229	-6.38
298.362	-7.38
298.495	-17.38
298.629	-22.38
298.762	5.62
298.896	-9.38
299.029	-27.38
299.162	-2.38
299.296	-0.38
299.429	-0.38
299.563	4.62
299.696	14.62
299.829	5.62
299.963	14.62
300.096	17.62
300.229	15.62
300.363	-17.38
300.496	-16.38
300.629	-24.38
300.763	-22.38
300.896	0.62
301.029	18.62
301.162	-2.38
301.296	-12.38
301.429	0.62
301.562	-32.38
301.695	8.62
301.829	-1.38
301.962	20.62
302.095	5.62
302.228	-29.38
302.362	8.62
302.495	-28.38
302.628	8.62
302.761	8.62
302.894	11.62
303.027	18.62
303.161	-12.38
303.294	-11.38
303.427	-1.38
303.56	9.62
303.693	-1.38
303.826	-16.38
303.959	-5.38
304.092	8.62
304.225	-7.38
304.359	15.62
304.492	2.62
304.625	-4.38
304.758	-4.38
304.891	-0.38
305.024	-2.38
305.157	-0.38
305.29	-4.38
305.423	-7.38
305.556	1.62
305.689	15.62
305.822	1.62
305.955	2.62
306.088	0.62
306.221	-6.38
306.354	-6.38
306.487	-3.38
306.62	-11.38
306.752	-10.38
306.885	2.62
307.018	1.62
307.151	-4.38
307.284	11.62
307.417	-19.38
307.55	-0.38
307.683	-4.38
307.816	7.62
307.948	-1.38
308.081	7.62
308.214	13.62
308.347	-0.38
308.48	-2.38
308.613	-29.38
308.745	-3.38
308.878	-3.38
309.011	0.62
309.144	-3.38
309.277	12.62
309.409	14.62
309.542	8.62
309.675	3.62
309.808	10.62
309.94	29.62
310.073	-4.38
310.206	-9.38
310.339	-0.38
310.471	-11.38
310.604	17.62
310.737	-1.38
310.869	5.62
311.002	-8.38
311.135	-1.38
311.267	-14.38
311.4	16.62
311.533	26.62
311.665	-8.38
311.798	4.62
311.93	5.62
312.063	15.62
312.196	40.62
312.328	87.62
312.461	47.62
312.593	40.62
312.726	49.62
312.859	93.62
312.991	153.62
313.124	41.62
313.256	27.62
313.389	8.62
313.521	-3.38
313.654	8.62
313.786	1.62
313.919	14.62
314.051	7.62
314.184	17.62
314.316	-10.38
314.449	-9.38
314.581	-9.38
314.714	-10.38
314.846	-3.38
314.978	-5.38
315.111	-1.38
315.243	-0.38
315.376	13.62
315.508	21.62
315.641	-8.38
315.773	8.62
315.905	12.62
316.038	18.62
316.17	5.62
316.302	11.62
316.435	-4.38
316.567	-11.38
316.699	10.62
316.832	12.62
316.964	9.62
317.096	-18.38
317.229	6.62
317.361	-47.38
317.493	-0.38
317.625	-10.38
317.758	10.62
317.89	9.62
318.022	7.62
318.155	-6.38
318.287	8.62
318.419	-0.38
318.551	-1.38
318.683	4.62
318.816	-16.38
318.948	0.62
319.08	-18.38
319.212	10.62
319.344	13.62
319.477	1.62
319.609	15.62
319.741	2.62
319.873	8.62
320.005	3.62
320.137	-4.38
320.269	7.62
320.401	-7.38
320.534	-2.38
320.666	-11.38
320.798	-2.38
320.93	-0.38
321.062	4.62
321.194	-0.38
321.326	2.62
321.458	15.62
321.59	0.62
321.722	-9.38
321.854	4.62
321.986	6.62
322.118	7.62
322.25	-13.38
322.382	-10.38
322.514	-20.38
322.646	-17.38
322.778	11.62
322.91	3.62
323.042	-13.38
323.174	0.62
323.306	-0.38
323.438	-10.38
323.57	10.62
323.702	-14.38
323.834	-15.38
323.966	-20.38
324.097	-6.38
324.229	17.62
324.361	9.62
324.493	6.62
324.625	-13.38
324.757	13.62
324.889	15.62
325.021	21.62
325.152	28.62
325.284	26.62
325.416	3.62
325.548	8.62
325.68	7.62
325.811	5.62
325.943	24.62
326.075	-11.38
326.207	10.62
326.339	7.62
326.47	-1.38
326.602	7.62
326.734	26.62
326.866	10.62
326.997	-8.38
327.129	5.62
327.261	5.62
327.392	-6.38
327.524	-1.38
327.656	5.62
327.787	6.62
327.919	-0.38
328.051	14.62
328.182	38.62
328.314	22.62
328.446	6.62
328.577	20.62
328.709	23.62
328.841	-10.38
328.972	-15.38
329.104	-1.38
329.235	6.62
329.367	1.62
329.499	-12.38
329.63	-3.38
329.762	13.62
329.893	27.62
330.025	7.62
330.156	-7.38
330.288	13.62
330.419	12.62
330.551	24.62
330.683	21.62
330.814	-2.38
330.946	17.62
331.077	12.62
331.208	-4.38
331.34	7.62
331.471	7.62
331.603	3.62
331.734	-22.38
331.866	6.62
331.997	5.62
332.129	-22.38
332.26	-5.38
332.392	22.62
332.523	1.62
332.654	-3.38
332.786	-7.38
332.917	8.62
333.048	13.62
333.18	44.62
333.311	-15.38
333.443	-4.38
333.574	-0.38
333.705	41.62
333.837	42.62
333.968	108.62
334.099	223.62
334.231	213.62
334.362	50.62
334.493	23.62
334.624	21.62
334.756	5.62
334.887	2.62
335.018	29.62
335.15	17.62
335.281	17.62
335.412	18.62
335.543	1.62
335.675	1.62
335.806	-2.38
335.937	6.62
336.068	4.62
336.199	28.62
336.331	3.62
336.462	-4.38
336.593	-3.38
336.724	11.62
336.855	23.62
336.986	29.62
337.118	-2.38
337.249	9.62
337.38	21.62
337.511	7.62
337.642	13.62
337.773	-6.38
337.904	19.62
338.035	16.62
338.166	-5.38
338.298	12.62
338.429	-1.38
338.56	12.62
338.691	23.62
338.822	16.62
338.953	21.62
339.084	17.62
339.215	17.62
339.346	-2.38
339.477	14.62
339.608	7.62
339.739	22.62
339.87	9.62
340.001	11.62
340.132	22.62
340.263	6.62
340.394	26.62
340.525	36.62
340.656	7.62
340.787	-9.38
340.918	29.62
341.049	20.62
341.179	8.62
341.31	14.62
341.441	5.62
341.572	19.62
341.703	10.62
341.834	3.62
341.965	17.62
342.096	11.62
342.227	3.62
342.357	11.62
342.488	6.62
342.619	5.62
342.75	14.62
342.881	4.62
343.012	28.62
343.142	33.62
343.273	-0.38
343.404	25.62
343.535	52.62
343.666	26.62
343.796	19.62
343.927	35.62
344.058	47.62
344.189	21.62
344.319	28.62
344.45	14.62
344.581	15.62
344.712	13.62
344.842	31.62
344.973	8.62
345.104	31.62
345.234	8.62
345.365	4.62
345.496	23.62
345.626	9.62
345.757	34.62
345.888	20.62
346.018	13.62
346.149	24.62
346.28	25.62
346.41	3.62
346.541	49.62
346.672	24.62
346.802	40.62
346.933	25.62
347.063	13.62
347.194	25.62
347.325	32.62
347.455	36.62
347.586	36.62
347.716	10.62
347.847	24.62
347.977	42.62
348.108	43.62
348.238	38.62
348.369	21.62
348.499	37.62
348.63	38.62
348.76	45.62
348.891	37.62
349.021	54.62
349.152	59.62
349.282	56.62
349.413	28.62
349.543	46.62
349.674	47.62
349.804	27.62
349.935	12.62
350.065	23.62
350.196	30.62
350.326	14.62
350.456	25.62
350.587	37.62
350.717	17.62
350.848	32.62
350.978	23.62
351.108	11.62
351.239	37.62
351.369	31.62
351.499	8.62
351.63	12.62
351.76	14.62
351.89	10.62
352.021	17.62
352.151	-5.38
352.281	22.62
352.412	28.62
352.542	31.62
352.672	-0.38
352.803	23.62
352.933	27.62
353.063	31.62
353.193	12.62
353.324	16.62
353.454	33.62
353.584	37.62
353.714	24.62
353.845	13.62
353.975	13.62
354.105	6.62
354.235	33.62
354.365	33.62
354.496	11.62
354.626	30.62
354.756	18.62
354.886	22.62
355.016	29.62
355.146	29.62
355.277	23.62
355.407	21.62
355.537	14.62
355.667	21.62
355.797	27.62
355.927	26.62
356.057	28.62
356.187	13.62
356.318	5.62
356.448	24.62
356.578	14.62
356.708	34.62
356.838	21.62
356.968	9.62
357.098	28.62
357.228	22.62
357.358	32.62
357.488	24.62
357.618	39.62
357.748	46.62
357.878	39.62
358.008	23.62
358.138	9.62
358.268	19.62
358.398	25.62
358.528	22.62
358.658	32.62
358.788	36.62
358.918	21.62
359.048	35.62
359.178	33.62
359.308	33.62
359.438	43.62
359.568	36.62
359.698	51.62
359.827	31.62
359.957	16.62
360.087	21.62
360.217	21.62
360.347	29.62
360.477	48.62
360.607	9.62
360.737	26.62
360.866	11.62
360.996	1.62
361.126	0.62
361.256	51.62
361.386	49.62
361.516	50.62
361.645	15.62
361.775	25.62
361.905	22.62
362.035	48.62
362.165	27.62
362.294	45.62
362.424	42.62
362.554	45.62
362.684	34.62
362.813	55.62
362.943	61.62
363.073	44.62
363.203	59.62
363.332	70.62
363.462	88.62
363.592	113.62
363.721	147.62
363.851	159.62
363.981	224.62
364.111	255.62
364.24	340.62
364.37	485.62
364.5	852.62
364.629	1802.62
364.759	3837.62
364.888	6226.62
365.018	9378.62
365.148	14812.62
365.277	12915.62
365.407	4710.62
365.537	3079.62
365.666	3967.62
365.796	1816.62
365.925	788.62
366.055	725.62
366.184	1026.62
366.314	1399.62
366.444	2439.62
366.573	2101.62
366.703	662.62
366.832	205.62
366.962	113.62
367.091	96.62
367.221	88.62
367.35	66.62
367.48	88.62
367.609	48.62
367.739	60.62
367.868	30.62
367.998	36.62
368.127	50.62
368.257	50.62
368.386	43.62
368.516	46.62
368.645	38.62
368.775	40.62
368.904	35.62
369.033	20.62
369.163	19.62
369.292	40.62
369.422	34.62
369.551	56.62
369.68	54.62
369.81	43.62
369.939	27.62
370.069	48.62
370.198	20.62
370.327	22.62
370.457	24.62
370.586	48.62
370.715	33.62
370.845	36.62
370.974	48.62
371.103	67.62
371.233	47.62
371.362	39.62
371.491	25.62
371.621	39.62
371.75	25.62
371.879	38.62
372.008	42.62
372.138	55.62
372.267	75.62
372.396	56.62
372.525	38.62
372.655	26.62
372.784	31.62
372.913	21.62
373.042	20.62
373.172	33.62
373.301	5.62
373.43	10.62
373.559	11.62
373.688	18.62
373.818	23.62
373.947	22.62
374.076	22.62
374.205	34.62
374.334	11.62
374.463	-3.38
374.593	14.62
374.722	39.62
374.851	50.62
374.98	7.62
375.109	33.62
375.238	24.62
375.367	37.62
375.496	3.62
375.625	5.62
375.755	11.62
375.884	26.62
376.013	32.62
376.142	-2.38
376.271	18.62
376.4	-2.38
376.529	22.62
376.658	27.62
376.787	11.62
376.916	24.62
377.045	9.62
377.174	28.62
377.303	6.62
377.432	38.62
377.561	23.62
377.69	-8.38
377.819	16.62
377.948	10.62
378.077	2.62
378.206	5.62
378.335	9.62
378.464	20.62
378.593	41.62
378.722	27.62
378.851	27.62
378.98	36.62
379.108	4.62
379.237	-15.38
379.366	15.62
379.495	31.62
379.624	18.62
379.753	-9.38
379.882	10.62
380.011	15.62
380.14	-0.38
380.268	10.62
380.397	19.62
380.526	32.62
380.655	3.62
380.784	-8.38
380.913	17.62
381.041	11.62
381.17	-8.38
381.299	21.62
381.428	12.62
381.557	29.62
381.685	7.62
381.814	18.62
381.943	12.62
382.072	11.62
382.2	19.62
382.329	17.62
382.458	17.62
382.587	39.62
382.715	23.62
382.844	15.62
382.973	27.62
383.102	16.62
383.23	4.62
383.359	-13.38
383.488	8.62
383.616	13.62
383.745	21.62
383.874	27.62
384.003	13.62
384.131	6.62
384.26	13.62
384.389	16.62
384.517	6.62
384.646	9.62
384.774	23.62
384.903	21.62
385.032	38.62
385.16	23.62
385.289	-3.38
385.418	3.62
385.546	7.62
385.675	22.62
385.803	8.62
385.932	18.62
386.06	14.62
386.189	10.62
386.318	14.62
386.446	6.62
386.575	14.62
386.703	35.62
386.832	-0.38
386.96	-5.38
387.089	12.62
387.217	29.62
387.346	5.62
387.474	11.62
387.603	3.62
387.731	12.62
387.86	21.62
387.988	27.62
388.117	29.62
388.245	40.62
388.374	10.62
388.502	26.62
388.631	13.62
388.759	9.62
388.888	34.62
389.016	19.62
389.144	23.62
389.273	8.62
389.401	24.62
389.53	5.62
389.658	27.62
389.786	6.62
389.915	-2.38
390.043	13.62
390.172	25.62
390.3	53.62
390.428	43.62
390.557	27.62
390.685	23.62
390.813	46.62
390.942	26.62
391.07	13.62
391.198	10.62
391.327	14.62
391.455	10.62
391.583	58.62
391.712	19.62
391.84	17.62
391.968	28.62
392.096	29.62
392.225	6.62
392.353	27.62
392.481	30.62
392.609	17.62
392.738	31.62
392.866	25.62
392.994	9.62
393.122	43.62
393.251	28.62
393.379	6.62
393.507	-12.38
393.635	2.62
393.764	22.62
393.892	30.62
394.02	29.62
394.148	22.62
394.276	21.62
394.404	37.62
394.533	18.62
394.661	19.62
394.789	24.62
394.917	23.62
395.045	0.62
395.173	7.62
395.302	14.62
395.43	33.62
395.558	48.62
395.686	14.62
395.814	34.62
395.942	9.62
396.07	26.62
396.198	19.62
396.326	39.62
396.454	39.62
396.582	29.62
396.711	35.62
396.839	22.62
396.967	28.62
397.095	23.62
397.223	38.62
397.351	57.62
397.479	47.62
397.607	35.62
397.735	50.62
397.863	43.62
397.991	55.62
398.119	42.62
398.247	36.62
398.375	41.62
398.503	44.62
398.631	56.62
398.759	49.62
398.887	38.62
399.015	35.62
399.143	39.62
399.271	66.62
399.399	54.62
399.526	78.62
399.654	81.62
399.782	56.62
399.91	93.62
400.038	95.62
400.166	77.62
400.294	91.62
400.422	84.62
400.55	122.62
400.678	95.62
400.805	109.62
400.933	106.62
401.061	107.62
401.189	122.62
401.317	148.62
401.445	106.62
401.573	71.62
401.7	66.62
401.828	49.62
401.956	40.62
402.084	41.62
402.212	41.62
402.34	36.62
402.467	33.62
402.595	37.62
402.723	39.62
402.851	59.62
402.978	59.62
403.106	78.62
403.234	91.62
403.362	118.62
403.489	126.62
403.617	150.62
403.745	186.62
403.873	275.62
404	541.62
404.128	1426.62
404.256	3909.62
404.384	5071.62
404.511	5472.62
404.639	7118.62
404.767	11370.62
404.894	14611.62
405.022	4910.62
405.15	1302.62
405.277	416.62
405.405	236.62
405.533	140.62
405.66	120.62
405.788	45.62
405.916	51.62
406.043	38.62
406.171	44.62
406.299	51.62
406.426	48.62
406.554	41.62
406.681	74.62
406.809	54.62
406.937	55.62
407.064	58.62
407.192	112.62
407.319	295.62
407.447	515.62
407.574	524.62
407.702	633.62
407.83	851.62
407.957	1571.62
408.085	896.62
408.212	255.62
408.34	106.62
408.467	51.62
408.595	31.62
408.722	51.62
408.85	62.62
408.977	26.62
409.105	23.62
409.232	8.62
409.36	38.62
409.487	28.62
409.615	23.62
409.742	34.62
409.87	22.62
409.997	42.62
410.125	31.62
410.252	50.62
410.379	27.62
410.507	34.62
410.634	28.62
410.762	24.62
410.889	46.62
411.017	30.62
411.144	39.62
411.271	13.62
411.399	28.62
411.526	35.62
411.653	37.62
411.781	50.62
411.908	30.62
412.036	31.62
412.163	39.62
412.29	10.62
412.418	11.62
412.545	26.62
412.672	12.62
412.8	60.62
412.927	53.62
413.054	50.62
413.182	41.62
413.309	25.62
413.436	9.62
413.564	7.62
413.691	25.62
413.818	40.62
413.945	5.62
414.073	28.62
414.2	36.62
414.327	21.62
414.454	25.62
414.582	9.62
414.709	27.62
414.836	32.62
414.963	25.62
415.091	31.62
415.218	24.62
415.345	27.62
415.472	31.62
415.6	27.62
415.727	31.62
415.854	26.62
415.981	20.62
416.108	35.62
416.236	20.62
416.363	38.62
416.49	18.62
416.617	4.62
416.744	29.62
416.871	22.62
416.998	24.62
417.126	24.62
417.253	25.62
417.38	19.62
417.507	6.62
417.634	38.62
417.761	35.62
417.888	39.62
418.015	31.62
418.143	21.62
418.27	30.62
418.397	13.62
418.524	19.62
418.651	17.62
418.778	54.62
418.905	48.62
419.032	20.62
419.159	16.62
419.286	64.62
419.413	42.62
419.54	40.62
419.667	35.62
419.794	12.62
419.921	40.62
420.048	38.62
420.175	47.62
420.302	35.62
420.429	50.62
420.556	47.62
420.683	38.62
420.81	54.62
420.937	58.62
421.064	90.62
421.191	71.62
421.318	68.62
421.445	60.62
421.572	60.62
421.699	32.62
421.826	49.62
421.953	17.62
422.08	15.62
422.207	14.62
422.334	3.62
422.461	31.62
422.588	30.62
422.714	21.62
422.841	37.62
422.968	41.62
423.095	22.62
423.222	22.62
423.349	26.62
423.476	27.62
423.603	16.62
423.729	2.62
423.856	0.62
423.983	33.62
424.11	23.62
424.237	16.62
424.364	26.62
424.491	17.62
424.617	-2.38
424.744	9.62
424.871	24.62
424.998	5.62
425.125	15.62
425.251	16.62
425.378	12.62
425.505	22.62
425.632	20.62
425.758	7.62
425.885	28.62
426.012	25.62
426.139	24.62
426.266	19.62
426.392	18.62
426.519	25.62
426.646	1.62
426.772	16.62
426.899	14.62
427.026	34.62
427.153	17.62
427.279	30.62
427.406	42.62
427.533	5.62
427.659	-1.38
427.786	13.62
427.913	30.62
428.039	10.62
428.166	23.62
428.293	13.62
428.419	20.62
428.546	19.62
428.673	5.62
428.799	27.62
428.926	12.62
429.053	27.62
429.179	31.62
429.306	9.62
429.433	37.62
429.559	29.62
429.686	13.62
429.812	22.62
429.939	25.62
430.066	22.62
430.192	18.62
430.319	3.62
430.445	5.62
430.572	18.62
430.699	7.62
430.825	18.62
430.952	32.62
431.078	24.62
431.205	35.62
431.331	31.62
431.458	36.62
431.584	33.62
431.711	34.62
431.837	31.62
431.964	23.62
432.09	33.62
432.217	4.62
432.343	22.62
432.47	48.62
432.596	30.62
432.723	24.62
432.849	18.62
432.976	31.62
433.102	35.62
433.229	27.62
433.355	45.62
433.482	83.62
433.608	99.62
433.735	104.62
433.861	96.62
433.987	149.62
434.114	199.62
434.24	151.62
434.367	202.62
434.493	203.62
434.62	284.62
434.746	378.62
434.872	640.62
434.999	818.62
435.125	1720.62
435.252	5558.62
435.378	13423.62
435.504	15171.62
435.631	15398.62
435.757	15680.62
435.883	15680.62
436.01	15680.62
436.136	15680.62
436.262	15680.62
436.389	3429.62
436.515	1969.62
436.641	765.62
436.768	626.62
436.894	403.62
437.02	386.62
437.147	295.62
437.273	278.62
437.399	195.62
437.526	232.62
437.652	153.62
437.778	214.62
437.904	138.62
438.031	159.62
438.157	131.62
438.283	133.62
438.409	104.62
438.536	118.62
438.662	127.62
438.788	131.62
438.914	97.62
439.041	123.62
439.167	123.62
439.293	103.62
439.419	94.62
439.546	90.62
439.672	77.62
439.798	74.62
439.924	74.62
440.05	86.62
440.177	78.62
440.303	67.62
440.429	48.62
440.555	47.62
440.681	49.62
440.807	70.62
440.934	60.62
441.06	61.62
441.186	48.62
441.312	55.62
441.438	85.62
441.564	94.62
441.69	64.62
441.816	57.62
441.943	44.62
442.069	68.62
442.195	64.62
442.321	39.62
442.447	43.62
442.573	32.62
442.699	59.62
442.825	60.62
442.951	67.62
443.077	62.62
443.203	51.62
443.33	51.62
443.456	39.62
443.582	47.62
443.708	31.62
443.834	73.62
443.96	57.62
444.086	64.62
444.212	67.62
444.338	60.62
444.464	70.62
444.59	52.62
444.716	28.62
444.842	38.62
444.968	39.62
445.094	33.62
445.22	18.62
445.346	28.62
445.472	29.62
445.598	39.62
445.724	20.62
445.85	25.62
445.976	38.62
446.102	55.62
446.228	60.62
446.354	35.62
446.48	45.62
446.605	52.62
446.731	42.62
446.857	26.62
446.983	35.62
447.109	30.62
447.235	31.62
447.361	28.62
447.487	51.62
447.613	27.62
447.739	10.62
447.865	18.62
447.99	38.62
448.116	19.62
448.242	27.62
448.368	33.62
448.494	27.62
448.62	32.62
448.746	24.62
448.872	37.62
448.997	12.62
449.123	33.62
449.249	42.62
449.375	34.62
449.501	28.62
449.627	30.62
449.752	52.62
449.878	33.62
450.004	32.62
450.13	38.62
450.256	25.62
450.381	25.62
450.507	13.62
450.633	26.62
450.759	50.62
450.884	32.62
451.01	23.62
451.136	22.62
451.262	37.62
451.388	33.62
451.513	5.62
451.639	34.62
451.765	31.62
451.89	27.62
452.016	37.62
452.142	17.62
452.268	51.62
452.393	36.62
452.519	15.62
452.645	22.62
452.771	6.62
452.896	-4.38
453.022	13.62
453.148	31.62
453.273	17.62
453.399	17.62
453.525	14.62
453.65	18.62
453.776	43.62
453.902	40.62
454.027	61.62
454.153	26.62
454.279	21.62
454.404	28.62
454.53	39.62
454.656	39.62
454.781	20.62
454.907	17.62
455.032	2.62
455.158	36.62
455.284	27.62
455.409	23.62
455.535	22.62
455.66	21.62
455.786	33.62
455.912	19.62
456.037	10.62
456.163	27.62
456.288	36.62
456.414	31.62
456.539	11.62
456.665	37.62
456.791	20.62
456.916	28.62
457.042	15.62
457.167	-1.38
457.293	16.62
457.418	17.62
457.544	6.62
457.669	17.62
457.795	9.62
457.92	40.62
458.046	34.62
458.171	35.62
458.297	19.62
458.422	6.62
458.548	20.62
458.673	13.62
458.799	17.62
458.924	28.62
459.05	17.62
459.175	27.62
459.301	7.62
459.426	15.62
459.552	16.62
459.677	19.62
459.803	26.62
459.928	26.62
460.053	27.62
460.179	32.62
460.304	24.62
460.43	7.62
460.555	21.62
460.681	12.62
460.806	26.62
460.931	25.62
461.057	45.62
461.182	7.62
461.308	22.62
461.433	28.62
461.558	15.62
461.684	30.62
461.809	26.62
461.934	23.62
462.06	26.62
462.185	17.62
462.311	18.62
462.436	17.62
462.561	22.62
462.687	21.62
462.812	17.62
462.937	17.62
463.063	7.62
463.188	-1.38
463.313	22.62
463.439	13.62
463.564	23.62
463.689	30.62
463.814	36.62
463.94	15.62
464.065	16.62
464.19	27.62
464.316	3.62
464.441	-0.38
464.566	10.62
464.692	16.62
464.817	35.62
464.942	22.62
465.067	13.62
465.193	1.62
465.318	11.62
465.443	0.62
465.568	25.62
465.694	27.62
465.819	37.62
465.944	12.62
466.069	38.62
466.194	34.62
466.32	32.62
466.445	24.62
466.57	5.62
466.695	21.62
466.82	31.62
466.946	47.62
467.071	36.62
467.196	38.62
467.321	49.62
467.446	22.62
467.572	34.62
467.697	20.62
467.822	56.62
467.947	39.62
468.072	39.62
468.197	33.62
468.323	24.62
468.448	34.62
468.573	31.62
468.698	18.62
468.823	39.62
468.948	36.62
469.073	23.62
469.198	27.62
469.324	73.62
469.449	22.62
469.574	27.62
469.699	38.62
469.824	44.62
469.949	34.62
470.074	22.62
470.199	48.62
470.324	34.62
470.449	32.62
470.574	22.62
470.7	30.62
470.825	23.62
470.95	38.62
471.075	19.62
471.2	45.62
471.325	45.62
471.45	40.62
471.575	23.62
471.7	38.62
471.825	15.62
471.95	21.62
472.075	30.62
472.2	18.62
472.325	30.62
472.45	17.62
472.575	11.62
472.7	34.62
472.825	41.62
472.95	44.62
473.075	41.62
473.2	32.62
473.325	26.62
473.45	36.62
473.575	34.62
473.7	47.62
473.825	20.62
473.95	39.62
474.075	18.62
474.2	13.62
474.325	16.62
474.45	39.62
474.574	29.62
474.699	23.62
474.824	6.62
474.949	5.62
475.074	15.62
475.199	22.62
475.324	25.62
475.449	-5.38
475.574	31.62
475.699	22.62
475.824	19.62
475.949	14.62
476.073	5.62
476.198	5.62
476.323	25.62
476.448	30.62
476.573	11.62
476.698	37.62
476.823	31.62
476.947	26.62
477.072	16.62
477.197	22.62
477.322	4.62
477.447	-6.38
477.572	8.62
477.697	14.62
477.821	3.62
477.946	29.62
478.071	28.62
478.196	25.62
478.321	14.62
478.445	14.62
478.57	1.62
478.695	6.62
478.82	36.62
478.945	34.62
479.069	-2.38
479.194	16.62
479.319	17.62
479.444	5.62
479.569	10.62
479.693	23.62
479.818	9.62
479.943	37.62
480.068	11.62
480.192	27.62
480.317	29.62
480.442	26.62
480.567	2.62
480.691	20.62
480.816	21.62
480.941	19.62
481.066	14.62
481.19	13.62
481.315	20.62
481.44	6.62
481.564	-9.38
481.689	4.62
481.814	16.62
481.938	24.62
482.063	13.62
482.188	17.62
482.313	22.62
482.437	-0.38
482.562	37.62
482.687	27.62
482.811	21.62
482.936	1.62
483.061	18.62
483.185	23.62
483.31	20.62
483.435	15.62
483.559	11.62
483.684	28.62
483.808	37.62
483.933	25.62
484.058	22.62
484.182	16.62
484.307	18.62
484.432	41.62
484.556	14.62
484.681	30.62
484.805	33.62
484.93	38.62
485.055	24.62
485.179	43.62
485.304	25.62
485.428	21.62
485.553	-1.38
485.678	18.62
485.802	10.62
485.927	35.62
486.051	24.62
486.176	24.62
486.3	4.62
486.425	2.62
486.549	22.62
486.674	22.62
486.799	13.62
486.923	-3.38
487.048	22.62
487.172	25.62
487.297	18.62
487.421	40.62
487.546	21.62
487.67	18.62
487.795	18.62
487.919	33.62
488.044	22.62
488.168	26.62
488.293	23.62
488.417	18.62
488.542	21.62
488.666	30.62
488.791	21.62
488.915	11.62
489.04	15.62
489.164	18.62
489.289	38.62
489.413	10.62
489.538	17.62
489.662	37.62
489.786	22.62
489.911	30.62
490.035	24.62
490.16	-3.38
490.284	12.62
490.409	17.62
490.533	16.62
490.658	52.62
490.782	26.62
490.906	35.62
491.031	118.62
491.155	140.62
491.28	145.62
491.404	148.62
491.528	221.62
491.653	134.62
491.777	69.62
491.902	35.62
492.026	43.62
492.15	16.62
492.275	29.62
492.399	21.62
492.524	16.62
492.648	22.62
492.772	36.62
492.897	38.62
493.021	27.62
493.145	35.62
493.27	39.62
493.394	23.62
493.518	5.62
493.643	-2.38
493.767	26.62
493.891	20.62
494.016	26.62
494.14	14.62
494.264	28.62
494.389	36.62
494.513	0.62
494.637	-1.38
494.762	27.62
494.886	25.62
495.01	18.62
495.134	37.62
495.259	49.62
495.383	20.62
495.507	21.62
495.632	22.62
495.756	47.62
495.88	24.62
496.004	24.62
496.129	17.62
496.253	23.62
496.377	23.62
496.501	19.62
496.626	10.62
496.75	28.62
496.874	0.62
496.998	6.62
497.123	39.62
497.247	18.62
497.371	15.62
497.495	19.62
497.62	4.62
497.744	2.62
497.868	7.62
497.992	24.62
498.116	19.62
498.241	19.62
498.365	10.62
498.489	10.62
498.613	34.62
498.737	20.62
498.862	12.62
498.986	13.62
499.11	19.62
499.234	8.62
499.358	-3.38
499.482	1.62
499.607	15.62
499.731	25.62
499.855	22.62
499.979	6.62
500.103	28.62
500.227	20.62
500.351	19.62
500.476	10.62
500.6	23.62
500.724	18.62
500.848	15.62
500.972	32.62
501.096	21.62
501.22	32.62
501.344	18.62
501.469	16.62
501.593	6.62
501.717	23.62
501.841	21.62
501.965	17.62
502.089	25.62
502.213	26.62
502.337	-2.38
502.461	27.62
502.585	7.62
502.709	29.62
502.834	18.62
502.958	17.62
503.082	25.62
503.206	25.62
503.33	26.62
503.454	31.62
503.578	12.62
503.702	21.62
503.826	28.62
503.95	40.62
504.074	26.62
504.198	27.62
504.322	19.62
504.446	6.62
504.57	22.62
504.694	15.62
504.818	10.62
504.942	21.62
505.066	29.62
505.19	36.62
505.314	31.62
505.438	31.62
505.562	25.62
505.686	27.62
505.81	19.62
505.934	35.62
506.058	21.62
506.182	23.62
506.306	31.62
506.43	-1.38
506.554	23.62
506.678	3.62
506.802	20.62
506.926	25.62
507.05	10.62
507.174	20.62
507.298	24.62
507.422	15.62
507.546	38.62
507.67	42.62
507.794	-2.38
507.918	24.62
508.042	9.62
508.165	6.62
508.289	28.62
508.413	14.62
508.537	19.62
508.661	22.62
508.785	33.62
508.909	40.62
509.033	25.62
509.157	29.62
509.281	22.62
509.405	30.62
509.528	44.62
509.652	48.62
509.776	21.62
509.9	24.62
510.024	20.62
510.148	28.62
510.272	45.62
510.396	46.62
510.519	39.62
510.643	39.62
510.767	38.62
510.891	36.62
511.015	30.62
511.139	42.62
511.263	54.62
511.386	52.62
511.51	40.62
511.634	39.62
511.758	43.62
511.882	28.62
512.006	58.62
512.129	62.62
512.253	95.62
512.377	69.62
512.501	68.62
512.625	70.62
512.748	83.62
512.872	78.62
512.996	50.62
513.12	63.62
513.244	49.62
513.367	69.62
513.491	82.62
513.615	76.62
513.739	66.62
513.862	75.62
513.986	83.62
514.11	82.62
514.234	86.62
514.358	111.62
514.481	106.62
514.605	99.62
514.729	121.62
514.853	115.62
514.976	92.62
515.1	102.62
515.224	98.62
515.348	85.62
515.471	81.62
515.595	95.62
515.719	111.62
515.842	214.62
515.966	274.62
516.09	325.62
516.214	299.62
516.337	330.62
516.461	233.62
516.585	95.62
516.708	44.62
516.832	30.62
516.956	33.62
517.08	17.62
517.203	2.62
517.327	20.62
517.451	27.62
517.574	29.62
517.698	6.62
517.822	9.62
517.945	14.62
518.069	21.62
518.193	39.62
518.316	10.62
518.44	19.62
518.564	-2.38
518.687	2.62
518.811	28.62
518.935	34.62
519.058	11.62
519.182	17.62
519.306	19.62
519.429	-3.38
519.553	46.62
519.676	13.62
519.8	51.62
519.924	-0.38
520.047	20.62
520.171	10.62
520.294	18.62
520.418	17.62
520.542	-0.38
520.665	26.62
520.789	30.62
520.913	5.62
521.036	12.62
521.16	14.62
521.283	1.62
521.407	14.62
521.53	-0.38
521.654	-11.38
521.778	22.62
521.901	17.62
522.025	30.62
522.148	18.62
522.272	26.62
522.395	20.62
522.519	30.62
522.643	10.62
522.766	6.62
522.89	19.62
523.013	17.62
523.137	4.62
523.26	17.62
523.384	1.62
523.507	8.62
523.631	11.62
523.754	17.62
523.878	-12.38
524.002	25.62
524.125	1.62
524.249	8.62
524.372	21.62
524.496	21.62
524.619	30.62
524.743	12.62
524.866	7.62
524.99	14.62
525.113	4.62
525.237	22.62
525.36	24.62
525.484	9.62
525.607	6.62
525.731	-0.38
525.854	11.62
525.978	19.62
526.101	9.62
526.224	2.62
526.348	18.62
526.471	26.62
526.595	15.62
526.718	-3.38
526.842	6.62
526.965	22.62
527.089	23.62
527.212	10.62
527.336	17.62
527.459	23.62
527.582	8.62
527.706	18.62
527.829	39.62
527.953	25.62
528.076	-1.38
528.2	5.62
528.323	32.62
528.446	30.62
528.57	23.62
528.693	32.62
528.817	18.62
528.94	23.62
529.064	45.62
529.187	6.62
529.31	23.62
529.434	12.62
529.557	13.62
529.68	9.62
529.804	25.62
529.927	19.62
530.051	9.62
530.174	-2.38
530.297	19.62
530.421	33.62
530.544	27.62
530.668	23.62
530.791	3.62
530.914	38.62
531.038	12.62
531.161	4.62
531.284	10.62
531.408	22.62
531.531	15.62
531.654	-2.38
531.778	16.62
531.901	-3.38
532.024	22.62
532.148	1.62
532.271	19.62
532.394	13.62
532.518	17.62
532.641	16.62
532.764	26.62
532.888	21.62
533.011	8.62
533.134	20.62
533.258	30.62
533.381	9.62
533.504	5.62
533.628	3.62
533.751	22.62
533.874	9.62
533.997	24.62
534.121	-3.38
534.244	3.62
534.367	10.62
534.491	25.62
534.614	10.62
534.737	23.62
534.86	21.62
534.984	15.62
535.107	1.62
535.23	12.62
535.354	15.62
535.477	-6.38
535.6	13.62
535.723	41.62
535.847	45.62
535.97	11.62
536.093	9.62
536.216	11.62
536.34	20.62
536.463	7.62
536.586	33.62
536.709	37.62
536.833	19.62
536.956	14.62
537.079	15.62
537.202	13.62
537.325	14.62
537.449	6.62
537.572	38.62
537.695	5.62
537.818	22.62
537.941	3.62
538.065	0.62
538.188	-4.38
538.311	37.62
538.434	26.62
538.558	27.62
538.681	39.62
538.804	21.62
538.927	20.62
539.05	18.62
539.173	10.62
539.297	-4.38
539.42	21.62
539.543	24.62
539.666	35.62
539.789	24.62
539.913	25.62
540.036	23.62
540.159	36.62
540.282	9.62
540.405	6.62
540.528	2.62
540.651	31.62
540.775	14.62
540.898	29.62
541.021	23.62
541.144	29.62
541.267	18.62
541.39	25.62
541.513	26.62
541.637	17.62
541.76	28.62
541.883	42.62
542.006	38.62
542.129	50.62
542.252	34.62
542.375	37.62
542.498	24.62
542.622	41.62
542.745	37.62
542.868	35.62
542.991	65.62
543.114	54.62
543.237	51.62
543.36	57.62
543.483	53.62
543.606	71.62
543.73	73.62
543.853	73.62
543.976	85.62
544.099	106.62
544.222	122.62
544.345	128.62
544.468	160.62
544.591	208.62
544.714	261.62
544.837	338.62
544.96	437.62
545.083	657.62
545.206	1069.62
545.329	2427.62
545.453	10934.62
545.576	15249.62
545.699	15680.62
545.822	15680.62
545.945	15680.62
546.068	15680.62
546.191	15680.62
546.314	15680.62
546.437	15680.62
546.56	15680.62
546.683	15680.62
546.806	15680.62
546.929	15680.62
547.052	15680.62
547.175	15680.62
547.298	15680.62
547.421	15680.62
547.544	15680.62
547.667	3491.62
547.79	2107.62
547.913	969.62
548.036	880.62
548.159	636.62
548.282	623.62
548.405	491.62
548.528	484.62
548.651	402.62
548.774	390.62
548.897	333.62
549.02	358.62
549.143	326.62
549.266	308.62
549.389	268.62
549.512	253.62
549.635	246.62
549.758	251.62
549.881	209.62
550.004	226.62
550.127	198.62
550.25	180.62
550.373	158.62
550.496	173.62
550.619	149.62
550.742	162.62
550.865	133.62
550.988	145.62
551.111	144.62
551.234	161.62
551.356	123.62
551.479	131.62
551.602	112.62
551.725	151.62
551.848	123.62
551.971	138.62
552.094	107.62
552.217	112.62
552.34	105.62
552.463	102.62
552.586	108.62
552.709	97.62
552.832	93.62
552.955	116.62
553.077	108.62
553.2	103.62
553.323	75.62
553.446	106.62
553.569	97.62
553.692	102.62
553.815	89.62
553.938	85.62
554.061	95.62
554.184	91.62
554.306	85.62
554.429	84.62
554.552	85.62
554.675	67.62
554.798	58.62
554.921	91.62
555.044	81.62
555.167	67.62
555.29	70.62
555.412	75.62
555.535	55.62
555.658	63.62
555.781	72.62
555.904	74.62
556.027	61.62
556.15	81.62
556.272	67.62
556.395	79.62
556.518	57.62
556.641	45.62
556.764	81.62
556.887	78.62
557.01	77.62
557.132	47.62
557.255	75.62
557.378	91.62
557.501	62.62
557.624	71.62
557.747	69.62
557.869	76.62
557.992	96.62
558.115	116.62
558.238	77.62
558.361	99.62
558.483	89.62
558.606	70.62
558.729	41.62
558.852	66.62
558.975	47.62
559.098	63.62
559.22	71.62
559.343	60.62
559.466	35.62
559.589	44.62
559.712	39.62
559.834	51.62
559.957	49.62
560.08	36.62
560.203	43.62
560.325	69.62
560.448	64.62
560.571	42.62
560.694	26.62
560.817	71.62
560.939	45.62
561.062	58.62
561.185	67.62
561.308	70.62
561.43	50.62
561.553	50.62
561.676	68.62
561.799	67.62
561.921	56.62
562.044	66.62
562.167	53.62
562.29	76.62
562.413	75.62
562.535	76.62
562.658	42.62
562.781	52.62
562.903	69.62
563.026	91.62
563.149	114.62
563.272	109.62
563.394	113.62
563.517	104.62
563.64	47.62
563.763	59.62
563.885	67.62
564.008	59.62
564.131	35.62
564.254	30.62
564.376	34.62
564.499	21.62
564.622	26.62
564.744	43.62
564.867	37.62
564.99	16.62
565.113	37.62
565.235	32.62
565.358	23.62
565.481	29.62
565.603	35.62
565.726	18.62
565.849	32.62
565.971	47.62
566.094	41.62
566.217	43.62
566.34	38.62
566.462	34.62
566.585	21.62
566.708	57.62
566.83	49.62
566.953	58.62
567.076	40.62
567.198	39.62
567.321	19.62
567.444	37.62
567.566	21.62
567.689	35.62
567.812	30.62
567.934	31.62
568.057	30.62
568.18	35.62
568.302	37.62
568.425	24.62
568.548	26.62
568.67	44.62
568.793	26.62
568.916	15.62
569.038	21.62
569.161	45.62
569.283	25.62
569.406	14.62
569.529	9.62
569.651	19.62
569.774	22.62
569.897	20.62
570.019	26.62
570.142	30.62
570.265	31.62
570.387	26.62
570.51	46.62
570.632	43.62
570.755	31.62
570.878	32.62
571	50.62
571.123	23.62
571.246	33.62
571.368	21.62
571.491	17.62
571.613	19.62
571.736	7.62
571.859	21.62
571.981	1.62
572.104	22.62
572.226	7.62
572.349	6.62
572.472	47.62
572.594	33.62
572.717	37.62
572.839	9.62
572.962	32.62
573.085	32.62
573.207	21.62
573.33	36.62
573.452	24.62
573.575	44.62
573.697	39.62
573.82	30.62
573.943	31.62
574.065	33.62
574.188	22.62
574.31	42.62
574.433	25.62
574.555	50.62
574.678	25.62
574.801	38.62
574.923	20.62
575.046	31.62
575.168	29.62
575.291	31.62
575.413	30.62
575.536	33.62
575.659	53.62
575.781	53.62
575.904	52.62
576.026	59.62
576.149	77.62
576.271	110.62
576.394	188.62
576.516	510.62
576.639	3610.62
576.761	10113.62
576.884	8821.62
577.007	8694.62
577.129	7910.62
577.252	3667.62
577.374	1299.62
577.497	490.62
577.619	285.62
577.742	175.62
577.864	171.62
577.987	138.62
578.109	132.62
578.232	121.62
578.354	139.62
578.477	184.62
578.599	369.62
578.722	1950.62
578.844	9098.62
578.967	9742.62
579.089	8725.62
579.212	9046.62
579.334	5218.62
579.457	1920.62
579.579	729.62
579.702	309.62
579.824	200.62
579.947	121.62
580.069	114.62
580.192	89.62
580.314	85.62
580.437	70.62
580.559	84.62
580.682	56.62
580.804	75.62
580.927	75.62
581.049	55.62
581.172	60.62
581.294	56.62
581.417	47.62
581.539	44.62
581.662	53.62
581.784	54.62
581.907	52.62
582.029	47.62
582.152	31.62
582.274	63.62
582.396	19.62
582.519	21.62
582.641	21.62
582.764	18.62
582.886	51.62
583.009	23.62
583.131	18.62
583.254	20.62
583.376	31.62
583.499	22.62
583.621	29.62
583.743	47.62
583.866	33.62
583.988	32.62
584.111	29.62
584.233	29.62
584.356	42.62
584.478	33.62
584.601	16.62
584.723	18.62
584.845	30.62
584.968	31.62
585.09	25.62
585.213	38.62
585.335	27.62
585.458	16.62
585.58	30.62
585.702	21.62
585.825	37.62
585.947	31.62
586.07	18.62
586.192	27.62
586.315	37.62
586.437	11.62
586.559	17.62
586.682	22.62
586.804	28.62
586.927	26.62
587.049	19.62
587.171	26.62
587.294	32.62
587.416	41.62
587.539	17.62
587.661	39.62
587.783	18.62
587.906	25.62
588.028	29.62
588.151	11.62
588.273	24.62
588.395	22.62
588.518	17.62
588.64	13.62
588.763	39.62
588.885	39.62
589.007	38.62
589.13	15.62
589.252	11.62
589.375	28.62
589.497	30.62
589.619	45.62
589.742	31.62
589.864	34.62
589.986	36.62
590.109	18.62
590.231	12.62
590.354	26.62
590.476	17.62
590.598	8.62
590.721	11.62
590.843	42.62
590.965	31.62
591.088	33.62
591.21	38.62
591.332	33.62
591.455	23.62
591.577	20.62
591.7	31.62
591.822	18.62
591.944	13.62
592.067	21.62
592.189	39.62
592.311	22.62
592.434	30.62
592.556	28.62
592.678	16.62
592.801	28.62
592.923	25.62
593.045	33.62
593.168	31.62
593.29	18.62
593.412	38.62
593.535	25.62
593.657	27.62
593.779	15.62
593.902	34.62
594.024	16.62
594.146	22.62
594.269	27.62
594.391	15.62
594.513	23.62
594.636	12.62
594.758	12.62
594.88	34.62
595.003	29.62
595.125	30.62
595.247	23.62
595.37	21.62
595.492	9.62
595.614	35.62
595.737	28.62
595.859	21.62
595.981	36.62
596.104	17.62
596.226	22.62
596.348	2.62
596.471	17.62
596.593	28.62
596.715	21.62
596.838	23.62
596.96	9.62
597.082	27.62
597.204	47.62
597.327	51.62
597.449	19.62
597.571	7.62
597.694	22.62
597.816	27.62
597.938	8.62
598.061	19.62
598.183	14.62
598.305	27.62
598.427	22.62
598.55	31.62
598.672	30.62
598.794	25.62
598.917	11.62
599.039	30.62
599.161	18.62
599.283	18.62
599.406	24.62
599.528	19.62
599.65	52.62
599.773	31.62
599.895	47.62
600.017	47.62
600.139	21.62
600.262	10.62
600.384	13.62
600.506	21.62
600.628	28.62
600.751	33.62
600.873	14.62
600.995	18.62
601.118	36.62
601.24	23.62
601.362	37.62
601.484	43.62
601.607	30.62
601.729	28.62
601.851	11.62
601.973	8.62
602.096	26.62
602.218	20.62
602.34	15.62
602.462	28.62
602.585	16.62
602.707	13.62
602.829	36.62
602.951	12.62
603.074	15.62
603.196	14.62
603.318	16.62
603.44	34.62
603.563	17.62
603.685	1.62
603.807	14.62
603.929	13.62
604.052	23.62
604.174	36.62
604.296	43.62
604.418	15.62
604.541	35.62
604.663	26.62
604.785	10.62
604.907	30.62
605.03	13.62
605.152	43.62
605.274	14.62
605.396	9.62
605.519	11.62
605.641	24.62
605.763	29.62
605.885	53.62
606.008	23.62
606.13	33.62
606.252	35.62
606.374	18.62
606.496	8.62
606.619	29.62
606.741	9.62
606.863	28.62
606.985	18.62
607.108	31.62
607.23	17.62
607.352	15.62
607.474	9.62
607.596	9.62
607.719	1.62
607.841	9.62
607.963	13.62
608.085	26.62
608.207	27.62
608.33	14.62
608.452	21.62
608.574	22.62
608.696	24.62
608.819	19.62
608.941	26.62
609.063	32.62
609.185	11.62
609.307	5.62
609.43	22.62
609.552	30.62
609.674	12.62
609.796	34.62
609.918	35.62
610.041	22.62
610.163	20.62
610.285	17.62
610.407	18.62
610.529	13.62
610.652	8.62
610.774	28.62
610.896	13.62
611.018	29.62
611.14	21.62
611.263	1.62
611.385	4.62
611.507	34.62
611.629	1.62
611.751	20.62
611.873	57.62
611.996	39.62
612.118	39.62
612.24	42.62
612.362	36.62
612.484	30.62
612.607	37.62
612.729	51.62
612.851	33.62
612.973	27.62
613.095	9.62
613.218	23.62
613.34	26.62
613.462	37.62
613.584	26.62
613.706	17.62
613.828	43.62
613.951	34.62
614.073	11.62
614.195	10.62
614.317	29.62
614.439	28.62
614.561	27.62
614.684	27.62
614.806	29.62
614.928	31.62
615.05	38.62
615.172	39.62
615.294	30.62
615.417	24.62
615.539	10.62
615.661	22.62
615.783	27.62
615.905	19.62
616.027	17.62
616.15	37.62
616.272	21.62
616.394	-1.38
616.516	18.62
616.638	25.62
616.76	33.62
616.883	21.62
617.005	20.62
617.127	23.62
617.249	8.62
617.371	7.62
617.493	11.62
617.615	18.62
617.738	36.62
617.86	20.62
617.982	10.62
618.104	28.62
618.226	32.62
618.348	2.62
618.471	24.62
618.593	26.62
618.715	15.62
618.837	23.62
618.959	21.62
619.081	17.62
619.203	23.62
619.326	27.62
619.448	28.62
619.57	30.62
619.692	18.62
619.814	46.62
619.936	11.62
620.058	19.62
620.181	5.62
620.303	18.62
620.425	27.62
620.547	2.62
620.669	8.62
620.791	18.62
620.913	31.62
621.036	21.62
621.158	13.62
621.28	18.62
621.402	-0.38
621.524	18.62
621.646	32.62
621.768	15.62
621.891	-1.38
622.013	3.62
622.135	18.62
622.257	5.62
622.379	-7.38
622.501	20.62
622.623	21.62
622.745	14.62
622.868	13.62
622.99	20.62
623.112	14.62
623.234	27.62
623.356	18.62
623.478	-4.38
623.6	21.62
623.722	2.62
623.845	14.62
623.967	7.62
624.089	28.62
624.211	21.62
624.333	19.62
624.455	17.62
624.577	21.62
624.699	45.62
624.822	29.62
624.944	3.62
625.066	27.62
625.188	2.62
625.31	33.62
625.432	38.62
625.554	29.62
625.676	43.62
625.799	17.62
625.921	9.62
626.043	17.62
626.165	23.62
626.287	5.62
626.409	26.62
626.531	11.62
626.653	33.62
626.775	23.62
626.898	31.62
627.02	43.62
627.142	41.62
627.264	32.62
627.386	20.62
627.508	22.62
627.63	9.62
627.752	30.62
627.874	21.62
627.997	29.62
628.119	29.62
628.241	6.62
628.363	32.62
628.485	19.62
628.607	14.62
628.729	11.62
628.851	6.62
628.973	6.62
629.096	-3.38
629.218	26.62
629.34	21.62
629.462	4.62
629.584	16.62
629.706	15.62
629.828	16.62
629.95	-1.38
630.072	-13.38
630.195	16.62
630.317	29.62
630.439	8.62
630.561	12.62
630.683	4.62
630.805	27.62
630.927	27.62
631.049	5.62
631.171	0.62
631.293	17.62
631.416	10.62
631.538	4.62
631.66	13.62
631.782	27.62
631.904	19.62
632.026	11.62
632.148	28.62
632.27	17.62
632.392	29.62
632.514	21.62
632.637	23.62
632.759	11.62
632.881	1.62
633.003	5.62
633.125	9.62
633.247	1.62
633.369	6.62
633.491	22.62
633.613	20.62
633.735	2.62
633.858	9.62
633.98	19.62
634.102	8.62
634.224	17.62
634.346	1.62
634.468	17.62
634.59	21.62
634.712	3.62
634.834	20.62
634.956	3.62
635.078	-9.38
635.201	4.62
635.323	14.62
635.445	11.62
635.567	2.62
635.689	28.62
635.811	18.62
635.933	10.62
636.055	15.62
636.177	11.62
636.299	28.62
636.421	10.62
636.544	2.62
636.666	18.62
636.788	18.62
636.91	17.62
637.032	1.62
637.154	29.62
637.276	43.62
637.398	33.62
637.52	24.62
637.642	16.62
637.764	35.62
637.887	-7.38
638.009	12.62
638.131	21.62
638.253	3.62
638.375	7.62
638.497	14.62
638.619	5.62
638.741	9.62
638.863	-4.38
638.985	-0.38
639.107	2.62
639.23	16.62
639.352	32.62
639.474	9.62
639.596	2.62
639.718	0.62
639.84	11.62
639.962	22.62
640.084	23.62
640.206	18.62
640.328	13.62
640.45	15.62
640.573	16.62
640.695	5.62
640.817	12.62
640.939	20.62
641.061	14.62
641.183	6.62
641.305	15.62
641.427	1.62
641.549	22.62
641.671	23.62
641.793	2.62
641.915	42.62
642.038	23.62
642.16	20.62
642.282	14.62
642.404	16.62
642.526	6.62
642.648	22.62
642.77	4.62
642.892	16.62
643.014	19.62
643.136	22.62
643.258	7.62
643.381	22.62
643.503	31.62
643.625	17.62
643.747	3.62
643.869	-3.38
643.991	1.62
644.113	23.62
644.235	-8.38
644.357	1.62
644.479	18.62
644.601	14.62
644.723	10.62
644.846	11.62
644.968	16.62
645.09	-0.38
645.212	-4.38
645.334	30.62
645.456	16.62
645.578	14.62
645.7	4.62
645.822	1.62
645.944	21.62
646.066	6.62
646.188	6.62
646.311	16.62
646.433	-8.38
646.555	29.62
646.677	19.62
646.799	22.62
646.921	12.62
647.043	39.62
647.165	8.62
647.287	13.62
647.409	18.62
647.531	18.62
647.654	-1.38
647.776	26.62
647.898	10.62
648.02	23.62
648.142	-0.38
648.264	10.62
648.386	5.62
648.508	-0.38
648.63	17.62
648.752	23.62
648.874	4.62
648.997	18.62
649.119	19.62
649.241	7.62
649.363	30.62
649.485	18.62
649.607	-13.38
649.729	2.62
649.851	8.62
649.973	0.62
650.095	11.62
650.217	3.62
650.34	15.62
650.462	11.62
650.584	2.62
650.706	5.62
650.828	8.62
650.95	3.62
651.072	10.62
651.194	-5.38
651.316	13.62
651.438	22.62
651.56	-12.38
651.683	-16.38
651.805	15.62
651.927	4.62
652.049	13.62
652.171	17.62
652.293	-4.38
652.415	-6.38
652.537	1.62
652.659	6.62
652.781	16.62
652.903	15.62
653.026	25.62
653.148	-1.38
653.27	12.62
653.392	33.62
653.514	9.62
653.636	9.62
653.758	1.62
653.88	-11.38
654.002	3.62
654.124	-0.38
654.247	2.62
654.369	20.62
654.491	5.62
654.613	6.62
654.735	11.62
654.857	21.62
654.979	9.62
655.101	16.62
655.223	33.62
655.345	26.62
655.468	8.62
655.59	2.62
655.712	12.62
655.834	6.62
655.956	34.62
656.078	3.62
656.2	10.62
656.322	0.62
656.444	-4.38
656.566	5.62
656.689	9.62
656.811	12.62
656.933	5.62
657.055	4.62
657.177	-7.38
657.299	12.62
657.421	-6.38
657.543	-3.38
657.665	6.62
657.787	17.62
657.91	15.62
658.032	-11.38
658.154	6.62
658.276	21.62
658.398	-8.38
658.52	3.62
658.642	27.62
658.764	10.62
658.886	-2.38
659.009	3.62
659.131	20.62
659.253	3.62
659.375	10.62
659.497	-6.38
659.619	9.62
659.741	13.62
659.863	7.62
659.985	6.62
660.108	15.62
660.23	-8.38
660.352	5.62
660.474	4.62
660.596	-0.38
660.718	5.62
660.84	19.62
660.962	18.62
661.084	6.62
661.207	3.62
661.329	15.62
661.451	-1.38
661.573	6.62
661.695	24.62
661.817	18.62
661.939	25.62
662.061	3.62
662.184	3.62
662.306	3.62
662.428	16.62
662.55	17.62
662.672	-2.38
662.794	2.62
662.916	-6.38
663.038	2.62
663.161	27.62
663.283	15.62
663.405	20.62
663.527	19.62
663.649	29.62
663.771	4.62
663.893	17.62
664.015	-2.38
664.138	-18.38
664.26	14.62
664.382	10.62
664.504	-0.38
664.626	-4.38
664.748	-2.38
664.87	4.62
664.992	12.62
665.115	17.62
665.237	5.62
665.359	-2.38
665.481	10.62
665.603	18.62
665.725	-5.38
665.847	-14.38
665.97	0.62
666.092	21.62
666.214	4.62
666.336	2.62
666.458	13.62
666.58	15.62
666.702	-4.38
666.825	-1.38
666.947	2.62
667.069	10.62
667.191	-8.38
667.313	17.62
667.435	-13.38
667.557	6.62
667.68	4.62
667.802	-7.38
667.924	15.62
668.046	15.62
668.168	0.62
668.29	28.62
668.412	18.62
668.535	5.62
668.657	15.62
668.779	20.62
668.901	2.62
669.023	3.62
669.145	1.62
669.267	10.62
669.39	10.62
669.512	9.62
669.634	10.62
669.756	-7.38
669.878	4.62
670	14.62
670.123	-4.38
670.245	42.62
670.367	13.62
670.489	23.62
670.611	-3.38
670.733	-4.38
670.856	-2.38
670.978	16.62
671.1	9.62
671.222	6.62
671.344	-5.38
671.466	-1.38
671.589	1.62
671.711	3.62
671.833	-5.38
671.955	11.62
672.077	-9.38
672.199	13.62
672.322	36.62
672.444	6.62
672.566	7.62
672.688	7.62
672.81	-2.38
672.932	9.62
673.055	5.62
673.177	-8.38
673.299	17.62
673.421	5.62
673.543	-2.38
673.665	13.62
673.788	15.62
673.91	-3.38
674.032	-12.38
674.154	3.62
674.276	37.62
674.399	9.62
674.521	6.62
674.643	-5.38
674.765	-10.38
674.887	8.62
675.009	-2.38
675.132	-4.38
675.254	11.62
675.376	4.62
675.498	0.62
675.62	27.62
675.743	10.62
675.865	14.62
675.987	3.62
676.109	17.62
676.231	17.62
676.354	18.62
676.476	7.62
676.598	16.62
676.72	12.62
676.842	14.62
676.965	-6.38
677.087	-7.38
677.209	17.62
677.331	18.62
677.453	11.62
677.576	-0.38
677.698	22.62
677.82	4.62
677.942	-4.38
678.064	11.62
678.187	6.62
678.309	22.62
678.431	12.62
678.553	4.62
678.675	22.62
678.798	9.62
678.92	17.62
679.042	-1.38
679.164	4.62
679.286	26.62
679.409	18.62
679.531	4.62
679.653	1.62
679.775	7.62
679.898	11.62
680.02	-2.38
680.142	-3.38
680.264	1.62
680.386	-3.38
680.509	13.62
680.631	14.62
680.753	-5.38
680.875	-20.38
680.998	-0.38
681.12	1.62
681.242	12.62
681.364	13.62
681.486	3.62
681.609	-0.38
681.731	-13.38
681.853	-8.38
681.975	-17.38
682.098	21.62
682.22	35.62
682.342	5.62
682.464	28.62
682.587	15.62
682.709	1.62
682.831	-5.38
682.953	13.62
683.076	-1.38
683.198	5.62
683.32	10.62
683.442	18.62
683.565	-9.38
683.687	9.62
683.809	1.62
683.931	-14.38
684.054	13.62
684.176	13.62
684.298	16.62
684.42	19.62
684.543	5.62
684.665	6.62
684.787	-1.38
684.909	-12.38
685.032	12.62
685.154	-13.38
685.276	-2.38
685.398	-4.38
685.521	-1.38
685.643	18.62
685.765	23.62
685.887	8.62
686.01	11.62
686.132	14.62
686.254	-11.38
686.377	11.62
686.499	20.62
686.621	39.62
686.743	17.62
686.866	-1.38
686.988	23.62
687.11	11.62
687.232	3.62
687.355	2.62
687.477	6.62
687.599	13.62
687.722	17.62
687.844	15.62
687.966	11.62
688.088	-6.38
688.211	26.62
688.333	8.62
688.455	1.62
688.578	10.62
688.7	6.62
688.822	-0.38
688.944	-11.38
689.067	29.62
689.189	4.62
689.311	-0.38
689.434	13.62
689.556	11.62
689.678	9.62
689.801	3.62
689.923	19.62
690.045	21.62
690.167	17.62
690.29	28.62
690.412	12.62
690.534	6.62
690.657	12.62
690.779	6.62
690.901	21.62
691.024	5.62
691.146	10.62
691.268	-1.38
691.391	14.62
691.513	11.62
691.635	25.62
691.758	24.62
691.88	14.62
692.002	-8.38
692.125	5.62
692.247	3.62
692.369	12.62
692.492	-2.38
692.614	6.62
692.736	8.62
692.859	-19.38
692.981	-5.38
693.103	18.62
693.226	8.62
693.348	23.62
693.47	8.62
693.593	22.62
693.715	34.62
693.837	27.62
693.96	17.62
694.082	7.62
694.204	17.62
694.327	8.62
694.449	-2.38
694.571	7.62
694.694	17.62
694.816	24.62
694.938	5.62
695.061	5.62
695.183	7.62
695.305	11.62
695.428	-1.38
695.55	-4.38
695.672	10.62
695.795	7.62
695.917	25.62
696.04	-4.38
696.162	-6.38
696.284	13.62
696.407	1.62
696.529	0.62
696.651	27.62
696.774	9.62
696.896	3.62
697.019	-2.38
697.141	6.62
697.263	22.62
697.386	5.62
697.508	13.62
697.63	19.62
697.753	20.62
697.875	13.62
697.998	23.62
698.12	21.62
698.242	11.62
698.365	12.62
698.487	3.62
698.61	11.62
698.732	19.62
698.854	27.62
698.977	15.62
699.099	4.62
699.221	17.62
699.344	13.62
699.466	18.62
699.589	-7.38
699.711	-4.38
699.834	1.62
699.956	5.62
700.078	17.62
700.201	5.62
700.323	34.62
700.446	17.62
700.568	-3.38
700.69	26.62
700.813	22.62
700.935	10.62
701.058	19.62
701.18	15.62
701.302	4.62
701.425	13.62
701.547	7.62
701.67	-5.38
701.792	17.62
701.915	-0.38
702.037	5.62
702.159	11.62
702.282	7.62
702.404	1.62
702.527	9.62
702.649	25.62
702.772	19.62
702.894	-1.38
703.017	25.62
703.139	27.62
703.261	20.62
703.384	9.62
703.506	3.62
703.629	20.62
703.751	5.62
703.874	5.62
703.996	3.62
704.119	-2.38
704.241	8.62
704.364	-10.38
704.486	10.62
704.608	26.62
704.731	9.62
704.853	14.62
704.976	9.62
705.098	16.62
705.221	12.62
705.343	-0.38
705.466	17.62
705.588	17.62
705.711	8.62
705.833	-2.38
705.956	7.62
706.078	17.62
706.201	13.62
706.323	-8.38
706.446	6.62
