Data from LowRes_mercury_15_20_11_07_2024_HR4C61881__83__15-23-40-570.txt Node

Date: Thu Nov 07 15:23:40 EST 2024
User: crc00042
Spectrometer: HR4C6188
Trigger mode: 4
Integration Time (sec): 1.000000E-1
Scans to average: 1
Electric dark correction enabled: true
Nonlinearity correction enabled: false
Boxcar width: 0
XAxis mode: Wavelengths
Number of Pixels in Spectrum: 3648
>>>>>Begin Spectral Data<<<<<
245.66	-64.85
245.797	-64.85
245.934	-64.85
246.071	-74.85
246.208	10.15
246.344	3.15
246.481	-18.85
246.618	-10.85
246.755	14.15
246.892	-7.85
247.029	-3.85
247.165	-6.85
247.302	20.15
247.439	-8.85
247.576	1.15
247.713	-10.85
247.849	23.15
247.986	6.15
248.123	-3.85
248.26	15.15
248.396	35.15
248.533	14.15
248.67	-1.85
248.806	-4.85
248.943	-6.85
249.08	3.15
249.216	-3.85
249.353	-22.85
249.49	1.15
249.626	4.15
249.763	9.15
249.9	-7.85
250.036	-0.85
250.173	-7.85
250.309	-6.85
250.446	-1.85
250.582	15.15
250.719	13.15
250.856	-8.85
250.992	-23.85
251.129	-7.85
251.265	-14.85
251.402	-1.85
251.538	-4.85
251.675	7.15
251.811	2.15
251.948	30.15
252.084	8.15
252.221	-9.85
252.357	6.15
252.493	33.15
252.63	-9.85
252.766	20.15
252.903	-19.85
253.039	7.15
253.175	-13.85
253.312	-10.85
253.448	3.15
253.585	-3.85
253.721	8.15
253.857	-0.85
253.994	18.15
254.13	1.15
254.266	-20.85
254.403	-4.85
254.539	3.15
254.675	7.15
254.811	8.15
254.948	10.15
255.084	-3.85
255.22	-8.85
255.356	0.15
255.493	3.15
255.629	11.15
255.765	14.15
255.901	27.15
256.037	1.15
256.174	14.15
256.31	-6.85
256.446	5.15
256.582	-8.85
256.718	11.15
256.854	14.15
256.991	-6.85
257.127	7.15
257.263	4.15
257.399	14.15
257.535	-4.85
257.671	8.15
257.807	2.15
257.943	-5.85
258.079	-9.85
258.215	-7.85
258.351	-0.85
258.487	-2.85
258.623	4.15
258.759	-13.85
258.895	8.15
259.031	14.15
259.167	-26.85
259.303	11.15
259.439	1.15
259.575	7.15
259.711	5.15
259.847	-12.85
259.983	1.15
260.119	-3.85
260.255	4.15
260.391	2.15
260.527	28.15
260.663	22.15
260.799	5.15
260.934	-5.85
261.07	-4.85
261.206	-18.85
261.342	-5.85
261.478	24.15
261.614	2.15
261.749	9.15
261.885	-10.85
262.021	5.15
262.157	25.15
262.293	17.15
262.428	-9.85
262.564	8.15
262.7	9.15
262.836	-6.85
262.971	-3.85
263.107	-4.85
263.243	9.15
263.378	0.15
263.514	-15.85
263.65	-0.85
263.785	-14.85
263.921	2.15
264.057	9.15
264.192	-0.85
264.328	11.15
264.464	-3.85
264.599	-0.85
264.735	30.15
264.871	-0.85
265.006	20.15
265.142	-1.85
265.277	5.15
265.413	10.15
265.548	18.15
265.684	22.15
265.819	0.15
265.955	-20.85
266.091	7.15
266.226	-4.85
266.362	1.15
266.497	4.15
266.633	2.15
266.768	-13.85
266.903	-3.85
267.039	-7.85
267.174	19.15
267.31	-11.85
267.445	-7.85
267.581	9.15
267.716	18.15
267.851	3.15
267.987	8.15
268.122	8.15
268.258	3.15
268.393	-1.85
268.528	13.15
268.664	-2.85
268.799	-10.85
268.934	-7.85
269.07	-9.85
269.205	13.15
269.34	19.15
269.476	6.15
269.611	-23.85
269.746	6.15
269.881	10.15
270.017	1.15
270.152	-3.85
270.287	10.15
270.422	28.15
270.558	9.15
270.693	7.15
270.828	9.15
270.963	-1.85
271.098	7.15
271.234	10.15
271.369	18.15
271.504	6.15
271.639	-14.85
271.774	-8.85
271.909	-24.85
272.045	-7.85
272.18	-18.85
272.315	-2.85
272.45	8.15
272.585	-0.85
272.72	-4.85
272.855	18.15
272.99	18.15
273.125	-10.85
273.26	-20.85
273.395	-16.85
273.53	-4.85
273.665	11.15
273.8	-16.85
273.935	8.15
274.07	6.15
274.205	20.15
274.34	-4.85
274.475	-22.85
274.61	-0.85
274.745	-7.85
274.88	16.15
275.015	-23.85
275.15	8.15
275.285	16.15
275.42	-27.85
275.555	18.15
275.69	5.15
275.825	-0.85
275.959	7.15
276.094	1.15
276.229	-9.85
276.364	-6.85
276.499	6.15
276.634	12.15
276.768	1.15
276.903	-5.85
277.038	25.15
277.173	11.15
277.308	-2.85
277.442	0.15
277.577	-6.85
277.712	-5.85
277.847	5.15
277.981	2.15
278.116	-15.85
278.251	5.15
278.386	-3.85
278.52	3.15
278.655	6.15
278.79	-5.85
278.924	-6.85
279.059	4.15
279.194	-8.85
279.328	12.15
279.463	22.15
279.598	32.15
279.732	2.15
279.867	3.15
280.001	9.15
280.136	7.15
280.271	7.15
280.405	9.15
280.54	15.15
280.674	-2.85
280.809	12.15
280.943	18.15
281.078	8.15
281.213	29.15
281.347	2.15
281.482	10.15
281.616	15.15
281.751	0.15
281.885	-21.85
282.02	-11.85
282.154	9.15
282.288	-3.85
282.423	-2.85
282.557	-2.85
282.692	6.15
282.826	12.15
282.961	27.15
283.095	14.15
283.229	7.15
283.364	-5.85
283.498	-10.85
283.633	0.15
283.767	-11.85
283.901	-11.85
284.036	3.15
284.17	-10.85
284.304	-11.85
284.439	13.15
284.573	9.15
284.707	26.15
284.842	-7.85
284.976	-6.85
285.11	-10.85
285.244	14.15
285.379	54.15
285.513	-9.85
285.647	3.15
285.781	-0.85
285.916	11.15
286.05	-3.85
286.184	25.15
286.318	4.15
286.453	-11.85
286.587	-20.85
286.721	-21.85
286.855	5.15
286.989	16.15
287.123	-9.85
287.258	-9.85
287.392	3.15
287.526	-2.85
287.66	-11.85
287.794	5.15
287.928	13.15
288.062	23.15
288.196	-4.85
288.33	7.15
288.464	2.15
288.598	13.15
288.733	11.15
288.867	14.15
289.001	12.15
289.135	10.15
289.269	-13.85
289.403	-5.85
289.537	1.15
289.671	7.15
289.805	-17.85
289.939	0.15
290.073	-5.85
290.207	17.15
290.34	-6.85
290.474	4.15
290.608	2.15
290.742	1.15
290.876	-14.85
291.01	-8.85
291.144	23.15
291.278	20.15
291.412	-2.85
291.546	12.15
291.679	-1.85
291.813	-3.85
291.947	-1.85
292.081	-1.85
292.215	15.15
292.349	30.15
292.482	33.15
292.616	5.15
292.75	-1.85
292.884	-3.85
293.018	-11.85
293.151	-16.85
293.285	3.15
293.419	-7.85
293.553	16.15
293.686	8.15
293.82	-15.85
293.954	10.15
294.088	22.15
294.221	0.15
294.355	0.15
294.489	-7.85
294.622	-19.85
294.756	-7.85
294.89	13.15
295.023	0.15
295.157	7.15
295.291	4.15
295.424	9.15
295.558	5.15
295.691	-0.85
295.825	8.15
295.959	11.15
296.092	8.15
296.226	18.15
296.359	7.15
296.493	6.15
296.627	-4.85
296.76	4.15
296.894	-5.85
297.027	14.15
297.161	-2.85
297.294	-9.85
297.428	-6.85
297.561	22.15
297.695	3.15
297.828	-8.85
297.962	-3.85
298.095	-3.85
298.229	9.15
298.362	-0.85
298.495	-5.85
298.629	7.15
298.762	24.15
298.896	12.15
299.029	-7.85
299.162	12.15
299.296	-3.85
299.429	-5.85
299.563	-5.85
299.696	16.15
299.829	23.15
299.963	7.15
300.096	27.15
300.229	-14.85
300.363	0.15
300.496	17.15
300.629	-9.85
300.763	-16.85
300.896	-7.85
301.029	21.15
301.162	12.15
301.296	-4.85
301.429	-6.85
301.562	-7.85
301.695	5.15
301.829	15.15
301.962	41.15
302.095	-2.85
302.228	-15.85
302.362	3.15
302.495	-6.85
302.628	10.15
302.761	-18.85
302.894	-13.85
303.027	27.15
303.161	8.15
303.294	13.15
303.427	14.15
303.56	6.15
303.693	-8.85
303.826	8.15
303.959	-11.85
304.092	-3.85
304.225	11.15
304.359	7.15
304.492	3.15
304.625	-15.85
304.758	6.15
304.891	-8.85
305.024	11.15
305.157	3.15
305.29	7.15
305.423	-13.85
305.556	6.15
305.689	13.15
305.822	2.15
305.955	4.15
306.088	-1.85
306.221	4.15
306.354	-9.85
306.487	-7.85
306.62	-27.85
306.752	-12.85
306.885	-4.85
307.018	1.15
307.151	-3.85
307.284	20.15
307.417	0.15
307.55	12.15
307.683	6.15
307.816	7.15
307.948	7.15
308.081	10.15
308.214	17.15
308.347	19.15
308.48	-2.85
308.613	-20.85
308.745	8.15
308.878	-28.85
309.011	-8.85
309.144	18.15
309.277	-1.85
309.409	1.15
309.542	2.15
309.675	14.15
309.808	7.15
309.94	13.15
310.073	4.15
310.206	-3.85
310.339	16.15
310.471	-13.85
310.604	7.15
310.737	7.15
310.869	11.15
311.002	-1.85
311.135	2.15
311.267	-9.85
311.4	-2.85
311.533	31.15
311.665	19.15
311.798	0.15
311.93	-18.85
312.063	18.15
312.196	55.15
312.328	84.15
312.461	56.15
312.593	41.15
312.726	58.15
312.859	95.15
312.991	183.15
313.124	41.15
313.256	9.15
313.389	19.15
313.521	3.15
313.654	11.15
313.786	5.15
313.919	-13.85
314.051	1.15
314.184	23.15
314.316	10.15
314.449	0.15
314.581	-12.85
314.714	-12.85
314.846	4.15
314.978	8.15
315.111	-6.85
315.243	9.15
315.376	2.15
315.508	5.15
315.641	-2.85
315.773	39.15
315.905	16.15
316.038	0.15
316.17	-6.85
316.302	11.15
316.435	7.15
316.567	0.15
316.699	10.15
316.832	-12.85
316.964	-13.85
317.096	-2.85
317.229	-3.85
317.361	-14.85
317.493	-14.85
317.625	-4.85
317.758	-3.85
317.89	10.15
318.022	-14.85
318.155	-9.85
318.287	2.15
318.419	3.15
318.551	-9.85
318.683	7.15
318.816	19.15
318.948	-8.85
319.08	-15.85
319.212	-3.85
319.344	4.15
319.477	4.15
319.609	1.15
319.741	-0.85
319.873	-1.85
320.005	7.15
320.137	16.15
320.269	17.15
320.401	5.15
320.534	-16.85
320.666	-27.85
320.798	-17.85
320.93	-4.85
321.062	7.15
321.194	2.15
321.326	1.15
321.458	14.15
321.59	4.15
321.722	-3.85
321.854	-0.85
321.986	-7.85
322.118	15.15
322.25	-13.85
322.382	7.15
322.514	-7.85
322.646	6.15
322.778	19.15
322.91	-13.85
323.042	-0.85
323.174	-7.85
323.306	-8.85
323.438	-18.85
323.57	12.15
323.702	9.15
323.834	6.15
323.966	-14.85
324.097	-10.85
324.229	22.15
324.361	7.15
324.493	-2.85
324.625	11.15
324.757	22.15
324.889	4.15
325.021	-5.85
325.152	24.15
325.284	29.15
325.416	8.15
325.548	18.15
325.68	-4.85
325.811	19.15
325.943	3.15
326.075	-9.85
326.207	17.15
326.339	4.15
326.47	6.15
326.602	2.15
326.734	24.15
326.866	25.15
326.997	-1.85
327.129	7.15
327.261	-17.85
327.392	7.15
327.524	15.15
327.656	9.15
327.787	19.15
327.919	4.15
328.051	6.15
328.182	24.15
328.314	25.15
328.446	2.15
328.577	30.15
328.709	14.15
328.841	-2.85
328.972	-27.85
329.104	6.15
329.235	8.15
329.367	-6.85
329.499	-6.85
329.63	-1.85
329.762	-5.85
329.893	16.15
330.025	15.15
330.156	-13.85
330.288	10.15
330.419	17.15
330.551	28.15
330.683	10.15
330.814	6.15
330.946	22.15
331.077	10.15
331.208	-9.85
331.34	0.15
331.471	0.15
331.603	1.15
331.734	-7.85
331.866	17.15
331.997	3.15
332.129	-2.85
332.26	1.15
332.392	9.15
332.523	-8.85
332.654	-7.85
332.786	14.15
332.917	11.15
333.048	28.15
333.18	29.15
333.311	-8.85
333.443	8.15
333.574	3.15
333.705	25.15
333.837	29.15
333.968	100.15
334.099	203.15
334.231	208.15
334.362	43.15
334.493	25.15
334.624	26.15
334.756	2.15
334.887	14.15
335.018	7.15
335.15	18.15
335.281	8.15
335.412	30.15
335.543	18.15
335.675	36.15
335.806	24.15
335.937	8.15
336.068	23.15
336.199	32.15
336.331	3.15
336.462	9.15
336.593	23.15
336.724	5.15
336.855	5.15
336.986	13.15
337.118	8.15
337.249	5.15
337.38	17.15
337.511	27.15
337.642	12.15
337.773	5.15
337.904	-7.85
338.035	12.15
338.166	-2.85
338.298	-8.85
338.429	-4.85
338.56	22.15
338.691	28.15
338.822	9.15
338.953	21.15
339.084	24.15
339.215	26.15
339.346	23.15
339.477	20.15
339.608	5.15
339.739	6.15
339.87	13.15
340.001	12.15
340.132	3.15
340.263	5.15
340.394	13.15
340.525	12.15
340.656	14.15
340.787	-9.85
340.918	28.15
341.049	-2.85
341.179	2.15
341.31	8.15
341.441	15.15
341.572	14.15
341.703	4.15
341.834	4.15
341.965	35.15
342.096	17.15
342.227	21.15
342.357	18.15
342.488	10.15
342.619	6.15
342.75	7.15
342.881	-5.85
343.012	6.15
343.142	34.15
343.273	5.15
343.404	16.15
343.535	44.15
343.666	32.15
343.796	22.15
343.927	30.15
344.058	31.15
344.189	33.15
344.319	46.15
344.45	11.15
344.581	19.15
344.712	3.15
344.842	15.15
344.973	8.15
345.104	26.15
345.234	23.15
345.365	13.15
345.496	19.15
345.626	22.15
345.757	33.15
345.888	16.15
346.018	27.15
346.149	16.15
346.28	40.15
346.41	-2.85
346.541	24.15
346.672	12.15
346.802	22.15
346.933	36.15
347.063	19.15
347.194	13.15
347.325	30.15
347.455	34.15
347.586	45.15
347.716	15.15
347.847	40.15
347.977	46.15
348.108	28.15
348.238	37.15
348.369	40.15
348.499	60.15
348.63	46.15
348.76	60.15
348.891	43.15
349.021	54.15
349.152	45.15
349.282	28.15
349.413	31.15
349.543	66.15
349.674	35.15
349.804	29.15
349.935	24.15
350.065	17.15
350.196	13.15
350.326	18.15
350.456	14.15
350.587	30.15
350.717	17.15
350.848	27.15
350.978	34.15
351.108	19.15
351.239	18.15
351.369	16.15
351.499	0.15
351.63	12.15
351.76	16.15
351.89	20.15
352.021	33.15
352.151	16.15
352.281	22.15
352.412	35.15
352.542	34.15
352.672	11.15
352.803	28.15
352.933	20.15
353.063	9.15
353.193	29.15
353.324	18.15
353.454	30.15
353.584	35.15
353.714	9.15
353.845	6.15
353.975	34.15
354.105	12.15
354.235	13.15
354.365	23.15
354.496	25.15
354.626	21.15
354.756	38.15
354.886	20.15
355.016	29.15
355.146	11.15
355.277	23.15
355.407	16.15
355.537	19.15
355.667	28.15
355.797	19.15
355.927	19.15
356.057	8.15
356.187	0.15
356.318	23.15
356.448	30.15
356.578	32.15
356.708	32.15
356.838	28.15
356.968	17.15
357.098	32.15
357.228	30.15
357.358	16.15
357.488	9.15
357.618	60.15
357.748	46.15
357.878	44.15
358.008	28.15
358.138	18.15
358.268	27.15
358.398	40.15
358.528	1.15
358.658	17.15
358.788	21.15
358.918	25.15
359.048	34.15
359.178	34.15
359.308	40.15
359.438	26.15
359.568	20.15
359.698	23.15
359.827	19.15
359.957	36.15
360.087	27.15
360.217	7.15
360.347	20.15
360.477	38.15
360.607	12.15
360.737	44.15
360.866	21.15
360.996	3.15
361.126	12.15
361.256	41.15
361.386	45.15
361.516	50.15
361.645	20.15
361.775	31.15
361.905	20.15
362.035	33.15
362.165	13.15
362.294	39.15
362.424	52.15
362.554	55.15
362.684	33.15
362.813	36.15
362.943	54.15
363.073	61.15
363.203	46.15
363.332	55.15
363.462	75.15
363.592	99.15
363.721	118.15
363.851	159.15
363.981	220.15
364.111	227.15
364.24	316.15
364.37	460.15
364.5	847.15
364.629	1792.15
364.759	3853.15
364.888	6275.15
365.018	9378.15
365.148	14791.15
365.277	12907.15
365.407	4752.15
365.537	3162.15
365.666	4021.15
365.796	1801.15
365.925	802.15
366.055	763.15
366.184	992.15
366.314	1353.15
366.444	2443.15
366.573	2105.15
366.703	648.15
366.832	199.15
366.962	108.15
367.091	83.15
367.221	74.15
367.35	44.15
367.48	82.15
367.609	41.15
367.739	56.15
367.868	38.15
367.998	36.15
368.127	60.15
368.257	60.15
368.386	48.15
368.516	60.15
368.645	44.15
368.775	42.15
368.904	46.15
369.033	23.15
369.163	20.15
369.292	53.15
369.422	58.15
369.551	49.15
369.68	33.15
369.81	41.15
369.939	37.15
370.069	46.15
370.198	39.15
370.327	29.15
370.457	37.15
370.586	38.15
370.715	12.15
370.845	18.15
370.974	43.15
371.103	50.15
371.233	44.15
371.362	42.15
371.491	32.15
371.621	41.15
371.75	45.15
371.879	40.15
372.008	48.15
372.138	48.15
372.267	52.15
372.396	39.15
372.525	28.15
372.655	28.15
372.784	19.15
372.913	40.15
373.042	49.15
373.172	53.15
373.301	12.15
373.43	15.15
373.559	9.15
373.688	23.15
373.818	38.15
373.947	33.15
374.076	13.15
374.205	24.15
374.334	22.15
374.463	14.15
374.593	13.15
374.722	21.15
374.851	22.15
374.98	12.15
375.109	19.15
375.238	32.15
375.367	28.15
375.496	0.15
375.625	5.15
375.755	25.15
375.884	44.15
376.013	36.15
376.142	16.15
376.271	19.15
376.4	15.15
376.529	21.15
376.658	31.15
376.787	34.15
376.916	14.15
377.045	4.15
377.174	26.15
377.303	21.15
377.432	36.15
377.561	26.15
377.69	18.15
377.819	31.15
377.948	15.15
378.077	-0.85
378.206	10.15
378.335	20.15
378.464	-1.85
378.593	19.15
378.722	18.15
378.851	22.15
378.98	30.15
379.108	9.15
379.237	13.15
379.366	19.15
379.495	23.15
379.624	28.15
379.753	20.15
379.882	19.15
380.011	-0.85
380.14	10.15
380.268	18.15
380.397	13.15
380.526	23.15
380.655	-8.85
380.784	-9.85
380.913	3.15
381.041	6.15
381.17	-9.85
381.299	6.15
381.428	25.15
381.557	23.15
381.685	11.15
381.814	23.15
381.943	24.15
382.072	10.15
382.2	2.15
382.329	3.15
382.458	19.15
382.587	38.15
382.715	35.15
382.844	15.15
382.973	35.15
383.102	4.15
383.23	-1.85
383.359	-11.85
383.488	2.15
383.616	15.15
383.745	-0.85
383.874	20.15
384.003	25.15
384.131	4.15
384.26	8.15
384.389	16.15
384.517	30.15
384.646	2.15
384.774	19.15
384.903	31.15
385.032	25.15
385.16	24.15
385.289	11.15
385.418	15.15
385.546	19.15
385.675	22.15
385.803	29.15
385.932	17.15
386.06	7.15
386.189	4.15
386.318	21.15
386.446	36.15
386.575	22.15
386.703	34.15
386.832	6.15
386.96	-0.85
387.089	21.15
387.217	24.15
387.346	32.15
387.474	22.15
387.603	21.15
387.731	14.15
387.86	30.15
387.988	27.15
388.117	25.15
388.245	23.15
388.374	0.15
388.502	19.15
388.631	5.15
388.759	21.15
388.888	25.15
389.016	4.15
389.144	25.15
389.273	22.15
389.401	7.15
389.53	-1.85
389.658	21.15
389.786	3.15
389.915	11.15
390.043	4.15
390.172	19.15
390.3	52.15
390.428	46.15
390.557	32.15
390.685	55.15
390.813	37.15
390.942	41.15
391.07	44.15
391.198	27.15
391.327	1.15
391.455	3.15
391.583	28.15
391.712	32.15
391.84	37.15
391.968	26.15
392.096	5.15
392.225	15.15
392.353	41.15
392.481	16.15
392.609	43.15
392.738	5.15
392.866	23.15
392.994	18.15
393.122	29.15
393.251	21.15
393.379	6.15
393.507	-5.85
393.635	12.15
393.764	16.15
393.892	25.15
394.02	9.15
394.148	19.15
394.276	26.15
394.404	38.15
394.533	20.15
394.661	22.15
394.789	36.15
394.917	48.15
395.045	14.15
395.173	6.15
395.302	17.15
395.43	12.15
395.558	52.15
395.686	39.15
395.814	22.15
395.942	24.15
396.07	36.15
396.198	38.15
396.326	43.15
396.454	30.15
396.582	11.15
396.711	12.15
396.839	26.15
396.967	32.15
397.095	16.15
397.223	27.15
397.351	51.15
397.479	31.15
397.607	43.15
397.735	37.15
397.863	53.15
397.991	50.15
398.119	10.15
398.247	64.15
398.375	58.15
398.503	48.15
398.631	64.15
398.759	62.15
398.887	51.15
399.015	35.15
399.143	49.15
399.271	56.15
399.399	85.15
399.526	61.15
399.654	78.15
399.782	48.15
399.91	93.15
400.038	103.15
400.166	73.15
400.294	80.15
400.422	90.15
400.55	88.15
400.678	92.15
400.805	95.15
400.933	112.15
401.061	128.15
401.189	109.15
401.317	134.15
401.445	92.15
401.573	70.15
401.7	46.15
401.828	50.15
401.956	48.15
402.084	53.15
402.212	41.15
402.34	33.15
402.467	38.15
402.595	30.15
402.723	44.15
402.851	57.15
402.978	33.15
403.106	68.15
403.234	94.15
403.362	126.15
403.489	116.15
403.617	137.15
403.745	206.15
403.873	280.15
404	568.15
404.128	1453.15
404.256	3925.15
404.384	5114.15
404.511	5448.15
404.639	7129.15
404.767	11422.15
404.894	14593.15
405.022	4916.15
405.15	1290.15
405.277	432.15
405.405	229.15
405.533	125.15
405.66	93.15
405.788	61.15
405.916	74.15
406.043	53.15
406.171	40.15
406.299	58.15
406.426	65.15
406.554	52.15
406.681	50.15
406.809	49.15
406.937	62.15
407.064	90.15
407.192	139.15
407.319	303.15
407.447	516.15
407.574	547.15
407.702	644.15
407.83	841.15
407.957	1596.15
408.085	929.15
408.212	260.15
408.34	102.15
408.467	60.15
408.595	66.15
408.722	62.15
408.85	39.15
408.977	27.15
409.105	38.15
409.232	30.15
409.36	12.15
409.487	28.15
409.615	27.15
409.742	29.15
409.87	21.15
409.997	47.15
410.125	33.15
410.252	48.15
410.379	33.15
410.507	42.15
410.634	26.15
410.762	26.15
410.889	32.15
411.017	30.15
411.144	38.15
411.271	9.15
411.399	25.15
411.526	33.15
411.653	26.15
411.781	40.15
411.908	42.15
412.036	8.15
412.163	30.15
412.29	29.15
412.418	22.15
412.545	47.15
412.672	38.15
412.8	60.15
412.927	32.15
413.054	47.15
413.182	28.15
413.309	10.15
413.436	20.15
413.564	51.15
413.691	15.15
413.818	37.15
413.945	12.15
414.073	11.15
414.2	48.15
414.327	27.15
414.454	32.15
414.582	13.15
414.709	10.15
414.836	22.15
414.963	25.15
415.091	24.15
415.218	35.15
415.345	35.15
415.472	27.15
415.6	33.15
415.727	43.15
415.854	26.15
415.981	16.15
416.108	33.15
416.236	17.15
416.363	46.15
416.49	27.15
416.617	18.15
416.744	14.15
416.871	23.15
416.998	34.15
417.126	41.15
417.253	14.15
417.38	15.15
417.507	36.15
417.634	29.15
417.761	24.15
417.888	39.15
418.015	25.15
418.143	29.15
418.27	44.15
418.397	28.15
418.524	30.15
418.651	20.15
418.778	33.15
418.905	67.15
419.032	40.15
419.159	55.15
419.286	57.15
419.413	53.15
419.54	41.15
419.667	24.15
419.794	25.15
419.921	21.15
420.048	45.15
420.175	41.15
420.302	57.15
420.429	53.15
420.556	50.15
420.683	60.15
420.81	58.15
420.937	52.15
421.064	59.15
421.191	56.15
421.318	70.15
421.445	76.15
421.572	48.15
421.699	53.15
421.826	36.15
421.953	33.15
422.08	10.15
422.207	7.15
422.334	6.15
422.461	27.15
422.588	5.15
422.714	29.15
422.841	47.15
422.968	37.15
423.095	28.15
423.222	0.15
423.349	15.15
423.476	19.15
423.603	14.15
423.729	3.15
423.856	25.15
423.983	17.15
424.11	-7.85
424.237	15.15
424.364	32.15
424.491	40.15
424.617	8.15
424.744	13.15
424.871	9.15
424.998	13.15
425.125	17.15
425.251	9.15
425.378	8.15
425.505	25.15
425.632	28.15
425.758	6.15
425.885	20.15
426.012	41.15
426.139	48.15
426.266	32.15
426.392	33.15
426.519	39.15
426.646	20.15
426.772	40.15
426.899	21.15
427.026	32.15
427.153	20.15
427.279	15.15
427.406	2.15
427.533	23.15
427.659	15.15
427.786	24.15
427.913	38.15
428.039	12.15
428.166	23.15
428.293	17.15
428.419	42.15
428.546	14.15
428.673	25.15
428.799	5.15
428.926	16.15
429.053	42.15
429.179	40.15
429.306	37.15
429.433	47.15
429.559	33.15
429.686	14.15
429.812	15.15
429.939	29.15
430.066	16.15
430.192	22.15
430.319	12.15
430.445	23.15
430.572	31.15
430.699	11.15
430.825	22.15
430.952	36.15
431.078	15.15
431.205	30.15
431.331	42.15
431.458	37.15
431.584	11.15
431.711	34.15
431.837	28.15
431.964	17.15
432.09	12.15
432.217	-15.85
432.343	27.15
432.47	36.15
432.596	27.15
432.723	7.15
432.849	17.15
432.976	44.15
433.102	35.15
433.229	23.15
433.355	44.15
433.482	87.15
433.608	109.15
433.735	101.15
433.861	124.15
433.987	180.15
434.114	197.15
434.24	175.15
434.367	205.15
434.493	198.15
434.62	286.15
434.746	371.15
434.872	629.15
434.999	822.15
435.125	1704.15
435.252	5445.15
435.378	13334.15
435.504	15175.15
435.631	15403.15
435.757	15681.15
435.883	15681.15
436.01	15681.15
436.136	15681.15
436.262	15681.15
436.389	3457.15
436.515	1879.15
436.641	741.15
436.768	621.15
436.894	377.15
437.02	386.15
437.147	278.15
437.273	285.15
437.399	220.15
437.526	250.15
437.652	180.15
437.778	202.15
437.904	141.15
438.031	151.15
438.157	121.15
438.283	128.15
438.409	112.15
438.536	110.15
438.662	92.15
438.788	111.15
438.914	99.15
439.041	122.15
439.167	114.15
439.293	93.15
439.419	88.15
439.546	77.15
439.672	59.15
439.798	83.15
439.924	79.15
440.05	80.15
440.177	89.15
440.303	66.15
440.429	66.15
440.555	74.15
440.681	54.15
440.807	77.15
440.934	66.15
441.06	70.15
441.186	45.15
441.312	42.15
441.438	57.15
441.564	59.15
441.69	60.15
441.816	62.15
441.943	60.15
442.069	57.15
442.195	65.15
442.321	49.15
442.447	32.15
442.573	47.15
442.699	40.15
442.825	33.15
442.951	42.15
443.077	53.15
443.203	40.15
443.33	33.15
443.456	51.15
443.582	63.15
443.708	32.15
443.834	61.15
443.96	56.15
444.086	24.15
444.212	52.15
444.338	58.15
444.464	34.15
444.59	44.15
444.716	40.15
444.842	49.15
444.968	31.15
445.094	43.15
445.22	51.15
445.346	40.15
445.472	31.15
445.598	38.15
445.724	46.15
445.85	39.15
445.976	31.15
446.102	32.15
446.228	38.15
446.354	46.15
446.48	31.15
446.605	31.15
446.731	38.15
446.857	24.15
446.983	25.15
447.109	28.15
447.235	36.15
447.361	21.15
447.487	33.15
447.613	34.15
447.739	28.15
447.865	6.15
447.99	12.15
448.116	19.15
448.242	38.15
448.368	34.15
448.494	46.15
448.62	54.15
448.746	35.15
448.872	44.15
448.997	13.15
449.123	23.15
449.249	39.15
449.375	28.15
449.501	20.15
449.627	19.15
449.752	35.15
449.878	15.15
450.004	27.15
450.13	31.15
450.256	35.15
450.381	22.15
450.507	22.15
450.633	26.15
450.759	49.15
450.884	4.15
451.01	33.15
451.136	34.15
451.262	34.15
451.388	31.15
451.513	27.15
451.639	41.15
451.765	34.15
451.89	34.15
452.016	36.15
452.142	23.15
452.268	31.15
452.393	31.15
452.519	12.15
452.645	11.15
452.771	34.15
452.896	28.15
453.022	10.15
453.148	32.15
453.273	30.15
453.399	20.15
453.525	34.15
453.65	30.15
453.776	18.15
453.902	30.15
454.027	51.15
454.153	36.15
454.279	32.15
454.404	22.15
454.53	41.15
454.656	54.15
454.781	43.15
454.907	25.15
455.032	30.15
455.158	51.15
455.284	32.15
455.409	30.15
455.535	36.15
455.66	31.15
455.786	26.15
455.912	27.15
456.037	9.15
456.163	21.15
456.288	18.15
456.414	4.15
456.539	4.15
456.665	34.15
456.791	13.15
456.916	40.15
457.042	39.15
457.167	10.15
457.293	28.15
457.418	20.15
457.544	22.15
457.669	18.15
457.795	29.15
457.92	27.15
458.046	24.15
458.171	47.15
458.297	18.15
458.422	14.15
458.548	14.15
458.673	33.15
458.799	36.15
458.924	-10.85
459.05	19.15
459.175	18.15
459.301	20.15
459.426	29.15
459.552	11.15
459.677	35.15
459.803	34.15
459.928	28.15
460.053	10.15
460.179	29.15
460.304	33.15
460.43	28.15
460.555	15.15
460.681	19.15
460.806	28.15
460.931	25.15
461.057	28.15
461.182	10.15
461.308	32.15
461.433	16.15
461.558	22.15
461.684	38.15
461.809	29.15
461.934	27.15
462.06	26.15
462.185	18.15
462.311	36.15
462.436	31.15
462.561	23.15
462.687	31.15
462.812	18.15
462.937	18.15
463.063	3.15
463.188	4.15
463.313	42.15
463.439	15.15
463.564	32.15
463.689	31.15
463.814	40.15
463.94	35.15
464.065	29.15
464.19	44.15
464.316	15.15
464.441	14.15
464.566	14.15
464.692	25.15
464.817	25.15
464.942	14.15
465.067	33.15
465.193	2.15
465.318	21.15
465.443	17.15
465.568	24.15
465.694	27.15
465.819	33.15
465.944	31.15
466.069	28.15
466.194	25.15
466.32	40.15
466.445	20.15
466.57	18.15
466.695	25.15
466.82	23.15
466.946	32.15
467.071	47.15
467.196	26.15
467.321	40.15
467.446	35.15
467.572	36.15
467.697	33.15
467.822	42.15
467.947	39.15
468.072	35.15
468.197	26.15
468.323	19.15
468.448	31.15
468.573	43.15
468.698	29.15
468.823	32.15
468.948	35.15
469.073	31.15
469.198	43.15
469.324	38.15
469.449	43.15
469.574	60.15
469.699	45.15
469.824	51.15
469.949	21.15
470.074	24.15
470.199	53.15
470.324	43.15
470.449	35.15
470.574	29.15
470.7	30.15
470.825	38.15
470.95	56.15
471.075	33.15
471.2	24.15
471.325	54.15
471.45	40.15
471.575	8.15
471.7	22.15
471.825	13.15
471.95	28.15
472.075	26.15
472.2	18.15
472.325	30.15
472.45	19.15
472.575	35.15
472.7	27.15
472.825	44.15
472.95	45.15
473.075	26.15
473.2	20.15
473.325	46.15
473.45	45.15
473.575	34.15
473.7	43.15
473.825	20.15
473.95	34.15
474.075	24.15
474.2	8.15
474.325	10.15
474.45	18.15
474.574	26.15
474.699	38.15
474.824	52.15
474.949	11.15
475.074	9.15
475.199	53.15
475.324	30.15
475.449	26.15
475.574	25.15
475.699	27.15
475.824	8.15
475.949	15.15
476.073	19.15
476.198	24.15
476.323	18.15
476.448	23.15
476.573	14.15
476.698	33.15
476.823	26.15
476.947	25.15
477.072	17.15
477.197	29.15
477.322	4.15
477.447	7.15
477.572	20.15
477.697	21.15
477.821	11.15
477.946	16.15
478.071	34.15
478.196	25.15
478.321	27.15
478.445	20.15
478.57	2.15
478.695	22.15
478.82	16.15
478.945	25.15
479.069	20.15
479.194	7.15
479.319	19.15
479.444	18.15
479.569	2.15
479.693	34.15
479.818	33.15
479.943	19.15
480.068	25.15
480.192	32.15
480.317	18.15
480.442	20.15
480.567	20.15
480.691	24.15
480.816	15.15
480.941	16.15
481.066	12.15
481.19	20.15
481.315	25.15
481.44	9.15
481.564	5.15
481.689	23.15
481.814	12.15
481.938	34.15
482.063	-11.85
482.188	10.15
482.313	26.15
482.437	16.15
482.562	10.15
482.687	13.15
482.811	12.15
482.936	24.15
483.061	16.15
483.185	19.15
483.31	32.15
483.435	25.15
483.559	12.15
483.684	17.15
483.808	43.15
483.933	44.15
484.058	24.15
484.182	30.15
484.307	25.15
484.432	12.15
484.556	6.15
484.681	30.15
484.805	16.15
484.93	10.15
485.055	38.15
485.179	43.15
485.304	43.15
485.428	30.15
485.553	19.15
485.678	39.15
485.802	20.15
485.927	55.15
486.051	39.15
486.176	27.15
486.3	10.15
486.425	25.15
486.549	20.15
486.674	29.15
486.799	8.15
486.923	24.15
487.048	21.15
487.172	14.15
487.297	8.15
487.421	23.15
487.546	11.15
487.67	20.15
487.795	8.15
487.919	32.15
488.044	28.15
488.168	27.15
488.293	23.15
488.417	3.15
488.542	25.15
488.666	37.15
488.791	35.15
488.915	26.15
489.04	23.15
489.164	19.15
489.289	27.15
489.413	26.15
489.538	26.15
489.662	23.15
489.786	12.15
489.911	28.15
490.035	15.15
490.16	15.15
490.284	11.15
490.409	-1.85
490.533	17.15
490.658	38.15
490.782	34.15
490.906	47.15
491.031	106.15
491.155	136.15
491.28	170.15
491.404	158.15
491.528	259.15
491.653	160.15
491.777	58.15
491.902	26.15
492.026	45.15
492.15	41.15
492.275	34.15
492.399	-0.85
492.524	6.15
492.648	13.15
492.772	20.15
492.897	36.15
493.021	22.15
493.145	31.15
493.27	25.15
493.394	17.15
493.518	15.15
493.643	3.15
493.767	37.15
493.891	9.15
494.016	8.15
494.14	15.15
494.264	20.15
494.389	26.15
494.513	0.15
494.637	4.15
494.762	18.15
494.886	20.15
495.01	13.15
495.134	15.15
495.259	41.15
495.383	24.15
495.507	23.15
495.632	29.15
495.756	53.15
495.88	36.15
496.004	24.15
496.129	23.15
496.253	28.15
496.377	30.15
496.501	37.15
496.626	11.15
496.75	28.15
496.874	20.15
496.998	19.15
497.123	48.15
497.247	18.15
497.371	23.15
497.495	12.15
497.62	16.15
497.744	12.15
497.868	15.15
497.992	10.15
498.116	21.15
498.241	39.15
498.365	40.15
498.489	10.15
498.613	23.15
498.737	5.15
498.862	11.15
498.986	6.15
499.11	25.15
499.234	12.15
499.358	11.15
499.482	15.15
499.607	30.15
499.731	23.15
499.855	35.15
499.979	24.15
500.103	28.15
500.227	33.15
500.351	13.15
500.476	22.15
500.6	27.15
500.724	21.15
500.848	13.15
500.972	28.15
501.096	29.15
501.22	50.15
501.344	28.15
501.469	21.15
501.593	18.15
501.717	37.15
501.841	11.15
501.965	14.15
502.089	2.15
502.213	18.15
502.337	14.15
502.461	20.15
502.585	5.15
502.709	24.15
502.834	26.15
502.958	12.15
503.082	10.15
503.206	28.15
503.33	47.15
503.454	30.15
503.578	24.15
503.702	46.15
503.826	19.15
503.95	36.15
504.074	31.15
504.198	3.15
504.322	13.15
504.446	12.15
504.57	35.15
504.694	20.15
504.818	28.15
504.942	23.15
505.066	15.15
505.19	29.15
505.314	31.15
505.438	27.15
505.562	23.15
505.686	44.15
505.81	10.15
505.934	16.15
506.058	13.15
506.182	36.15
506.306	26.15
506.43	19.15
506.554	16.15
506.678	8.15
506.802	23.15
506.926	22.15
507.05	43.15
507.174	38.15
507.298	22.15
507.422	25.15
507.546	24.15
507.67	29.15
507.794	2.15
507.918	-0.85
508.042	17.15
508.165	9.15
508.289	15.15
508.413	20.15
508.537	20.15
508.661	23.15
508.785	11.15
508.909	14.15
509.033	25.15
509.157	37.15
509.281	28.15
509.405	25.15
509.528	54.15
509.652	58.15
509.776	23.15
509.9	44.15
510.024	22.15
510.148	32.15
510.272	39.15
510.396	51.15
510.519	40.15
510.643	40.15
510.767	26.15
510.891	35.15
511.015	48.15
511.139	43.15
511.263	54.15
511.386	41.15
511.51	44.15
511.634	29.15
511.758	40.15
511.882	24.15
512.006	48.15
512.129	60.15
512.253	86.15
512.377	64.15
512.501	84.15
512.625	93.15
512.748	87.15
512.872	87.15
512.996	57.15
513.12	57.15
513.244	42.15
513.367	58.15
513.491	65.15
513.615	79.15
513.739	63.15
513.862	86.15
513.986	86.15
514.11	107.15
514.234	103.15
514.358	117.15
514.481	102.15
514.605	105.15
514.729	122.15
514.853	125.15
514.976	104.15
515.1	103.15
515.224	104.15
515.348	83.15
515.471	75.15
515.595	105.15
515.719	122.15
515.842	198.15
515.966	290.15
516.09	322.15
516.214	315.15
516.337	353.15
516.461	224.15
516.585	83.15
516.708	37.15
516.832	42.15
516.956	28.15
517.08	29.15
517.203	12.15
517.327	28.15
517.451	24.15
517.574	24.15
517.698	15.15
517.822	9.15
517.945	23.15
518.069	30.15
518.193	46.15
518.316	30.15
518.44	31.15
518.564	14.15
518.687	14.15
518.811	30.15
518.935	39.15
519.058	7.15
519.182	15.15
519.306	-8.85
519.429	8.15
519.553	39.15
519.676	32.15
519.8	10.15
519.924	7.15
520.047	17.15
520.171	33.15
520.294	20.15
520.418	27.15
520.542	28.15
520.665	31.15
520.789	8.15
520.913	-6.85
521.036	8.15
521.16	15.15
521.283	26.15
521.407	19.15
521.53	0.15
521.654	3.15
521.778	25.15
521.901	22.15
522.025	18.15
522.148	13.15
522.272	3.15
522.395	4.15
522.519	19.15
522.643	26.15
522.766	7.15
522.89	8.15
523.013	30.15
523.137	-11.85
523.26	2.15
523.384	21.15
523.507	6.15
523.631	28.15
523.754	11.15
523.878	27.15
524.002	16.15
524.125	12.15
524.249	3.15
524.372	14.15
524.496	0.15
524.619	30.15
524.743	15.15
524.866	25.15
524.99	19.15
525.113	-5.85
525.237	29.15
525.36	20.15
525.484	28.15
525.607	13.15
525.731	-7.85
525.854	26.15
525.978	42.15
526.101	11.15
526.224	19.15
526.348	5.15
526.471	20.15
526.595	17.15
526.718	14.15
526.842	19.15
526.965	29.15
527.089	26.15
527.212	16.15
527.336	12.15
527.459	21.15
527.582	20.15
527.706	26.15
527.829	13.15
527.953	16.15
528.076	6.15
528.2	5.15
528.323	18.15
528.446	26.15
528.57	7.15
528.693	22.15
528.817	0.15
528.94	31.15
529.064	43.15
529.187	19.15
529.31	11.15
529.434	14.15
529.557	9.15
529.68	12.15
529.804	15.15
529.927	22.15
530.051	23.15
530.174	0.15
530.297	25.15
530.421	24.15
530.544	27.15
530.668	14.15
530.791	-4.85
530.914	22.15
531.038	14.15
531.161	21.15
531.284	5.15
531.408	8.15
531.531	15.15
531.654	15.15
531.778	22.15
531.901	4.15
532.024	16.15
532.148	7.15
532.271	8.15
532.394	19.15
532.518	20.15
532.641	16.15
532.764	24.15
532.888	11.15
533.011	-2.85
533.134	-0.85
533.258	12.15
533.381	11.15
533.504	29.15
533.628	13.15
533.751	18.15
533.874	32.15
533.997	17.15
534.121	-9.85
534.244	10.15
534.367	13.15
534.491	30.15
534.614	9.15
534.737	27.15
534.86	4.15
534.984	18.15
535.107	15.15
535.23	11.15
535.354	22.15
535.477	-5.85
535.6	12.15
535.723	8.15
535.847	15.15
535.97	5.15
536.093	10.15
536.216	-1.85
536.34	8.15
536.463	7.15
536.586	16.15
536.709	33.15
536.833	20.15
536.956	5.15
537.079	6.15
537.202	17.15
537.325	1.15
537.449	10.15
537.572	25.15
537.695	8.15
537.818	1.15
537.941	13.15
538.065	11.15
538.188	8.15
538.311	32.15
538.434	35.15
538.558	22.15
538.681	15.15
538.804	30.15
538.927	22.15
539.05	24.15
539.173	9.15
539.297	13.15
539.42	14.15
539.543	27.15
539.666	36.15
539.789	34.15
539.913	10.15
540.036	30.15
540.159	39.15
540.282	7.15
540.405	22.15
540.528	20.15
540.651	28.15
540.775	12.15
540.898	24.15
541.021	19.15
541.144	24.15
541.267	36.15
541.39	26.15
541.513	33.15
541.637	28.15
541.76	21.15
541.883	34.15
542.006	16.15
542.129	42.15
542.252	24.15
542.375	34.15
542.498	43.15
542.622	39.15
542.745	44.15
542.868	27.15
542.991	42.15
543.114	61.15
543.237	40.15
543.36	60.15
543.483	50.15
543.606	77.15
543.73	75.15
543.853	79.15
543.976	78.15
544.099	108.15
544.222	125.15
544.345	116.15
544.468	179.15
544.591	226.15
544.714	277.15
544.837	365.15
544.96	452.15
545.083	643.15
545.206	1071.15
545.329	2424.15
545.453	10917.15
545.576	15251.15
545.699	15681.15
545.822	15681.15
545.945	15681.15
546.068	15681.15
546.191	15681.15
546.314	15681.15
546.437	15681.15
546.56	15681.15
546.683	15681.15
546.806	15681.15
546.929	15681.15
547.052	15681.15
547.175	15681.15
547.298	15681.15
547.421	15681.15
547.544	15681.15
547.667	3507.15
547.79	2293.15
547.913	1020.15
548.036	881.15
548.159	617.15
548.282	618.15
548.405	487.15
548.528	488.15
548.651	391.15
548.774	406.15
548.897	348.15
549.02	364.15
549.143	306.15
549.266	286.15
549.389	265.15
549.512	256.15
549.635	267.15
549.758	244.15
549.881	206.15
550.004	208.15
550.127	207.15
550.25	203.15
550.373	154.15
550.496	183.15
550.619	149.15
550.742	170.15
550.865	133.15
550.988	164.15
551.111	150.15
551.234	151.15
551.356	119.15
551.479	124.15
551.602	123.15
551.725	136.15
551.848	134.15
551.971	154.15
552.094	125.15
552.217	109.15
552.34	91.15
552.463	99.15
552.586	119.15
552.709	98.15
552.832	110.15
552.955	114.15
553.077	118.15
553.2	87.15
553.323	78.15
553.446	99.15
553.569	87.15
553.692	99.15
553.815	104.15
553.938	95.15
554.061	109.15
554.184	96.15
554.306	90.15
554.429	92.15
554.552	80.15
554.675	83.15
554.798	85.15
554.921	79.15
555.044	71.15
555.167	66.15
555.29	60.15
555.412	72.15
555.535	76.15
555.658	82.15
555.781	76.15
555.904	79.15
556.027	71.15
556.15	68.15
556.272	59.15
556.395	86.15
556.518	55.15
556.641	73.15
556.764	60.15
556.887	73.15
557.01	62.15
557.132	60.15
557.255	52.15
557.378	67.15
557.501	85.15
557.624	67.15
557.747	68.15
557.869	84.15
557.992	83.15
558.115	102.15
558.238	95.15
558.361	96.15
558.483	89.15
558.606	76.15
558.729	57.15
558.852	78.15
558.975	54.15
559.098	70.15
559.22	66.15
559.343	36.15
559.466	43.15
559.589	51.15
559.712	53.15
559.834	71.15
559.957	44.15
560.08	43.15
560.203	40.15
560.325	51.15
560.448	83.15
560.571	59.15
560.694	44.15
560.817	64.15
560.939	75.15
561.062	56.15
561.185	65.15
561.308	70.15
561.43	53.15
561.553	49.15
561.676	52.15
561.799	73.15
561.921	64.15
562.044	53.15
562.167	62.15
562.29	78.15
562.413	76.15
562.535	70.15
562.658	47.15
562.781	52.15
562.903	59.15
563.026	79.15
563.149	137.15
563.272	130.15
563.394	96.15
563.517	103.15
563.64	64.15
563.763	38.15
563.885	45.15
564.008	44.15
564.131	47.15
564.254	39.15
564.376	39.15
564.499	34.15
564.622	37.15
564.744	34.15
564.867	34.15
564.99	38.15
565.113	36.15
565.235	29.15
565.358	36.15
565.481	23.15
565.603	34.15
565.726	20.15
565.849	45.15
565.971	40.15
566.094	40.15
566.217	44.15
566.34	28.15
566.462	31.15
566.585	34.15
566.708	34.15
566.83	40.15
566.953	47.15
567.076	36.15
567.198	32.15
567.321	22.15
567.444	31.15
567.566	36.15
567.689	23.15
567.812	34.15
567.934	40.15
568.057	23.15
568.18	43.15
568.302	22.15
568.425	16.15
568.548	30.15
568.67	28.15
568.793	39.15
568.916	24.15
569.038	13.15
569.161	22.15
569.283	28.15
569.406	28.15
569.529	32.15
569.651	12.15
569.774	21.15
569.897	28.15
570.019	37.15
570.142	48.15
570.265	35.15
570.387	46.15
570.51	51.15
570.632	39.15
570.755	21.15
570.878	25.15
571	24.15
571.123	32.15
571.246	35.15
571.368	29.15
571.491	12.15
571.613	36.15
571.736	19.15
571.859	28.15
571.981	10.15
572.104	27.15
572.226	33.15
572.349	23.15
572.472	40.15
572.594	18.15
572.717	30.15
572.839	16.15
572.962	32.15
573.085	31.15
573.207	23.15
573.33	44.15
573.452	29.15
573.575	33.15
573.697	27.15
573.82	38.15
573.943	22.15
574.065	23.15
574.188	43.15
574.31	43.15
574.433	42.15
574.555	41.15
574.678	19.15
574.801	50.15
574.923	31.15
575.046	31.15
575.168	27.15
575.291	36.15
575.413	41.15
575.536	47.15
575.659	50.15
575.781	57.15
575.904	70.15
576.026	60.15
576.149	81.15
576.271	132.15
576.394	218.15
576.516	530.15
576.639	3636.15
576.761	10166.15
576.884	8813.15
577.007	8697.15
577.129	7918.15
577.252	3699.15
577.374	1294.15
577.497	500.15
577.619	291.15
577.742	167.15
577.864	155.15
577.987	150.15
578.109	141.15
578.232	149.15
578.354	166.15
578.477	182.15
578.599	395.15
578.722	1986.15
578.844	9113.15
578.967	9776.15
579.089	8772.15
579.212	9072.15
579.334	5247.15
579.457	1915.15
579.579	704.15
579.702	322.15
579.824	192.15
579.947	139.15
580.069	98.15
580.192	82.15
580.314	87.15
580.437	72.15
580.559	100.15
580.682	67.15
580.804	74.15
580.927	70.15
581.049	75.15
581.172	47.15
581.294	72.15
581.417	42.15
581.539	47.15
581.662	48.15
581.784	48.15
581.907	59.15
582.029	50.15
582.152	42.15
582.274	52.15
582.396	32.15
582.519	34.15
582.641	35.15
582.764	42.15
582.886	52.15
583.009	34.15
583.131	36.15
583.254	29.15
583.376	36.15
583.499	34.15
583.621	23.15
583.743	51.15
583.866	35.15
583.988	51.15
584.111	52.15
584.233	27.15
584.356	43.15
584.478	13.15
584.601	4.15
584.723	36.15
584.845	41.15
584.968	12.15
585.09	7.15
585.213	34.15
585.335	21.15
585.458	34.15
585.58	42.15
585.702	33.15
585.825	39.15
585.947	26.15
586.07	12.15
586.192	19.15
586.315	34.15
586.437	11.15
586.559	26.15
586.682	23.15
586.804	47.15
586.927	23.15
587.049	22.15
587.171	28.15
587.294	34.15
587.416	47.15
587.539	16.15
587.661	10.15
587.783	12.15
587.906	31.15
588.028	41.15
588.151	34.15
588.273	50.15
588.395	25.15
588.518	3.15
588.64	17.15
588.763	31.15
588.885	46.15
589.007	43.15
589.13	7.15
589.252	19.15
589.375	36.15
589.497	51.15
589.619	32.15
589.742	29.15
589.864	36.15
589.986	24.15
590.109	30.15
590.231	26.15
590.354	24.15
590.476	15.15
590.598	34.15
590.721	24.15
590.843	19.15
590.965	12.15
591.088	46.15
591.21	22.15
591.332	23.15
591.455	35.15
591.577	10.15
591.7	28.15
591.822	6.15
591.944	31.15
592.067	42.15
592.189	27.15
592.311	40.15
592.434	22.15
592.556	37.15
592.678	12.15
592.801	23.15
592.923	40.15
593.045	26.15
593.168	24.15
593.29	14.15
593.412	47.15
593.535	15.15
593.657	12.15
593.779	24.15
593.902	25.15
594.024	19.15
594.146	28.15
594.269	33.15
594.391	5.15
594.513	24.15
594.636	9.15
594.758	8.15
594.88	23.15
595.003	21.15
595.125	13.15
595.247	31.15
595.37	15.15
595.492	15.15
595.614	52.15
595.737	24.15
595.859	20.15
595.981	31.15
596.104	21.15
596.226	16.15
596.348	14.15
596.471	34.15
596.593	19.15
596.715	14.15
596.838	33.15
596.96	14.15
597.082	25.15
597.204	22.15
597.327	15.15
597.449	18.15
597.571	13.15
597.694	30.15
597.816	17.15
597.938	23.15
598.061	8.15
598.183	26.15
598.305	26.15
598.427	26.15
598.55	36.15
598.672	53.15
598.794	28.15
598.917	35.15
599.039	23.15
599.161	36.15
599.283	15.15
599.406	24.15
599.528	37.15
599.65	50.15
599.773	28.15
599.895	38.15
600.017	38.15
600.139	26.15
600.262	18.15
600.384	27.15
600.506	34.15
600.628	38.15
600.751	44.15
600.873	24.15
600.995	22.15
601.118	37.15
601.24	8.15
601.362	52.15
601.484	25.15
601.607	7.15
601.729	6.15
601.851	25.15
601.973	19.15
602.096	14.15
602.218	23.15
602.34	34.15
602.462	24.15
602.585	31.15
602.707	25.15
602.829	45.15
602.951	18.15
603.074	0.15
603.196	26.15
603.318	10.15
603.44	31.15
603.563	24.15
603.685	10.15
603.807	8.15
603.929	2.15
604.052	21.15
604.174	34.15
604.296	30.15
604.418	40.15
604.541	41.15
604.663	12.15
604.785	15.15
604.907	2.15
605.03	3.15
605.152	40.15
605.274	11.15
605.396	22.15
605.519	30.15
605.641	10.15
605.763	19.15
605.885	19.15
606.008	31.15
606.13	27.15
606.252	33.15
606.374	10.15
606.496	9.15
606.619	21.15
606.741	23.15
606.863	37.15
606.985	29.15
607.108	22.15
607.23	30.15
607.352	16.15
607.474	5.15
607.596	27.15
607.719	16.15
607.841	31.15
607.963	25.15
608.085	30.15
608.207	35.15
608.33	14.15
608.452	8.15
608.574	22.15
608.696	42.15
608.819	22.15
608.941	27.15
609.063	18.15
609.185	16.15
609.307	20.15
609.43	27.15
609.552	5.15
609.674	8.15
609.796	27.15
609.918	27.15
610.041	37.15
610.163	30.15
610.285	24.15
610.407	18.15
610.529	13.15
610.652	22.15
610.774	25.15
610.896	21.15
611.018	20.15
611.14	21.15
611.263	5.15
611.385	16.15
611.507	43.15
611.629	23.15
611.751	26.15
611.873	35.15
611.996	38.15
612.118	35.15
612.24	20.15
612.362	20.15
612.484	35.15
612.607	36.15
612.729	47.15
612.851	28.15
612.973	22.15
613.095	21.15
613.218	11.15
613.34	20.15
613.462	9.15
613.584	14.15
613.706	7.15
613.828	30.15
613.951	35.15
614.073	27.15
614.195	27.15
614.317	18.15
614.439	24.15
614.561	20.15
614.684	23.15
614.806	22.15
614.928	30.15
615.05	19.15
615.172	26.15
615.294	15.15
615.417	25.15
615.539	15.15
615.661	20.15
615.783	35.15
615.905	37.15
616.027	25.15
616.15	18.15
616.272	20.15
616.394	3.15
616.516	23.15
616.638	22.15
616.76	16.15
616.883	26.15
617.005	26.15
617.127	20.15
617.249	14.15
617.371	22.15
617.493	23.15
617.615	30.15
617.738	23.15
617.86	22.15
617.982	20.15
618.104	22.15
618.226	3.15
618.348	12.15
618.471	29.15
618.593	22.15
618.715	-1.85
618.837	25.15
618.959	22.15
619.081	38.15
619.203	18.15
619.326	28.15
619.448	14.15
619.57	25.15
619.692	27.15
619.814	42.15
619.936	32.15
620.058	14.15
620.181	12.15
620.303	19.15
620.425	24.15
620.547	5.15
620.669	4.15
620.791	19.15
620.913	26.15
621.036	21.15
621.158	15.15
621.28	7.15
621.402	5.15
621.524	21.15
621.646	27.15
621.768	14.15
621.891	9.15
622.013	19.15
622.135	7.15
622.257	6.15
622.379	11.15
622.501	23.15
622.623	0.15
622.745	14.15
622.868	14.15
622.99	13.15
623.112	27.15
623.234	18.15
623.356	14.15
623.478	-4.85
623.6	12.15
623.722	4.15
623.845	44.15
623.967	19.15
624.089	22.15
624.211	27.15
624.333	23.15
624.455	9.15
624.577	6.15
624.699	28.15
624.822	20.15
624.944	11.15
625.066	7.15
625.188	3.15
625.31	9.15
625.432	46.15
625.554	25.15
625.676	50.15
625.799	15.15
625.921	16.15
626.043	16.15
626.165	14.15
626.287	13.15
626.409	23.15
626.531	27.15
626.653	19.15
626.775	20.15
626.898	31.15
627.02	30.15
627.142	29.15
627.264	26.15
627.386	33.15
627.508	24.15
627.63	22.15
627.752	25.15
627.874	-2.85
627.997	29.15
628.119	24.15
628.241	25.15
628.363	28.15
628.485	27.15
628.607	17.15
628.729	25.15
628.851	22.15
628.973	26.15
629.096	10.15
629.218	12.15
629.34	26.15
629.462	-5.85
629.584	1.15
629.706	6.15
629.828	40.15
629.95	20.15
630.072	12.15
630.195	11.15
630.317	24.15
630.439	17.15
630.561	18.15
630.683	4.15
630.805	32.15
630.927	18.15
631.049	7.15
631.171	1.15
631.293	18.15
631.416	32.15
631.538	16.15
631.66	-1.85
631.782	8.15
631.904	17.15
632.026	23.15
632.148	7.15
632.27	27.15
632.392	12.15
632.514	27.15
632.637	18.15
632.759	16.15
632.881	8.15
633.003	-1.85
633.125	-4.85
633.247	20.15
633.369	4.15
633.491	15.15
633.613	8.15
633.735	22.15
633.858	26.15
633.98	23.15
634.102	9.15
634.224	6.15
634.346	28.15
634.468	2.15
634.59	18.15
634.712	5.15
634.834	11.15
634.956	-1.85
635.078	-15.85
635.201	-5.85
635.323	10.15
635.445	19.15
635.567	-9.85
635.689	21.15
635.811	-0.85
635.933	0.15
636.055	6.15
636.177	21.15
636.299	26.15
636.421	2.15
636.544	6.15
636.666	16.15
636.788	6.15
636.91	16.15
637.032	7.15
637.154	14.15
637.276	32.15
637.398	4.15
637.52	23.15
637.642	14.15
637.764	10.15
637.887	8.15
638.009	-2.85
638.131	7.15
638.253	2.15
638.375	16.15
638.497	25.15
638.619	15.15
638.741	26.15
638.863	-8.85
638.985	7.15
639.107	19.15
639.23	4.15
639.352	33.15
639.474	19.15
639.596	11.15
639.718	4.15
639.84	12.15
639.962	19.15
640.084	31.15
640.206	32.15
640.328	5.15
640.45	3.15
640.573	21.15
640.695	23.15
640.817	20.15
640.939	25.15
641.061	10.15
641.183	23.15
641.305	5.15
641.427	14.15
641.549	8.15
641.671	10.15
641.793	7.15
641.915	28.15
642.038	6.15
642.16	7.15
642.282	16.15
642.404	6.15
642.526	5.15
642.648	19.15
642.77	13.15
642.892	3.15
643.014	28.15
643.136	18.15
643.258	15.15
643.381	21.15
643.503	34.15
643.625	3.15
643.747	7.15
643.869	8.15
643.991	6.15
644.113	8.15
644.235	16.15
644.357	10.15
644.479	9.15
644.601	9.15
644.723	10.15
644.846	16.15
644.968	-0.85
645.09	16.15
645.212	6.15
645.334	34.15
645.456	14.15
645.578	25.15
645.7	17.15
645.822	26.15
645.944	17.15
646.066	2.15
646.188	14.15
646.311	34.15
646.433	4.15
646.555	35.15
646.677	23.15
646.799	14.15
646.921	13.15
647.043	41.15
647.165	-2.85
647.287	17.15
647.409	3.15
647.531	20.15
647.654	9.15
647.776	23.15
647.898	21.15
648.02	2.15
648.142	24.15
648.264	0.15
648.386	10.15
648.508	-11.85
648.63	18.15
648.752	14.15
648.874	6.15
648.997	25.15
649.119	2.15
649.241	26.15
649.363	31.15
649.485	13.15
649.607	6.15
649.729	16.15
649.851	9.15
649.973	19.15
650.095	7.15
650.217	-0.85
650.34	14.15
650.462	22.15
650.584	13.15
650.706	19.15
650.828	7.15
650.95	-1.85
651.072	15.15
651.194	3.15
651.316	20.15
651.438	16.15
651.56	-8.85
651.683	14.15
651.805	5.15
651.927	8.15
652.049	13.15
652.171	0.15
652.293	3.15
652.415	10.15
652.537	18.15
652.659	4.15
652.781	30.15
652.903	21.15
653.026	32.15
653.148	8.15
653.27	2.15
653.392	10.15
653.514	7.15
653.636	0.15
653.758	-2.85
653.88	-2.85
654.002	8.15
654.124	19.15
654.247	7.15
654.369	22.15
654.491	11.15
654.613	4.15
654.735	11.15
654.857	2.15
654.979	-17.85
655.101	3.15
655.223	23.15
655.345	14.15
655.468	22.15
655.59	17.15
655.712	13.15
655.834	10.15
655.956	16.15
656.078	10.15
656.2	1.15
656.322	16.15
656.444	5.15
656.566	8.15
656.689	-7.85
656.811	0.15
656.933	15.15
657.055	9.15
657.177	13.15
657.299	18.15
657.421	12.15
657.543	18.15
657.665	12.15
657.787	14.15
657.91	6.15
658.032	8.15
658.154	6.15
658.276	11.15
658.398	2.15
658.52	13.15
658.642	3.15
658.764	13.15
658.886	0.15
659.009	8.15
659.131	28.15
659.253	18.15
659.375	16.15
659.497	20.15
659.619	20.15
659.741	6.15
659.863	0.15
659.985	-3.85
660.108	27.15
660.23	18.15
660.352	2.15
660.474	8.15
660.596	14.15
660.718	14.15
660.84	20.15
660.962	8.15
661.084	2.15
661.207	5.15
661.329	7.15
661.451	-16.85
661.573	0.15
661.695	24.15
661.817	15.15
661.939	25.15
662.061	36.15
662.184	18.15
662.306	-5.85
662.428	14.15
662.55	16.15
662.672	16.15
662.794	7.15
662.916	0.15
663.038	8.15
663.161	17.15
663.283	20.15
663.405	13.15
663.527	6.15
663.649	13.15
663.771	8.15
663.893	3.15
664.015	17.15
664.138	8.15
664.26	4.15
664.382	19.15
664.504	-1.85
664.626	-0.85
664.748	15.15
664.87	-3.85
664.992	14.15
665.115	16.15
665.237	21.15
665.359	6.15
665.481	16.15
665.603	12.15
665.725	12.15
665.847	-14.85
665.97	20.15
666.092	15.15
666.214	20.15
666.336	7.15
666.458	25.15
666.58	3.15
666.702	3.15
666.825	8.15
666.947	-7.85
667.069	19.15
667.191	13.15
667.313	21.15
667.435	13.15
667.557	-1.85
667.68	-4.85
667.802	-12.85
667.924	6.15
668.046	9.15
668.168	19.15
668.29	31.15
668.412	-2.85
668.535	15.15
668.657	11.15
668.779	-7.85
668.901	16.15
669.023	22.15
669.145	16.15
669.267	22.15
669.39	13.15
669.512	12.15
669.634	2.15
669.756	-4.85
669.878	16.15
670	5.15
670.123	5.15
670.245	4.15
670.367	11.15
670.489	12.15
670.611	3.15
670.733	11.15
670.856	22.15
670.978	26.15
671.1	21.15
671.222	10.15
671.344	6.15
671.466	6.15
671.589	0.15
671.711	8.15
671.833	5.15
671.955	15.15
672.077	10.15
672.199	15.15
672.322	26.15
672.444	26.15
672.566	20.15
672.688	5.15
672.81	15.15
672.932	14.15
673.055	1.15
673.177	-7.85
673.299	15.15
673.421	-7.85
673.543	2.15
673.665	13.15
673.788	19.15
673.91	19.15
674.032	-7.85
674.154	30.15
674.276	15.15
674.399	6.15
674.521	18.15
674.643	17.15
674.765	13.15
674.887	14.15
675.009	23.15
675.132	23.15
675.254	5.15
675.376	5.15
675.498	16.15
675.62	25.15
675.743	27.15
675.865	5.15
675.987	-1.85
676.109	7.15
676.231	10.15
676.354	35.15
676.476	3.15
676.598	28.15
676.72	10.15
676.842	19.15
676.965	2.15
677.087	14.15
677.209	18.15
677.331	23.15
677.453	2.15
677.576	21.15
677.698	6.15
677.82	21.15
677.942	8.15
678.064	4.15
678.187	20.15
678.309	4.15
678.431	0.15
678.553	6.15
678.675	29.15
678.798	34.15
678.92	20.15
679.042	-1.85
679.164	-0.85
679.286	26.15
679.409	4.15
679.531	-4.85
679.653	7.15
679.775	3.15
679.898	-0.85
680.02	5.15
680.142	-8.85
680.264	18.15
680.386	12.15
680.509	16.15
680.631	25.15
680.753	18.15
680.875	4.15
680.998	6.15
681.12	-0.85
681.242	10.15
681.364	0.15
681.486	16.15
681.609	13.15
681.731	-3.85
681.853	6.15
681.975	13.15
682.098	16.15
682.22	28.15
682.342	12.15
682.464	15.15
682.587	26.15
682.709	-5.85
682.831	-3.85
682.953	-19.85
683.076	2.15
683.198	21.15
683.32	8.15
683.442	12.15
683.565	14.15
683.687	4.15
683.809	-1.85
683.931	-0.85
684.054	19.15
684.176	23.15
684.298	4.15
684.42	-2.85
684.543	-4.85
684.665	8.15
684.787	2.15
684.909	0.15
685.032	3.15
685.154	4.15
685.276	20.15
685.398	-0.85
685.521	-0.85
685.643	14.15
685.765	9.15
685.887	2.15
686.01	32.15
686.132	5.15
686.254	19.15
686.377	10.15
686.499	-2.85
686.621	12.15
686.743	21.15
686.866	15.15
686.988	25.15
687.11	24.15
687.232	18.15
687.355	0.15
687.477	30.15
687.599	18.15
687.722	7.15
687.844	14.15
687.966	7.15
688.088	16.15
688.211	22.15
688.333	16.15
688.455	16.15
688.578	12.15
688.7	19.15
688.822	26.15
688.944	-4.85
689.067	42.15
689.189	7.15
689.311	0.15
689.434	16.15
689.556	17.15
689.678	3.15
689.801	2.15
689.923	22.15
690.045	21.15
690.167	28.15
690.29	28.15
690.412	-6.85
690.534	10.15
690.657	12.15
690.779	-4.85
690.901	14.15
691.024	12.15
691.146	10.15
691.268	-2.85
691.391	8.15
691.513	19.15
691.635	14.15
691.758	10.15
691.88	14.15
692.002	-2.85
692.125	7.15
692.247	-3.85
692.369	12.15
692.492	-12.85
692.614	7.15
692.736	8.15
692.859	16.15
692.981	11.15
693.103	6.15
693.226	8.15
693.348	31.15
693.47	14.15
693.593	26.15
693.715	13.15
693.837	26.15
693.96	22.15
694.082	16.15
694.204	10.15
694.327	10.15
694.449	-3.85
694.571	12.15
694.694	12.15
694.816	11.15
694.938	-1.85
695.061	-1.85
695.183	17.15
695.305	19.15
695.428	10.15
695.55	-1.85
695.672	-1.85
695.795	7.15
695.917	33.15
696.04	14.15
696.162	2.15
696.284	4.15
696.407	12.15
696.529	-0.85
696.651	23.15
696.774	2.15
696.896	-2.85
697.019	5.15
697.141	14.15
697.263	-1.85
697.386	-2.85
697.508	-1.85
697.63	12.15
697.753	12.15
697.875	5.15
697.998	-12.85
698.12	-3.85
698.242	14.15
698.365	-1.85
698.487	18.15
698.61	26.15
698.732	10.15
698.854	13.15
698.977	4.15
699.099	29.15
699.221	-9.85
699.344	-18.85
699.466	18.15
699.589	15.15
699.711	1.15
699.834	3.15
699.956	16.15
700.078	10.15
700.201	0.15
700.323	24.15
700.446	2.15
700.568	-9.85
700.69	5.15
700.813	9.15
700.935	2.15
701.058	19.15
701.18	16.15
701.302	2.15
701.425	-2.85
701.547	11.15
701.67	-0.85
701.792	2.15
701.915	-1.85
702.037	3.15
702.159	24.15
702.282	26.15
702.404	6.15
702.527	15.15
702.649	21.15
702.772	10.15
702.894	6.15
703.017	18.15
703.139	11.15
703.261	25.15
703.384	4.15
703.506	5.15
703.629	23.15
703.751	20.15
703.874	10.15
703.996	-4.85
704.119	8.15
704.241	16.15
704.364	-6.85
704.486	5.15
704.608	23.15
704.731	24.15
704.853	6.15
704.976	-13.85
705.098	10.15
705.221	-3.85
705.343	-0.85
705.466	12.15
705.588	19.15
705.711	6.15
705.833	9.15
705.956	2.15
706.078	6.15
706.201	18.15
706.323	10.15
706.446	1.15
