Data from LowRes_mercury_15_20_11_07_2024_HR4C61881__30__15-23-35-271.txt Node

Date: Thu Nov 07 15:23:35 EST 2024
User: crc00042
Spectrometer: HR4C6188
Trigger mode: 4
Integration Time (sec): 1.000000E-1
Scans to average: 1
Electric dark correction enabled: true
Nonlinearity correction enabled: false
Boxcar width: 0
XAxis mode: Wavelengths
Number of Pixels in Spectrum: 3648
>>>>>Begin Spectral Data<<<<<
245.66	-63.85
245.797	-63.85
245.934	-63.85
246.071	-75.85
246.208	14.15
246.344	10.15
246.481	-16.85
246.618	-12.85
246.755	12.15
246.892	-14.85
247.029	-16.85
247.165	-16.85
247.302	20.15
247.439	8.15
247.576	3.15
247.713	-10.85
247.849	28.15
247.986	7.15
248.123	8.15
248.26	-10.85
248.396	-1.85
248.533	3.15
248.67	-1.85
248.806	6.15
248.943	-4.85
249.08	9.15
249.216	8.15
249.353	-21.85
249.49	-7.85
249.626	3.15
249.763	-11.85
249.9	-2.85
250.036	5.15
250.173	31.15
250.309	17.15
250.446	11.15
250.582	4.15
250.719	-8.85
250.856	-4.85
250.992	9.15
251.129	11.15
251.265	-1.85
251.402	-3.85
251.538	-6.85
251.675	4.15
251.811	22.15
251.948	29.15
252.084	-5.85
252.221	0.15
252.357	-6.85
252.493	28.15
252.63	-1.85
252.766	16.15
252.903	2.15
253.039	14.15
253.175	-7.85
253.312	11.15
253.448	-17.85
253.585	-29.85
253.721	6.15
253.857	3.15
253.994	1.15
254.13	20.15
254.266	18.15
254.403	20.15
254.539	10.15
254.675	21.15
254.811	22.15
254.948	7.15
255.084	-9.85
255.22	-6.85
255.356	-3.85
255.493	-5.85
255.629	-17.85
255.765	0.15
255.901	8.15
256.037	18.15
256.174	12.15
256.31	0.15
256.446	-7.85
256.582	-8.85
256.718	8.15
256.854	16.15
256.991	11.15
257.127	30.15
257.263	3.15
257.399	6.15
257.535	-4.85
257.671	8.15
257.807	-26.85
257.943	-13.85
258.079	-11.85
258.215	-1.85
258.351	17.15
258.487	-4.85
258.623	12.15
258.759	11.15
258.895	-0.85
259.031	-3.85
259.167	-12.85
259.303	18.15
259.439	-7.85
259.575	0.15
259.711	0.15
259.847	-3.85
259.983	10.15
260.119	14.15
260.255	-3.85
260.391	22.15
260.527	-3.85
260.663	21.15
260.799	19.15
260.934	8.15
261.07	11.15
261.206	-6.85
261.342	-16.85
261.478	16.15
261.614	19.15
261.749	8.15
261.885	18.15
262.021	10.15
262.157	39.15
262.293	6.15
262.428	-6.85
262.564	6.15
262.7	15.15
262.836	17.15
262.971	15.15
263.107	10.15
263.243	40.15
263.378	10.15
263.514	-8.85
263.65	0.15
263.785	-3.85
263.921	2.15
264.057	19.15
264.192	19.15
264.328	30.15
264.464	9.15
264.599	15.15
264.735	18.15
264.871	-6.85
265.006	27.15
265.142	1.15
265.277	-9.85
265.413	8.15
265.548	14.15
265.684	17.15
265.819	13.15
265.955	-15.85
266.091	-2.85
266.226	-23.85
266.362	-0.85
266.497	15.15
266.633	7.15
266.768	-5.85
266.903	7.15
267.039	27.15
267.174	31.15
267.31	7.15
267.445	-0.85
267.581	1.15
267.716	19.15
267.851	-2.85
267.987	22.15
268.122	12.15
268.258	-15.85
268.393	-15.85
268.528	12.15
268.664	-4.85
268.799	-21.85
268.934	-16.85
269.07	-12.85
269.205	3.15
269.34	39.15
269.476	6.15
269.611	-11.85
269.746	11.15
269.881	-8.85
270.017	25.15
270.152	17.15
270.287	2.15
270.422	29.15
270.558	2.15
270.693	20.15
270.828	-12.85
270.963	-15.85
271.098	-3.85
271.234	-8.85
271.369	4.15
271.504	4.15
271.639	-7.85
271.774	1.15
271.909	-3.85
272.045	13.15
272.18	-1.85
272.315	-3.85
272.45	9.15
272.585	-7.85
272.72	1.15
272.855	18.15
272.99	20.15
273.125	7.15
273.26	-12.85
273.395	-9.85
273.53	3.15
273.665	11.15
273.8	13.15
273.935	6.15
274.07	6.15
274.205	6.15
274.34	10.15
274.475	7.15
274.61	30.15
274.745	6.15
274.88	16.15
275.015	-5.85
275.15	9.15
275.285	19.15
275.42	8.15
275.555	36.15
275.69	14.15
275.825	3.15
275.959	1.15
276.094	3.15
276.229	8.15
276.364	4.15
276.499	11.15
276.634	0.15
276.768	3.15
276.903	16.15
277.038	14.15
277.173	11.15
277.308	-1.85
277.442	-2.85
277.577	4.15
277.712	12.15
277.847	5.15
277.981	-1.85
278.116	-16.85
278.251	6.15
278.386	-1.85
278.52	11.15
278.655	12.15
278.79	18.15
278.924	11.15
279.059	30.15
279.194	-5.85
279.328	31.15
279.463	34.15
279.598	21.15
279.732	23.15
279.867	14.15
280.001	1.15
280.136	14.15
280.271	22.15
280.405	22.15
280.54	5.15
280.674	0.15
280.809	14.15
280.943	23.15
281.078	3.15
281.213	27.15
281.347	14.15
281.482	23.15
281.616	4.15
281.751	-5.85
281.885	-16.85
282.02	-6.85
282.154	16.15
282.288	3.15
282.423	-21.85
282.557	0.15
282.692	17.15
282.826	10.15
282.961	26.15
283.095	9.15
283.229	12.15
283.364	-2.85
283.498	11.15
283.633	8.15
283.767	7.15
283.901	2.15
284.036	20.15
284.17	-2.85
284.304	1.15
284.439	10.15
284.573	7.15
284.707	3.15
284.842	0.15
284.976	-6.85
285.11	-1.85
285.244	-3.85
285.379	45.15
285.513	3.15
285.647	31.15
285.781	0.15
285.916	4.15
286.05	-4.85
286.184	20.15
286.318	13.15
286.453	-11.85
286.587	-13.85
286.721	9.15
286.855	2.15
286.989	21.15
287.123	-10.85
287.258	2.15
287.392	10.15
287.526	9.15
287.66	6.15
287.794	23.15
287.928	8.15
288.062	9.15
288.196	10.15
288.33	28.15
288.464	36.15
288.598	5.15
288.733	23.15
288.867	38.15
289.001	13.15
289.135	4.15
289.269	-5.85
289.403	8.15
289.537	3.15
289.671	23.15
289.805	-2.85
289.939	-6.85
290.073	0.15
290.207	31.15
290.34	9.15
290.474	31.15
290.608	10.15
290.742	-0.85
290.876	11.15
291.01	11.15
291.144	19.15
291.278	14.15
291.412	3.15
291.546	4.15
291.679	12.15
291.813	19.15
291.947	-7.85
292.081	0.15
292.215	10.15
292.349	1.15
292.482	4.15
292.616	-5.85
292.75	12.15
292.884	14.15
293.018	5.15
293.151	-8.85
293.285	10.15
293.419	12.15
293.553	-17.85
293.686	-18.85
293.82	4.15
293.954	25.15
294.088	34.15
294.221	12.15
294.355	14.15
294.489	5.15
294.622	5.15
294.756	1.15
294.89	12.15
295.023	16.15
295.157	3.15
295.291	7.15
295.424	21.15
295.558	1.15
295.691	7.15
295.825	-4.85
295.959	4.15
296.092	1.15
296.226	5.15
296.359	5.15
296.493	18.15
296.627	18.15
296.76	15.15
296.894	8.15
297.027	1.15
297.161	-7.85
297.294	-19.85
297.428	6.15
297.561	28.15
297.695	-5.85
297.828	-9.85
297.962	16.15
298.095	-3.85
298.229	-0.85
298.362	-2.85
298.495	1.15
298.629	-4.85
298.762	9.15
298.896	4.15
299.029	0.15
299.162	-0.85
299.296	-1.85
299.429	-3.85
299.563	1.15
299.696	7.15
299.829	22.15
299.963	26.15
300.096	15.15
300.229	11.15
300.363	7.15
300.496	4.15
300.629	-7.85
300.763	-3.85
300.896	0.15
301.029	26.15
301.162	18.15
301.296	-12.85
301.429	-2.85
301.562	-19.85
301.695	1.15
301.829	24.15
301.962	31.15
302.095	13.15
302.228	6.15
302.362	15.15
302.495	2.15
302.628	-0.85
302.761	5.15
302.894	10.15
303.027	26.15
303.161	-5.85
303.294	-24.85
303.427	28.15
303.56	25.15
303.693	11.15
303.826	-5.85
303.959	8.15
304.092	-1.85
304.225	9.15
304.359	12.15
304.492	17.15
304.625	-7.85
304.758	-2.85
304.891	-8.85
305.024	-7.85
305.157	8.15
305.29	10.15
305.423	10.15
305.556	12.15
305.689	13.15
305.822	7.15
305.955	-5.85
306.088	-3.85
306.221	-0.85
306.354	-9.85
306.487	-19.85
306.62	6.15
306.752	-1.85
306.885	7.15
307.018	-4.85
307.151	6.15
307.284	18.15
307.417	4.15
307.55	14.15
307.683	7.15
307.816	25.15
307.948	20.15
308.081	30.15
308.214	9.15
308.347	19.15
308.48	-3.85
308.613	2.15
308.745	15.15
308.878	12.15
309.011	-0.85
309.144	8.15
309.277	14.15
309.409	11.15
309.542	14.15
309.675	15.15
309.808	20.15
309.94	11.15
310.073	-1.85
310.206	7.15
310.339	3.15
310.471	-25.85
310.604	17.15
310.737	-0.85
310.869	-7.85
311.002	-4.85
311.135	9.15
311.267	4.15
311.4	-5.85
311.533	18.15
311.665	-0.85
311.798	-12.85
311.93	21.15
312.063	29.15
312.196	60.15
312.328	90.15
312.461	46.15
312.593	36.15
312.726	31.15
312.859	95.15
312.991	154.15
313.124	52.15
313.256	21.15
313.389	4.15
313.521	-2.85
313.654	11.15
313.786	-5.85
313.919	-0.85
314.051	10.15
314.184	15.15
314.316	17.15
314.449	-3.85
314.581	-5.85
314.714	-1.85
314.846	7.15
314.978	-4.85
315.111	9.15
315.243	18.15
315.376	0.15
315.508	1.15
315.641	-9.85
315.773	8.15
315.905	10.15
316.038	-3.85
316.17	-0.85
316.302	24.15
316.435	8.15
316.567	12.15
316.699	11.15
316.832	-8.85
316.964	-8.85
317.096	1.15
317.229	-3.85
317.361	-11.85
317.493	3.15
317.625	-4.85
317.758	13.15
317.89	17.15
318.022	27.15
318.155	-6.85
318.287	9.15
318.419	18.15
318.551	14.15
318.683	15.15
318.816	3.15
318.948	-2.85
319.08	5.15
319.212	12.15
319.344	9.15
319.477	4.15
319.609	-3.85
319.741	23.15
319.873	11.15
320.005	0.15
320.137	8.15
320.269	-0.85
320.401	-7.85
320.534	-7.85
320.666	-24.85
320.798	-19.85
320.93	7.15
321.062	5.15
321.194	-4.85
321.326	12.15
321.458	20.15
321.59	7.15
321.722	-4.85
321.854	0.15
321.986	17.15
322.118	27.15
322.25	-4.85
322.382	23.15
322.514	9.15
322.646	-0.85
322.778	29.15
322.91	-0.85
323.042	0.15
323.174	11.15
323.306	-9.85
323.438	-26.85
323.57	-4.85
323.702	5.15
323.834	12.15
323.966	4.15
324.097	13.15
324.229	-3.85
324.361	22.15
324.493	0.15
324.625	-3.85
324.757	22.15
324.889	14.15
325.021	12.15
325.152	27.15
325.284	22.15
325.416	2.15
325.548	22.15
325.68	-9.85
325.811	34.15
325.943	23.15
326.075	-17.85
326.207	4.15
326.339	10.15
326.47	7.15
326.602	21.15
326.734	23.15
326.866	15.15
326.997	-5.85
327.129	2.15
327.261	1.15
327.392	-9.85
327.524	7.15
327.656	-5.85
327.787	16.15
327.919	7.15
328.051	-6.85
328.182	15.15
328.314	13.15
328.446	18.15
328.577	44.15
328.709	16.15
328.841	-11.85
328.972	3.15
329.104	2.15
329.235	-0.85
329.367	-4.85
329.499	-18.85
329.63	2.15
329.762	12.15
329.893	29.15
330.025	-10.85
330.156	-10.85
330.288	22.15
330.419	30.15
330.551	18.15
330.683	7.15
330.814	-2.85
330.946	12.15
331.077	-5.85
331.208	-11.85
331.34	-9.85
331.471	-4.85
331.603	-4.85
331.734	-11.85
331.866	-11.85
331.997	-12.85
332.129	-9.85
332.26	10.15
332.392	10.15
332.523	13.15
332.654	-4.85
332.786	8.15
332.917	-3.85
333.048	19.15
333.18	22.15
333.311	-3.85
333.443	10.15
333.574	13.15
333.705	22.15
333.837	31.15
333.968	120.15
334.099	241.15
334.231	204.15
334.362	56.15
334.493	35.15
334.624	28.15
334.756	23.15
334.887	17.15
335.018	9.15
335.15	17.15
335.281	18.15
335.412	11.15
335.543	14.15
335.675	17.15
335.806	28.15
335.937	12.15
336.068	-0.85
336.199	44.15
336.331	9.15
336.462	11.15
336.593	24.15
336.724	-0.85
336.855	16.15
336.986	10.15
337.118	22.15
337.249	18.15
337.38	14.15
337.511	-6.85
337.642	14.15
337.773	10.15
337.904	19.15
338.035	10.15
338.166	-7.85
338.298	10.15
338.429	18.15
338.56	36.15
338.691	38.15
338.822	9.15
338.953	5.15
339.084	13.15
339.215	19.15
339.346	28.15
339.477	12.15
339.608	20.15
339.739	22.15
339.87	26.15
340.001	13.15
340.132	35.15
340.263	24.15
340.394	27.15
340.525	7.15
340.656	-11.85
340.787	-9.85
340.918	23.15
341.049	4.15
341.179	24.15
341.31	2.15
341.441	20.15
341.572	15.15
341.703	15.15
341.834	2.15
341.965	19.15
342.096	13.15
342.227	20.15
342.357	6.15
342.488	22.15
342.619	10.15
342.75	9.15
342.881	18.15
343.012	35.15
343.142	44.15
343.273	21.15
343.404	27.15
343.535	56.15
343.666	45.15
343.796	37.15
343.927	27.15
344.058	37.15
344.189	25.15
344.319	35.15
344.45	23.15
344.581	18.15
344.712	12.15
344.842	21.15
344.973	4.15
345.104	38.15
345.234	16.15
345.365	6.15
345.496	29.15
345.626	45.15
345.757	29.15
345.888	4.15
346.018	20.15
346.149	31.15
346.28	40.15
346.41	24.15
346.541	26.15
346.672	22.15
346.802	40.15
346.933	15.15
347.063	22.15
347.194	25.15
347.325	46.15
347.455	61.15
347.586	26.15
347.716	27.15
347.847	49.15
347.977	45.15
348.108	42.15
348.238	51.15
348.369	36.15
348.499	50.15
348.63	47.15
348.76	75.15
348.891	41.15
349.021	65.15
349.152	60.15
349.282	55.15
349.413	30.15
349.543	57.15
349.674	22.15
349.804	41.15
349.935	24.15
350.065	31.15
350.196	36.15
350.326	27.15
350.456	20.15
350.587	32.15
350.717	11.15
350.848	22.15
350.978	18.15
351.108	8.15
351.239	49.15
351.369	23.15
351.499	20.15
351.63	37.15
351.76	28.15
351.89	9.15
352.021	23.15
352.151	11.15
352.281	37.15
352.412	44.15
352.542	25.15
352.672	27.15
352.803	25.15
352.933	29.15
353.063	44.15
353.193	45.15
353.324	11.15
353.454	26.15
353.584	39.15
353.714	24.15
353.845	13.15
353.975	1.15
354.105	20.15
354.235	25.15
354.365	19.15
354.496	21.15
354.626	38.15
354.756	29.15
354.886	19.15
355.016	29.15
355.146	17.15
355.277	15.15
355.407	12.15
355.537	20.15
355.667	24.15
355.797	30.15
355.927	25.15
356.057	25.15
356.187	19.15
356.318	28.15
356.448	33.15
356.578	21.15
356.708	33.15
356.838	26.15
356.968	38.15
357.098	17.15
357.228	35.15
357.358	17.15
357.488	12.15
357.618	63.15
357.748	37.15
357.878	22.15
358.008	23.15
358.138	34.15
358.268	24.15
358.398	31.15
358.528	-4.85
358.658	19.15
358.788	30.15
358.918	40.15
359.048	29.15
359.178	38.15
359.308	39.15
359.438	51.15
359.568	41.15
359.698	40.15
359.827	28.15
359.957	33.15
360.087	37.15
360.217	20.15
360.347	45.15
360.477	34.15
360.607	11.15
360.737	39.15
360.866	25.15
360.996	20.15
361.126	17.15
361.256	42.15
361.386	30.15
361.516	29.15
361.645	22.15
361.775	43.15
361.905	41.15
362.035	57.15
362.165	40.15
362.294	47.15
362.424	47.15
362.554	55.15
362.684	44.15
362.813	36.15
362.943	53.15
363.073	36.15
363.203	50.15
363.332	73.15
363.462	80.15
363.592	100.15
363.721	129.15
363.851	171.15
363.981	233.15
364.111	241.15
364.24	320.15
364.37	500.15
364.5	865.15
364.629	1847.15
364.759	3864.15
364.888	6323.15
365.018	9488.15
365.148	14858.15
365.277	13053.15
365.407	4808.15
365.537	3124.15
365.666	4104.15
365.796	1836.15
365.925	799.15
366.055	759.15
366.184	1016.15
366.314	1425.15
366.444	2524.15
366.573	2142.15
366.703	671.15
366.832	216.15
366.962	117.15
367.091	101.15
367.221	71.15
367.35	65.15
367.48	90.15
367.609	49.15
367.739	60.15
367.868	44.15
367.998	52.15
368.127	57.15
368.257	80.15
368.386	60.15
368.516	75.15
368.645	41.15
368.775	39.15
368.904	43.15
369.033	47.15
369.163	28.15
369.292	55.15
369.422	45.15
369.551	53.15
369.68	50.15
369.81	54.15
369.939	18.15
370.069	48.15
370.198	49.15
370.327	31.15
370.457	50.15
370.586	44.15
370.715	28.15
370.845	35.15
370.974	32.15
371.103	66.15
371.233	54.15
371.362	53.15
371.491	29.15
371.621	49.15
371.75	43.15
371.879	18.15
372.008	48.15
372.138	46.15
372.267	66.15
372.396	46.15
372.525	60.15
372.655	27.15
372.784	20.15
372.913	27.15
373.042	36.15
373.172	22.15
373.301	-3.85
373.43	19.15
373.559	32.15
373.688	34.15
373.818	33.15
373.947	19.15
374.076	20.15
374.205	32.15
374.334	26.15
374.463	22.15
374.593	20.15
374.722	37.15
374.851	25.15
374.98	13.15
375.109	19.15
375.238	36.15
375.367	48.15
375.496	9.15
375.625	26.15
375.755	21.15
375.884	39.15
376.013	24.15
376.142	10.15
376.271	4.15
376.4	18.15
376.529	34.15
376.658	19.15
376.787	40.15
376.916	23.15
377.045	12.15
377.174	6.15
377.303	19.15
377.432	33.15
377.561	24.15
377.69	28.15
377.819	38.15
377.948	11.15
378.077	20.15
378.206	-9.85
378.335	8.15
378.464	1.15
378.593	40.15
378.722	27.15
378.851	21.15
378.98	33.15
379.108	12.15
379.237	4.15
379.366	29.15
379.495	27.15
379.624	14.15
379.753	21.15
379.882	27.15
380.011	12.15
380.14	-3.85
380.268	9.15
380.397	8.15
380.526	39.15
380.655	2.15
380.784	-1.85
380.913	16.15
381.041	11.15
381.17	10.15
381.299	35.15
381.428	40.15
381.557	22.15
381.685	24.15
381.814	39.15
381.943	15.15
382.072	-7.85
382.2	18.15
382.329	29.15
382.458	26.15
382.587	28.15
382.715	42.15
382.844	21.15
382.973	3.15
383.102	13.15
383.23	18.15
383.359	1.15
383.488	29.15
383.616	10.15
383.745	-3.85
383.874	14.15
384.003	24.15
384.131	23.15
384.26	17.15
384.389	32.15
384.517	15.15
384.646	14.15
384.774	12.15
384.903	24.15
385.032	26.15
385.16	12.15
385.289	13.15
385.418	22.15
385.546	26.15
385.675	26.15
385.803	34.15
385.932	27.15
386.06	17.15
386.189	33.15
386.318	25.15
386.446	30.15
386.575	36.15
386.703	23.15
386.832	15.15
386.96	14.15
387.089	34.15
387.217	42.15
387.346	15.15
387.474	12.15
387.603	0.15
387.731	22.15
387.86	23.15
387.988	30.15
388.117	32.15
388.245	22.15
388.374	3.15
388.502	40.15
388.631	19.15
388.759	16.15
388.888	27.15
389.016	23.15
389.144	22.15
389.273	26.15
389.401	11.15
389.53	15.15
389.658	32.15
389.786	12.15
389.915	14.15
390.043	22.15
390.172	16.15
390.3	53.15
390.428	63.15
390.557	21.15
390.685	45.15
390.813	56.15
390.942	36.15
391.07	28.15
391.198	13.15
391.327	9.15
391.455	-4.85
391.583	40.15
391.712	36.15
391.84	26.15
391.968	17.15
392.096	6.15
392.225	6.15
392.353	31.15
392.481	28.15
392.609	49.15
392.738	32.15
392.866	24.15
392.994	10.15
393.122	61.15
393.251	6.15
393.379	8.15
393.507	4.15
393.635	10.15
393.764	23.15
393.892	24.15
394.02	14.15
394.148	12.15
394.276	37.15
394.404	40.15
394.533	35.15
394.661	34.15
394.789	50.15
394.917	36.15
395.045	30.15
395.173	19.15
395.302	46.15
395.43	32.15
395.558	43.15
395.686	33.15
395.814	35.15
395.942	14.15
396.07	29.15
396.198	44.15
396.326	42.15
396.454	40.15
396.582	44.15
396.711	33.15
396.839	44.15
396.967	44.15
397.095	27.15
397.223	28.15
397.351	39.15
397.479	44.15
397.607	42.15
397.735	61.15
397.863	55.15
397.991	43.15
398.119	41.15
398.247	39.15
398.375	41.15
398.503	51.15
398.631	54.15
398.759	82.15
398.887	65.15
399.015	44.15
399.143	59.15
399.271	56.15
399.399	59.15
399.526	65.15
399.654	89.15
399.782	61.15
399.91	81.15
400.038	91.15
400.166	92.15
400.294	98.15
400.422	74.15
400.55	116.15
400.678	104.15
400.805	114.15
400.933	147.15
401.061	129.15
401.189	102.15
401.317	142.15
401.445	111.15
401.573	86.15
401.7	50.15
401.828	47.15
401.956	68.15
402.084	53.15
402.212	60.15
402.34	32.15
402.467	52.15
402.595	44.15
402.723	46.15
402.851	72.15
402.978	31.15
403.106	81.15
403.234	85.15
403.362	124.15
403.489	109.15
403.617	151.15
403.745	192.15
403.873	270.15
404	560.15
404.128	1493.15
404.256	3967.15
404.384	5152.15
404.511	5512.15
404.639	7284.15
404.767	11571.15
404.894	14691.15
405.022	4961.15
405.15	1337.15
405.277	428.15
405.405	236.15
405.533	143.15
405.66	116.15
405.788	77.15
405.916	73.15
406.043	40.15
406.171	47.15
406.299	64.15
406.426	71.15
406.554	58.15
406.681	61.15
406.809	40.15
406.937	58.15
407.064	51.15
407.192	134.15
407.319	323.15
407.447	510.15
407.574	534.15
407.702	627.15
407.83	870.15
407.957	1615.15
408.085	957.15
408.212	278.15
408.34	101.15
408.467	53.15
408.595	56.15
408.722	76.15
408.85	67.15
408.977	41.15
409.105	26.15
409.232	37.15
409.36	43.15
409.487	47.15
409.615	21.15
409.742	41.15
409.87	20.15
409.997	47.15
410.125	41.15
410.252	39.15
410.379	22.15
410.507	41.15
410.634	34.15
410.762	35.15
410.889	49.15
411.017	51.15
411.144	23.15
411.271	21.15
411.399	34.15
411.526	23.15
411.653	40.15
411.781	42.15
411.908	41.15
412.036	18.15
412.163	21.15
412.29	56.15
412.418	24.15
412.545	36.15
412.672	26.15
412.8	46.15
412.927	51.15
413.054	34.15
413.182	15.15
413.309	28.15
413.436	1.15
413.564	56.15
413.691	42.15
413.818	49.15
413.945	10.15
414.073	23.15
414.2	16.15
414.327	26.15
414.454	29.15
414.582	36.15
414.709	16.15
414.836	39.15
414.963	50.15
415.091	35.15
415.218	38.15
415.345	36.15
415.472	22.15
415.6	21.15
415.727	48.15
415.854	31.15
415.981	25.15
416.108	27.15
416.236	24.15
416.363	44.15
416.49	24.15
416.617	26.15
416.744	47.15
416.871	56.15
416.998	28.15
417.126	29.15
417.253	34.15
417.38	33.15
417.507	20.15
417.634	52.15
417.761	45.15
417.888	47.15
418.015	37.15
418.143	40.15
418.27	46.15
418.397	20.15
418.524	22.15
418.651	31.15
418.778	62.15
418.905	72.15
419.032	40.15
419.159	34.15
419.286	81.15
419.413	55.15
419.54	35.15
419.667	30.15
419.794	27.15
419.921	39.15
420.048	55.15
420.175	46.15
420.302	46.15
420.429	71.15
420.556	49.15
420.683	34.15
420.81	37.15
420.937	66.15
421.064	79.15
421.191	59.15
421.318	76.15
421.445	87.15
421.572	71.15
421.699	51.15
421.826	46.15
421.953	50.15
422.08	40.15
422.207	4.15
422.334	12.15
422.461	33.15
422.588	26.15
422.714	35.15
422.841	36.15
422.968	38.15
423.095	16.15
423.222	23.15
423.349	26.15
423.476	19.15
423.603	8.15
423.729	5.15
423.856	22.15
423.983	40.15
424.11	11.15
424.237	28.15
424.364	25.15
424.491	23.15
424.617	14.15
424.744	21.15
424.871	16.15
424.998	26.15
425.125	22.15
425.251	18.15
425.378	22.15
425.505	32.15
425.632	28.15
425.758	4.15
425.885	29.15
426.012	37.15
426.139	46.15
426.266	18.15
426.392	24.15
426.519	34.15
426.646	29.15
426.772	40.15
426.899	32.15
427.026	15.15
427.153	20.15
427.279	22.15
427.406	22.15
427.533	24.15
427.659	36.15
427.786	23.15
427.913	41.15
428.039	28.15
428.166	40.15
428.293	27.15
428.419	44.15
428.546	11.15
428.673	5.15
428.799	14.15
428.926	11.15
429.053	50.15
429.179	31.15
429.306	35.15
429.433	27.15
429.559	27.15
429.686	18.15
429.812	28.15
429.939	18.15
430.066	27.15
430.192	17.15
430.319	42.15
430.445	18.15
430.572	39.15
430.699	18.15
430.825	16.15
430.952	17.15
431.078	39.15
431.205	34.15
431.331	38.15
431.458	34.15
431.584	44.15
431.711	18.15
431.837	23.15
431.964	40.15
432.09	32.15
432.217	17.15
432.343	19.15
432.47	31.15
432.596	29.15
432.723	7.15
432.849	42.15
432.976	40.15
433.102	14.15
433.229	42.15
433.355	65.15
433.482	84.15
433.608	104.15
433.735	100.15
433.861	97.15
433.987	169.15
434.114	206.15
434.24	167.15
434.367	211.15
434.493	212.15
434.62	269.15
434.746	363.15
434.872	637.15
434.999	840.15
435.125	1735.15
435.252	5614.15
435.378	13467.15
435.504	15260.15
435.631	15457.15
435.757	15685.15
435.883	15685.15
436.01	15685.15
436.136	15685.15
436.262	15685.15
436.389	3502.15
436.515	2489.15
436.641	876.15
436.768	664.15
436.894	406.15
437.02	392.15
437.147	311.15
437.273	303.15
437.399	230.15
437.526	246.15
437.652	184.15
437.778	191.15
437.904	171.15
438.031	178.15
438.157	135.15
438.283	161.15
438.409	121.15
438.536	116.15
438.662	122.15
438.788	116.15
438.914	118.15
439.041	135.15
439.167	131.15
439.293	102.15
439.419	94.15
439.546	114.15
439.672	96.15
439.798	102.15
439.924	89.15
440.05	94.15
440.177	71.15
440.303	71.15
440.429	36.15
440.555	90.15
440.681	74.15
440.807	76.15
440.934	58.15
441.06	71.15
441.186	74.15
441.312	49.15
441.438	69.15
441.564	54.15
441.69	61.15
441.816	75.15
441.943	63.15
442.069	71.15
442.195	73.15
442.321	62.15
442.447	54.15
442.573	58.15
442.699	40.15
442.825	29.15
442.951	51.15
443.077	56.15
443.203	62.15
443.33	46.15
443.456	45.15
443.582	52.15
443.708	44.15
443.834	55.15
443.96	60.15
444.086	42.15
444.212	38.15
444.338	51.15
444.464	55.15
444.59	48.15
444.716	38.15
444.842	51.15
444.968	41.15
445.094	45.15
445.22	8.15
445.346	22.15
445.472	36.15
445.598	50.15
445.724	43.15
445.85	47.15
445.976	47.15
446.102	52.15
446.228	41.15
446.354	49.15
446.48	42.15
446.605	39.15
446.731	40.15
446.857	32.15
446.983	39.15
447.109	38.15
447.235	31.15
447.361	10.15
447.487	46.15
447.613	55.15
447.739	26.15
447.865	33.15
447.99	36.15
448.116	45.15
448.242	43.15
448.368	20.15
448.494	13.15
448.62	42.15
448.746	17.15
448.872	42.15
448.997	22.15
449.123	48.15
449.249	37.15
449.375	57.15
449.501	29.15
449.627	32.15
449.752	52.15
449.878	21.15
450.004	35.15
450.13	41.15
450.256	16.15
450.381	28.15
450.507	39.15
450.633	32.15
450.759	49.15
450.884	34.15
451.01	46.15
451.136	33.15
451.262	33.15
451.388	43.15
451.513	17.15
451.639	43.15
451.765	42.15
451.89	39.15
452.016	16.15
452.142	29.15
452.268	30.15
452.393	19.15
452.519	11.15
452.645	40.15
452.771	32.15
452.896	6.15
453.022	25.15
453.148	44.15
453.273	37.15
453.399	27.15
453.525	12.15
453.65	23.15
453.776	31.15
453.902	27.15
454.027	43.15
454.153	60.15
454.279	51.15
454.404	34.15
454.53	38.15
454.656	67.15
454.781	35.15
454.907	41.15
455.032	30.15
455.158	44.15
455.284	46.15
455.409	18.15
455.535	33.15
455.66	55.15
455.786	38.15
455.912	36.15
456.037	20.15
456.163	29.15
456.288	30.15
456.414	19.15
456.539	10.15
456.665	40.15
456.791	32.15
456.916	33.15
457.042	28.15
457.167	10.15
457.293	18.15
457.418	34.15
457.544	25.15
457.669	28.15
457.795	11.15
457.92	33.15
458.046	27.15
458.171	40.15
458.297	20.15
458.422	30.15
458.548	15.15
458.673	20.15
458.799	35.15
458.924	13.15
459.05	18.15
459.175	26.15
459.301	40.15
459.426	43.15
459.552	24.15
459.677	26.15
459.803	47.15
459.928	35.15
460.053	42.15
460.179	28.15
460.304	39.15
460.43	16.15
460.555	12.15
460.681	14.15
460.806	29.15
460.931	24.15
461.057	22.15
461.182	18.15
461.308	22.15
461.433	43.15
461.558	15.15
461.684	43.15
461.809	25.15
461.934	14.15
462.06	22.15
462.185	30.15
462.311	24.15
462.436	32.15
462.561	24.15
462.687	12.15
462.812	20.15
462.937	14.15
463.063	29.15
463.188	20.15
463.313	45.15
463.439	29.15
463.564	37.15
463.689	36.15
463.814	21.15
463.94	37.15
464.065	30.15
464.19	35.15
464.316	9.15
464.441	7.15
464.566	0.15
464.692	30.15
464.817	43.15
464.942	31.15
465.067	26.15
465.193	10.15
465.318	12.15
465.443	24.15
465.568	30.15
465.694	49.15
465.819	36.15
465.944	44.15
466.069	41.15
466.194	37.15
466.32	30.15
466.445	24.15
466.57	17.15
466.695	26.15
466.82	34.15
466.946	50.15
467.071	31.15
467.196	33.15
467.321	23.15
467.446	22.15
467.572	38.15
467.697	22.15
467.822	46.15
467.947	39.15
468.072	16.15
468.197	27.15
468.323	31.15
468.448	54.15
468.573	34.15
468.698	29.15
468.823	39.15
468.948	28.15
469.073	27.15
469.198	51.15
469.324	58.15
469.449	31.15
469.574	55.15
469.699	56.15
469.824	57.15
469.949	40.15
470.074	39.15
470.199	63.15
470.324	48.15
470.449	46.15
470.574	41.15
470.7	36.15
470.825	56.15
470.95	50.15
471.075	23.15
471.2	32.15
471.325	34.15
471.45	45.15
471.575	16.15
471.7	33.15
471.825	38.15
471.95	19.15
472.075	10.15
472.2	32.15
472.325	26.15
472.45	27.15
472.575	18.15
472.7	30.15
472.825	51.15
472.95	47.15
473.075	55.15
473.2	51.15
473.325	42.15
473.45	19.15
473.575	44.15
473.7	38.15
473.825	23.15
473.95	30.15
474.075	28.15
474.2	30.15
474.325	22.15
474.45	31.15
474.574	12.15
474.699	28.15
474.824	32.15
474.949	8.15
475.074	17.15
475.199	44.15
475.324	28.15
475.449	33.15
475.574	29.15
475.699	22.15
475.824	16.15
475.949	14.15
476.073	11.15
476.198	26.15
476.323	23.15
476.448	24.15
476.573	26.15
476.698	51.15
476.823	2.15
476.947	28.15
477.072	26.15
477.197	15.15
477.322	28.15
477.447	2.15
477.572	7.15
477.697	23.15
477.821	25.15
477.946	36.15
478.071	39.15
478.196	32.15
478.321	7.15
478.445	17.15
478.57	11.15
478.695	27.15
478.82	41.15
478.945	39.15
479.069	10.15
479.194	19.15
479.319	48.15
479.444	18.15
479.569	24.15
479.693	44.15
479.818	13.15
479.943	31.15
480.068	22.15
480.192	27.15
480.317	37.15
480.442	11.15
480.567	18.15
480.691	9.15
480.816	7.15
480.941	0.15
481.066	32.15
481.19	29.15
481.315	23.15
481.44	3.15
481.564	9.15
481.689	33.15
481.814	27.15
481.938	22.15
482.063	11.15
482.188	12.15
482.313	19.15
482.437	9.15
482.562	26.15
482.687	12.15
482.811	27.15
482.936	10.15
483.061	29.15
483.185	32.15
483.31	7.15
483.435	24.15
483.559	28.15
483.684	19.15
483.808	51.15
483.933	36.15
484.058	28.15
484.182	36.15
484.307	32.15
484.432	26.15
484.556	14.15
484.681	16.15
484.805	24.15
484.93	21.15
485.055	32.15
485.179	50.15
485.304	28.15
485.428	40.15
485.553	16.15
485.678	29.15
485.802	20.15
485.927	41.15
486.051	29.15
486.176	19.15
486.3	16.15
486.425	34.15
486.549	42.15
486.674	56.15
486.799	19.15
486.923	20.15
487.048	12.15
487.172	6.15
487.297	10.15
487.421	13.15
487.546	26.15
487.67	39.15
487.795	9.15
487.919	28.15
488.044	32.15
488.168	18.15
488.293	28.15
488.417	8.15
488.542	30.15
488.666	25.15
488.791	35.15
488.915	17.15
489.04	35.15
489.164	27.15
489.289	34.15
489.413	15.15
489.538	32.15
489.662	57.15
489.786	18.15
489.911	35.15
490.035	28.15
490.16	6.15
490.284	11.15
490.409	14.15
490.533	32.15
490.658	47.15
490.782	23.15
490.906	54.15
491.031	121.15
491.155	138.15
491.28	145.15
491.404	170.15
491.528	269.15
491.653	157.15
491.777	74.15
491.902	28.15
492.026	35.15
492.15	31.15
492.275	37.15
492.399	53.15
492.524	18.15
492.648	34.15
492.772	33.15
492.897	56.15
493.021	21.15
493.145	36.15
493.27	34.15
493.394	-5.85
493.518	2.15
493.643	19.15
493.767	36.15
493.891	17.15
494.016	27.15
494.14	16.15
494.264	4.15
494.389	26.15
494.513	1.15
494.637	0.15
494.762	42.15
494.886	28.15
495.01	36.15
495.134	24.15
495.259	27.15
495.383	16.15
495.507	25.15
495.632	23.15
495.756	47.15
495.88	24.15
496.004	17.15
496.129	18.15
496.253	22.15
496.377	19.15
496.501	33.15
496.626	13.15
496.75	10.15
496.874	27.15
496.998	26.15
497.123	52.15
497.247	4.15
497.371	12.15
497.495	22.15
497.62	30.15
497.744	9.15
497.868	18.15
497.992	21.15
498.116	1.15
498.241	26.15
498.365	5.15
498.489	14.15
498.613	34.15
498.737	24.15
498.862	22.15
498.986	2.15
499.11	11.15
499.234	22.15
499.358	20.15
499.482	37.15
499.607	31.15
499.731	14.15
499.855	41.15
499.979	39.15
500.103	31.15
500.227	27.15
500.351	31.15
500.476	28.15
500.6	32.15
500.724	38.15
500.848	22.15
500.972	29.15
501.096	7.15
501.22	42.15
501.344	8.15
501.469	5.15
501.593	13.15
501.717	33.15
501.841	7.15
501.965	13.15
502.089	19.15
502.213	26.15
502.337	11.15
502.461	10.15
502.585	11.15
502.709	17.15
502.834	18.15
502.958	3.15
503.082	23.15
503.206	39.15
503.33	30.15
503.454	22.15
503.578	32.15
503.702	26.15
503.826	27.15
503.95	34.15
504.074	19.15
504.198	23.15
504.322	21.15
504.446	30.15
504.57	24.15
504.694	45.15
504.818	12.15
504.942	39.15
505.066	15.15
505.19	22.15
505.314	12.15
505.438	33.15
505.562	33.15
505.686	40.15
505.81	26.15
505.934	30.15
506.058	6.15
506.182	29.15
506.306	39.15
506.43	12.15
506.554	28.15
506.678	25.15
506.802	23.15
506.926	43.15
507.05	27.15
507.174	38.15
507.298	28.15
507.422	26.15
507.546	32.15
507.67	27.15
507.794	6.15
507.918	21.15
508.042	22.15
508.165	23.15
508.289	3.15
508.413	31.15
508.537	15.15
508.661	28.15
508.785	24.15
508.909	35.15
509.033	34.15
509.157	18.15
509.281	25.15
509.405	18.15
509.528	47.15
509.652	45.15
509.776	36.15
509.9	41.15
510.024	44.15
510.148	34.15
510.272	42.15
510.396	44.15
510.519	42.15
510.643	58.15
510.767	45.15
510.891	34.15
511.015	48.15
511.139	41.15
511.263	73.15
511.386	33.15
511.51	40.15
511.634	52.15
511.758	52.15
511.882	37.15
512.006	51.15
512.129	65.15
512.253	91.15
512.377	84.15
512.501	104.15
512.625	98.15
512.748	76.15
512.872	78.15
512.996	48.15
513.12	66.15
513.244	41.15
513.367	70.15
513.491	69.15
513.615	84.15
513.739	60.15
513.862	99.15
513.986	70.15
514.11	102.15
514.234	82.15
514.358	115.15
514.481	116.15
514.605	92.15
514.729	114.15
514.853	117.15
514.976	101.15
515.1	87.15
515.224	106.15
515.348	97.15
515.471	87.15
515.595	105.15
515.719	130.15
515.842	210.15
515.966	267.15
516.09	290.15
516.214	292.15
516.337	316.15
516.461	236.15
516.585	93.15
516.708	46.15
516.832	34.15
516.956	24.15
517.08	28.15
517.203	17.15
517.327	16.15
517.451	32.15
517.574	35.15
517.698	31.15
517.822	19.15
517.945	36.15
518.069	16.15
518.193	30.15
518.316	32.15
518.44	28.15
518.564	15.15
518.687	10.15
518.811	14.15
518.935	24.15
519.058	0.15
519.182	23.15
519.306	26.15
519.429	25.15
519.553	46.15
519.676	28.15
519.8	12.15
519.924	22.15
520.047	35.15
520.171	23.15
520.294	24.15
520.418	33.15
520.542	12.15
520.665	34.15
520.789	19.15
520.913	7.15
521.036	9.15
521.16	-4.85
521.283	23.15
521.407	2.15
521.53	3.15
521.654	-0.85
521.778	35.15
521.901	20.15
522.025	19.15
522.148	8.15
522.272	16.15
522.395	7.15
522.519	32.15
522.643	15.15
522.766	22.15
522.89	13.15
523.013	40.15
523.137	19.15
523.26	14.15
523.384	22.15
523.507	12.15
523.631	23.15
523.754	8.15
523.878	16.15
524.002	18.15
524.125	23.15
524.249	-2.85
524.372	9.15
524.496	19.15
524.619	26.15
524.743	34.15
524.866	13.15
524.99	17.15
525.113	10.15
525.237	32.15
525.36	22.15
525.484	18.15
525.607	3.15
525.731	8.15
525.854	12.15
525.978	25.15
526.101	25.15
526.224	26.15
526.348	17.15
526.471	42.15
526.595	28.15
526.718	10.15
526.842	16.15
526.965	26.15
527.089	9.15
527.212	22.15
527.336	7.15
527.459	-3.85
527.582	22.15
527.706	38.15
527.829	14.15
527.953	8.15
528.076	-14.85
528.2	10.15
528.323	21.15
528.446	39.15
528.57	10.15
528.693	32.15
528.817	2.15
528.94	24.15
529.064	44.15
529.187	10.15
529.31	10.15
529.434	17.15
529.557	23.15
529.68	22.15
529.804	12.15
529.927	20.15
530.051	29.15
530.174	21.15
530.297	29.15
530.421	30.15
530.544	25.15
530.668	13.15
530.791	6.15
530.914	36.15
531.038	7.15
531.161	4.15
531.284	16.15
531.408	14.15
531.531	10.15
531.654	8.15
531.778	0.15
531.901	6.15
532.024	26.15
532.148	17.15
532.271	18.15
532.394	7.15
532.518	40.15
532.641	17.15
532.764	23.15
532.888	14.15
533.011	6.15
533.134	-1.85
533.258	17.15
533.381	31.15
533.504	18.15
533.628	15.15
533.751	10.15
533.874	4.15
533.997	25.15
534.121	10.15
534.244	18.15
534.367	29.15
534.491	11.15
534.614	27.15
534.737	33.15
534.86	22.15
534.984	11.15
535.107	15.15
535.23	20.15
535.354	7.15
535.477	3.15
535.6	1.15
535.723	16.15
535.847	16.15
535.97	10.15
536.093	23.15
536.216	25.15
536.34	32.15
536.463	17.15
536.586	27.15
536.709	23.15
536.833	34.15
536.956	28.15
537.079	15.15
537.202	22.15
537.325	24.15
537.449	12.15
537.572	17.15
537.695	12.15
537.818	0.15
537.941	14.15
538.065	3.15
538.188	15.15
538.311	44.15
538.434	14.15
538.558	7.15
538.681	18.15
538.804	22.15
538.927	28.15
539.05	19.15
539.173	11.15
539.297	11.15
539.42	15.15
539.543	16.15
539.666	44.15
539.789	39.15
539.913	18.15
540.036	21.15
540.159	31.15
540.282	14.15
540.405	-1.85
540.528	14.15
540.651	22.15
540.775	27.15
540.898	39.15
541.021	19.15
541.144	32.15
541.267	22.15
541.39	35.15
541.513	40.15
541.637	22.15
541.76	28.15
541.883	36.15
542.006	54.15
542.129	48.15
542.252	32.15
542.375	38.15
542.498	42.15
542.622	41.15
542.745	50.15
542.868	54.15
542.991	46.15
543.114	47.15
543.237	62.15
543.36	56.15
543.483	51.15
543.606	70.15
543.73	79.15
543.853	77.15
543.976	71.15
544.099	109.15
544.222	139.15
544.345	128.15
544.468	172.15
544.591	208.15
544.714	243.15
544.837	345.15
544.96	466.15
545.083	680.15
545.206	1096.15
545.329	2450.15
545.453	11080.15
545.576	15276.15
545.699	15685.15
545.822	15685.15
545.945	15685.15
546.068	15685.15
546.191	15685.15
546.314	15685.15
546.437	15685.15
546.56	15685.15
546.683	15685.15
546.806	15685.15
546.929	15685.15
547.052	15685.15
547.175	15685.15
547.298	15685.15
547.421	15685.15
547.544	15685.15
547.667	3871.15
547.79	4035.15
547.913	1314.15
548.036	952.15
548.159	669.15
548.282	652.15
548.405	512.15
548.528	515.15
548.651	404.15
548.774	425.15
548.897	366.15
549.02	362.15
549.143	342.15
549.266	311.15
549.389	296.15
549.512	273.15
549.635	265.15
549.758	260.15
549.881	209.15
550.004	226.15
550.127	193.15
550.25	202.15
550.373	150.15
550.496	192.15
550.619	172.15
550.742	149.15
550.865	140.15
550.988	160.15
551.111	158.15
551.234	166.15
551.356	140.15
551.479	140.15
551.602	114.15
551.725	145.15
551.848	144.15
551.971	138.15
552.094	134.15
552.217	124.15
552.34	107.15
552.463	115.15
552.586	98.15
552.709	113.15
552.832	106.15
552.955	114.15
553.077	101.15
553.2	110.15
553.323	81.15
553.446	97.15
553.569	73.15
553.692	82.15
553.815	90.15
553.938	106.15
554.061	129.15
554.184	92.15
554.306	93.15
554.429	89.15
554.552	75.15
554.675	72.15
554.798	96.15
554.921	104.15
555.044	69.15
555.167	68.15
555.29	65.15
555.412	79.15
555.535	63.15
555.658	79.15
555.781	81.15
555.904	72.15
556.027	66.15
556.15	82.15
556.272	88.15
556.395	95.15
556.518	60.15
556.641	92.15
556.764	90.15
556.887	72.15
557.01	66.15
557.132	62.15
557.255	67.15
557.378	75.15
557.501	62.15
557.624	74.15
557.747	77.15
557.869	76.15
557.992	72.15
558.115	94.15
558.238	80.15
558.361	87.15
558.483	101.15
558.606	76.15
558.729	52.15
558.852	68.15
558.975	57.15
559.098	64.15
559.22	57.15
559.343	49.15
559.466	41.15
559.589	46.15
559.712	63.15
559.834	47.15
559.957	45.15
560.08	63.15
560.203	63.15
560.325	64.15
560.448	76.15
560.571	58.15
560.694	48.15
560.817	66.15
560.939	59.15
561.062	58.15
561.185	55.15
561.308	58.15
561.43	59.15
561.553	62.15
561.676	52.15
561.799	67.15
561.921	48.15
562.044	65.15
562.167	71.15
562.29	73.15
562.413	82.15
562.535	65.15
562.658	46.15
562.781	50.15
562.903	70.15
563.026	80.15
563.149	141.15
563.272	130.15
563.394	114.15
563.517	107.15
563.64	64.15
563.763	47.15
563.885	48.15
564.008	53.15
564.131	50.15
564.254	35.15
564.376	50.15
564.499	18.15
564.622	35.15
564.744	59.15
564.867	26.15
564.99	31.15
565.113	25.15
565.235	50.15
565.358	32.15
565.481	27.15
565.603	22.15
565.726	26.15
565.849	52.15
565.971	66.15
566.094	44.15
566.217	41.15
566.34	41.15
566.462	47.15
566.585	51.15
566.708	47.15
566.83	57.15
566.953	48.15
567.076	27.15
567.198	28.15
567.321	29.15
567.444	54.15
567.566	39.15
567.689	19.15
567.812	25.15
567.934	29.15
568.057	42.15
568.18	46.15
568.302	35.15
568.425	12.15
568.548	41.15
568.67	45.15
568.793	56.15
568.916	34.15
569.038	34.15
569.161	36.15
569.283	31.15
569.406	41.15
569.529	26.15
569.651	36.15
569.774	28.15
569.897	31.15
570.019	52.15
570.142	42.15
570.265	26.15
570.387	31.15
570.51	36.15
570.632	42.15
570.755	19.15
570.878	28.15
571	55.15
571.123	41.15
571.246	50.15
571.368	30.15
571.491	29.15
571.613	29.15
571.736	16.15
571.859	44.15
571.981	27.15
572.104	35.15
572.226	45.15
572.349	19.15
572.472	38.15
572.594	36.15
572.717	24.15
572.839	33.15
572.962	50.15
573.085	34.15
573.207	48.15
573.33	49.15
573.452	43.15
573.575	52.15
573.697	48.15
573.82	35.15
573.943	35.15
574.065	29.15
574.188	31.15
574.31	47.15
574.433	29.15
574.555	35.15
574.678	29.15
574.801	49.15
574.923	41.15
575.046	46.15
575.168	18.15
575.291	42.15
575.413	68.15
575.536	40.15
575.659	60.15
575.781	44.15
575.904	72.15
576.026	70.15
576.149	78.15
576.271	129.15
576.394	208.15
576.516	528.15
576.639	3659.15
576.761	10175.15
576.884	8939.15
577.007	8891.15
577.129	8143.15
577.252	3821.15
577.374	1363.15
577.497	538.15
577.619	274.15
577.742	183.15
577.864	160.15
577.987	135.15
578.109	139.15
578.232	125.15
578.354	153.15
578.477	205.15
578.599	391.15
578.722	1968.15
578.844	9138.15
578.967	9926.15
579.089	8854.15
579.212	9191.15
579.334	5334.15
579.457	1940.15
579.579	721.15
579.702	336.15
579.824	210.15
579.947	139.15
580.069	100.15
580.192	86.15
580.314	99.15
580.437	67.15
580.559	99.15
580.682	69.15
580.804	59.15
580.927	64.15
581.049	72.15
581.172	64.15
581.294	58.15
581.417	70.15
581.539	58.15
581.662	58.15
581.784	46.15
581.907	57.15
582.029	52.15
582.152	47.15
582.274	65.15
582.396	47.15
582.519	57.15
582.641	24.15
582.764	33.15
582.886	48.15
583.009	49.15
583.131	42.15
583.254	26.15
583.376	39.15
583.499	48.15
583.621	33.15
583.743	48.15
583.866	48.15
583.988	34.15
584.111	40.15
584.233	32.15
584.356	39.15
584.478	32.15
584.601	24.15
584.723	43.15
584.845	38.15
584.968	26.15
585.09	26.15
585.213	46.15
585.335	28.15
585.458	33.15
585.58	32.15
585.702	40.15
585.825	49.15
585.947	47.15
586.07	28.15
586.192	26.15
586.315	50.15
586.437	34.15
586.559	38.15
586.682	10.15
586.804	28.15
586.927	27.15
587.049	35.15
587.171	32.15
587.294	49.15
587.416	52.15
587.539	25.15
587.661	36.15
587.783	22.15
587.906	12.15
588.028	45.15
588.151	43.15
588.273	46.15
588.395	30.15
588.518	14.15
588.64	31.15
588.763	44.15
588.885	50.15
589.007	39.15
589.13	11.15
589.252	12.15
589.375	28.15
589.497	24.15
589.619	34.15
589.742	31.15
589.864	45.15
589.986	41.15
590.109	26.15
590.231	35.15
590.354	47.15
590.476	18.15
590.598	19.15
590.721	34.15
590.843	28.15
590.965	4.15
591.088	44.15
591.21	31.15
591.332	34.15
591.455	28.15
591.577	21.15
591.7	22.15
591.822	32.15
591.944	18.15
592.067	20.15
592.189	31.15
592.311	26.15
592.434	37.15
592.556	49.15
592.678	21.15
592.801	33.15
592.923	34.15
593.045	39.15
593.168	11.15
593.29	36.15
593.412	27.15
593.535	21.15
593.657	12.15
593.779	39.15
593.902	20.15
594.024	22.15
594.146	42.15
594.269	26.15
594.391	24.15
594.513	27.15
594.636	27.15
594.758	6.15
594.88	24.15
595.003	20.15
595.125	25.15
595.247	29.15
595.37	31.15
595.492	22.15
595.614	39.15
595.737	11.15
595.859	30.15
595.981	32.15
596.104	15.15
596.226	11.15
596.348	28.15
596.471	34.15
596.593	25.15
596.715	40.15
596.838	29.15
596.96	15.15
597.082	44.15
597.204	32.15
597.327	30.15
597.449	2.15
597.571	20.15
597.694	33.15
597.816	31.15
597.938	29.15
598.061	22.15
598.183	19.15
598.305	34.15
598.427	29.15
598.55	23.15
598.672	30.15
598.794	46.15
598.917	20.15
599.039	27.15
599.161	23.15
599.283	28.15
599.406	22.15
599.528	30.15
599.65	48.15
599.773	22.15
599.895	43.15
600.017	31.15
600.139	18.15
600.262	15.15
600.384	28.15
600.506	47.15
600.628	54.15
600.751	31.15
600.873	22.15
600.995	15.15
601.118	29.15
601.24	28.15
601.362	38.15
601.484	22.15
601.607	26.15
601.729	23.15
601.851	13.15
601.973	32.15
602.096	29.15
602.218	25.15
602.34	39.15
602.462	47.15
602.585	34.15
602.707	22.15
602.829	34.15
602.951	34.15
603.074	13.15
603.196	27.15
603.318	14.15
603.44	48.15
603.563	37.15
603.685	22.15
603.807	33.15
603.929	26.15
604.052	25.15
604.174	34.15
604.296	22.15
604.418	46.15
604.541	39.15
604.663	10.15
604.785	29.15
604.907	27.15
605.03	18.15
605.152	55.15
605.274	24.15
605.396	25.15
605.519	19.15
605.641	33.15
605.763	20.15
605.885	40.15
606.008	34.15
606.13	41.15
606.252	19.15
606.374	6.15
606.496	8.15
606.619	10.15
606.741	8.15
606.863	40.15
606.985	42.15
607.108	30.15
607.23	31.15
607.352	12.15
607.474	27.15
607.596	38.15
607.719	34.15
607.841	26.15
607.963	6.15
608.085	25.15
608.207	39.15
608.33	17.15
608.452	8.15
608.574	23.15
608.696	36.15
608.819	19.15
608.941	28.15
609.063	-1.85
609.185	18.15
609.307	31.15
609.43	43.15
609.552	31.15
609.674	34.15
609.796	36.15
609.918	32.15
610.041	6.15
610.163	33.15
610.285	25.15
610.407	22.15
610.529	30.15
610.652	25.15
610.774	32.15
610.896	22.15
611.018	7.15
611.14	32.15
611.263	9.15
611.385	15.15
611.507	24.15
611.629	6.15
611.751	36.15
611.873	44.15
611.996	34.15
612.118	40.15
612.24	14.15
612.362	35.15
612.484	34.15
612.607	29.15
612.729	44.15
612.851	24.15
612.973	20.15
613.095	14.15
613.218	40.15
613.34	23.15
613.462	32.15
613.584	21.15
613.706	18.15
613.828	44.15
613.951	19.15
614.073	16.15
614.195	-15.85
614.317	42.15
614.439	36.15
614.561	16.15
614.684	36.15
614.806	27.15
614.928	38.15
615.05	29.15
615.172	30.15
615.294	34.15
615.417	16.15
615.539	10.15
615.661	22.15
615.783	42.15
615.905	6.15
616.027	19.15
616.15	37.15
616.272	19.15
616.394	11.15
616.516	7.15
616.638	18.15
616.76	10.15
616.883	18.15
617.005	17.15
617.127	16.15
617.249	18.15
617.371	20.15
617.493	31.15
617.615	22.15
617.738	32.15
617.86	31.15
617.982	31.15
618.104	18.15
618.226	14.15
618.348	8.15
618.471	16.15
618.593	46.15
618.715	8.15
618.837	27.15
618.959	22.15
619.081	42.15
619.203	17.15
619.326	25.15
619.448	33.15
619.57	41.15
619.692	36.15
619.814	35.15
619.936	32.15
620.058	46.15
620.181	23.15
620.303	9.15
620.425	27.15
620.547	23.15
620.669	14.15
620.791	15.15
620.913	14.15
621.036	2.15
621.158	34.15
621.28	48.15
621.402	8.15
621.524	-4.85
621.646	15.15
621.768	3.15
621.891	1.15
622.013	8.15
622.135	16.15
622.257	6.15
622.379	22.15
622.501	25.15
622.623	26.15
622.745	7.15
622.868	22.15
622.99	23.15
623.112	25.15
623.234	6.15
623.356	25.15
623.478	1.15
623.6	34.15
623.722	2.15
623.845	35.15
623.967	23.15
624.089	17.15
624.211	22.15
624.333	24.15
624.455	18.15
624.577	31.15
624.699	24.15
624.822	20.15
624.944	10.15
625.066	15.15
625.188	12.15
625.31	10.15
625.432	34.15
625.554	15.15
625.676	47.15
625.799	28.15
625.921	36.15
626.043	45.15
626.165	3.15
626.287	-4.85
626.409	32.15
626.531	10.15
626.653	13.15
626.775	35.15
626.898	35.15
627.02	34.15
627.142	55.15
627.264	44.15
627.386	30.15
627.508	12.15
627.63	11.15
627.752	29.15
627.874	31.15
627.997	37.15
628.119	16.15
628.241	26.15
628.363	28.15
628.485	21.15
628.607	23.15
628.729	9.15
628.851	15.15
628.973	28.15
629.096	22.15
629.218	42.15
629.34	30.15
629.462	11.15
629.584	17.15
629.706	21.15
629.828	43.15
629.95	1.15
630.072	11.15
630.195	14.15
630.317	18.15
630.439	19.15
630.561	16.15
630.683	11.15
630.805	31.15
630.927	17.15
631.049	10.15
631.171	17.15
631.293	15.15
631.416	31.15
631.538	31.15
631.66	14.15
631.782	33.15
631.904	45.15
632.026	17.15
632.148	20.15
632.27	6.15
632.392	30.15
632.514	18.15
632.637	15.15
632.759	-0.85
632.881	14.15
633.003	-4.85
633.125	12.15
633.247	13.15
633.369	22.15
633.491	20.15
633.613	34.15
633.735	15.15
633.858	17.15
633.98	16.15
634.102	14.15
634.224	11.15
634.346	23.15
634.468	10.15
634.59	4.15
634.712	5.15
634.834	20.15
634.956	-5.85
635.078	1.15
635.201	17.15
635.323	15.15
635.445	-4.85
635.567	1.15
635.689	20.15
635.811	5.15
635.933	20.15
636.055	26.15
636.177	12.15
636.299	32.15
636.421	18.15
636.544	22.15
636.666	14.15
636.788	16.15
636.91	16.15
637.032	23.15
637.154	38.15
637.276	52.15
637.398	37.15
637.52	16.15
637.642	20.15
637.764	33.15
637.887	7.15
638.009	16.15
638.131	18.15
638.253	0.15
638.375	33.15
638.497	30.15
638.619	19.15
638.741	14.15
638.863	-1.85
638.985	10.15
639.107	6.15
639.23	6.15
639.352	32.15
639.474	42.15
639.596	23.15
639.718	17.15
639.84	38.15
639.962	33.15
640.084	22.15
640.206	35.15
640.328	23.15
640.45	14.15
640.573	6.15
640.695	4.15
640.817	14.15
640.939	18.15
641.061	15.15
641.183	25.15
641.305	17.15
641.427	23.15
641.549	18.15
641.671	29.15
641.793	16.15
641.915	31.15
642.038	17.15
642.16	18.15
642.282	20.15
642.404	35.15
642.526	19.15
642.648	16.15
642.77	7.15
642.892	22.15
643.014	34.15
643.136	18.15
643.258	21.15
643.381	33.15
643.503	33.15
643.625	1.15
643.747	12.15
643.869	3.15
643.991	25.15
644.113	6.15
644.235	28.15
644.357	16.15
644.479	30.15
644.601	27.15
644.723	10.15
644.846	19.15
644.968	10.15
645.09	17.15
645.212	0.15
645.334	22.15
645.456	36.15
645.578	40.15
645.7	20.15
645.822	35.15
645.944	10.15
646.066	8.15
646.188	24.15
646.311	40.15
646.433	13.15
646.555	31.15
646.677	15.15
646.799	12.15
646.921	33.15
647.043	13.15
647.165	4.15
647.287	12.15
647.409	8.15
647.531	21.15
647.654	0.15
647.776	13.15
647.898	12.15
648.02	7.15
648.142	16.15
648.264	18.15
648.386	19.15
648.508	10.15
648.63	29.15
648.752	25.15
648.874	18.15
648.997	15.15
649.119	19.15
649.241	17.15
649.363	44.15
649.485	23.15
649.607	18.15
649.729	5.15
649.851	-2.85
649.973	8.15
650.095	11.15
650.217	8.15
650.34	15.15
650.462	25.15
650.584	19.15
650.706	21.15
650.828	29.15
650.95	-0.85
651.072	8.15
651.194	20.15
651.316	0.15
651.438	-7.85
651.56	-8.85
651.683	8.15
651.805	12.15
651.927	25.15
652.049	7.15
652.171	1.15
652.293	3.15
652.415	3.15
652.537	4.15
652.659	16.15
652.781	13.15
652.903	11.15
653.026	34.15
653.148	16.15
653.27	15.15
653.392	26.15
653.514	20.15
653.636	6.15
653.758	14.15
653.88	9.15
654.002	2.15
654.124	10.15
654.247	-6.85
654.369	-3.85
654.491	24.15
654.613	4.15
654.735	18.15
654.857	16.15
654.979	0.15
655.101	4.15
655.223	35.15
655.345	25.15
655.468	25.15
655.59	10.15
655.712	16.15
655.834	4.15
655.956	27.15
656.078	26.15
656.2	28.15
656.322	22.15
656.444	-14.85
656.566	18.15
656.689	11.15
656.811	13.15
656.933	30.15
657.055	-0.85
657.177	-1.85
657.299	22.15
657.421	8.15
657.543	24.15
657.665	3.15
657.787	8.15
657.91	17.15
658.032	3.15
658.154	2.15
658.276	8.15
658.398	-9.85
658.52	13.15
658.642	37.15
658.764	26.15
658.886	-8.85
659.009	24.15
659.131	23.15
659.253	-7.85
659.375	15.15
659.497	11.15
659.619	18.15
659.741	-2.85
659.863	7.15
659.985	-1.85
660.108	28.15
660.23	17.15
660.352	22.15
660.474	9.15
660.596	13.15
660.718	1.15
660.84	26.15
660.962	31.15
661.084	-4.85
661.207	-4.85
661.329	25.15
661.451	-1.85
661.573	-0.85
661.695	14.15
661.817	22.15
661.939	30.15
662.061	33.15
662.184	1.15
662.306	6.15
662.428	2.15
662.55	34.15
662.672	8.15
662.794	13.15
662.916	11.15
663.038	21.15
663.161	27.15
663.283	22.15
663.405	18.15
663.527	10.15
663.649	32.15
663.771	5.15
663.893	11.15
664.015	22.15
664.138	14.15
664.26	25.15
664.382	7.15
664.504	4.15
664.626	-4.85
664.748	-0.85
664.87	11.15
664.992	15.15
665.115	15.15
665.237	16.15
665.359	-8.85
665.481	-1.85
665.603	7.15
665.725	7.15
665.847	-0.85
665.97	7.15
666.092	25.15
666.214	27.15
666.336	3.15
666.458	-1.85
666.58	13.15
666.702	-1.85
666.825	-12.85
666.947	-8.85
667.069	12.15
667.191	17.15
667.313	21.15
667.435	1.15
667.557	7.15
667.68	3.15
667.802	4.15
667.924	17.15
668.046	23.15
668.168	26.15
668.29	27.15
668.412	16.15
668.535	7.15
668.657	7.15
668.779	2.15
668.901	12.15
669.023	31.15
669.145	5.15
669.267	17.15
669.39	11.15
669.512	18.15
669.634	14.15
669.756	0.15
669.878	10.15
670	16.15
670.123	10.15
670.245	31.15
670.367	26.15
670.489	17.15
670.611	15.15
670.733	3.15
670.856	7.15
670.978	22.15
671.1	24.15
671.222	12.15
671.344	15.15
671.466	-3.85
671.589	-9.85
671.711	0.15
671.833	-4.85
671.955	11.15
672.077	0.15
672.199	16.15
672.322	22.15
672.444	15.15
672.566	30.15
672.688	18.15
672.81	25.15
672.932	17.15
673.055	12.15
673.177	12.15
673.299	23.15
673.421	7.15
673.543	7.15
673.665	26.15
673.788	25.15
673.91	7.15
674.032	-1.85
674.154	-0.85
674.276	34.15
674.399	6.15
674.521	-1.85
674.643	6.15
674.765	7.15
674.887	10.15
675.009	6.15
675.132	14.15
675.254	2.15
675.376	13.15
675.498	16.15
675.62	34.15
675.743	18.15
675.865	-4.85
675.987	-9.85
676.109	15.15
676.231	30.15
676.354	36.15
676.476	15.15
676.598	15.15
676.72	22.15
676.842	18.15
676.965	8.15
677.087	19.15
677.209	7.15
677.331	22.15
677.453	17.15
677.576	10.15
677.698	23.15
677.82	14.15
677.942	-7.85
678.064	18.15
678.187	15.15
678.309	10.15
678.431	3.15
678.553	-6.85
678.675	26.15
678.798	26.15
678.92	17.15
679.042	-1.85
679.164	-4.85
679.286	13.15
679.409	16.15
679.531	-16.85
679.653	-2.85
679.775	11.15
679.898	-3.85
680.02	2.15
680.142	16.15
680.264	16.15
680.386	0.15
680.509	4.15
680.631	9.15
680.753	-1.85
680.875	2.15
680.998	13.15
681.12	6.15
681.242	2.15
681.364	9.15
681.486	2.15
681.609	-9.85
681.731	0.15
681.853	5.15
681.975	0.15
682.098	6.15
682.22	28.15
682.342	7.15
682.464	17.15
682.587	18.15
682.709	10.15
682.831	6.15
682.953	19.15
683.076	4.15
683.198	22.15
683.32	9.15
683.442	16.15
683.565	29.15
683.687	17.15
683.809	11.15
683.931	-0.85
684.054	15.15
684.176	11.15
684.298	7.15
684.42	12.15
684.543	4.15
684.665	11.15
684.787	22.15
684.909	13.15
685.032	20.15
685.154	-6.85
685.276	16.15
685.398	2.15
685.521	-2.85
685.643	11.15
685.765	22.15
685.887	20.15
686.01	17.15
686.132	21.15
686.254	8.15
686.377	14.15
686.499	24.15
686.621	20.15
686.743	14.15
686.866	10.15
686.988	37.15
687.11	42.15
687.232	22.15
687.355	1.15
687.477	15.15
687.599	12.15
687.722	3.15
687.844	9.15
687.966	8.15
688.088	11.15
688.211	20.15
688.333	17.15
688.455	19.15
688.578	24.15
688.7	28.15
688.822	12.15
688.944	-7.85
689.067	43.15
689.189	11.15
689.311	2.15
689.434	2.15
689.556	5.15
689.678	26.15
689.801	-3.85
689.923	23.15
690.045	43.15
690.167	34.15
690.29	27.15
690.412	17.15
690.534	22.15
690.657	3.15
690.779	2.15
690.901	31.15
691.024	9.15
691.146	12.15
691.268	7.15
691.391	20.15
691.513	13.15
691.635	32.15
691.758	34.15
691.88	22.15
692.002	7.15
692.125	15.15
692.247	12.15
692.369	3.15
692.492	15.15
692.614	14.15
692.736	2.15
692.859	2.15
692.981	1.15
693.103	4.15
693.226	16.15
693.348	26.15
693.47	18.15
693.593	53.15
693.715	7.15
693.837	23.15
693.96	13.15
694.082	1.15
694.204	2.15
694.327	12.15
694.449	-12.85
694.571	22.15
694.694	27.15
694.816	20.15
694.938	7.15
695.061	12.15
695.183	13.15
695.305	20.15
695.428	12.15
695.55	0.15
695.672	4.15
695.795	19.15
695.917	38.15
696.04	16.15
696.162	24.15
696.284	3.15
696.407	24.15
696.529	-6.85
696.651	28.15
696.774	11.15
696.896	22.15
697.019	25.15
697.141	16.15
697.263	5.15
697.386	3.15
697.508	3.15
697.63	16.15
697.753	27.15
697.875	12.15
697.998	4.15
698.12	14.15
698.242	6.15
698.365	21.15
698.487	10.15
698.61	24.15
698.732	15.15
698.854	34.15
698.977	10.15
699.099	24.15
699.221	-11.85
699.344	10.15
699.466	12.15
699.589	18.15
699.711	11.15
699.834	19.15
699.956	16.15
700.078	23.15
700.201	9.15
700.323	29.15
700.446	11.15
700.568	20.15
700.69	6.15
700.813	14.15
700.935	-3.85
701.058	12.15
701.18	3.15
701.302	4.15
701.425	10.15
701.547	23.15
701.67	8.15
701.792	11.15
701.915	-0.85
702.037	-4.85
702.159	22.15
702.282	19.15
702.404	21.15
702.527	31.15
702.649	26.15
702.772	13.15
702.894	2.15
703.017	30.15
703.139	21.15
703.261	17.15
703.384	22.15
703.506	13.15
703.629	9.15
703.751	9.15
703.874	2.15
703.996	10.15
704.119	-0.85
704.241	15.15
704.364	4.15
704.486	20.15
704.608	22.15
704.731	17.15
704.853	23.15
704.976	-6.85
705.098	22.15
705.221	-1.85
705.343	10.15
705.466	18.15
705.588	31.15
705.711	31.15
705.833	17.15
705.956	13.15
706.078	25.15
706.201	9.15
706.323	2.15
706.446	-0.85
