Data from LowRes_mercury_15_20_11_07_2024_HR4C61881__87__15-23-40-970.txt Node

Date: Thu Nov 07 15:23:40 EST 2024
User: crc00042
Spectrometer: HR4C6188
Trigger mode: 4
Integration Time (sec): 1.000000E-1
Scans to average: 1
Electric dark correction enabled: true
Nonlinearity correction enabled: false
Boxcar width: 0
XAxis mode: Wavelengths
Number of Pixels in Spectrum: 3648
>>>>>Begin Spectral Data<<<<<
245.66	-59.77
245.797	-59.77
245.934	-59.77
246.071	-74.77
246.208	10.23
246.344	16.23
246.481	-8.77
246.618	-26.77
246.755	22.23
246.892	-7.77
247.029	-11.77
247.165	-15.77
247.302	16.23
247.439	-9.77
247.576	8.23
247.713	-12.77
247.849	27.23
247.986	3.23
248.123	7.23
248.26	-14.77
248.396	13.23
248.533	-9.77
248.67	-13.77
248.806	4.23
248.943	1.23
249.08	-21.77
249.216	3.23
249.353	-30.77
249.49	-4.77
249.626	-6.77
249.763	-0.77
249.9	-5.77
250.036	-4.77
250.173	3.23
250.309	-0.77
250.446	0.23
250.582	-15.77
250.719	-29.77
250.856	0.23
250.992	-14.77
251.129	1.23
251.265	-4.77
251.402	-10.77
251.538	3.23
251.675	-11.77
251.811	11.23
251.948	23.23
252.084	7.23
252.221	-8.77
252.357	-18.77
252.493	9.23
252.63	0.23
252.766	7.23
252.903	-2.77
253.039	-14.77
253.175	-15.77
253.312	5.23
253.448	-11.77
253.585	-10.77
253.721	-6.77
253.857	3.23
253.994	12.23
254.13	15.23
254.266	-1.77
254.403	2.23
254.539	-2.77
254.675	1.23
254.811	-0.77
254.948	-14.77
255.084	-7.77
255.22	-21.77
255.356	8.23
255.493	-1.77
255.629	-10.77
255.765	11.23
255.901	26.23
256.037	3.23
256.174	1.23
256.31	-15.77
256.446	-14.77
256.582	9.23
256.718	7.23
256.854	7.23
256.991	-1.77
257.127	-11.77
257.263	6.23
257.399	2.23
257.535	-15.77
257.671	5.23
257.807	7.23
257.943	-6.77
258.079	-8.77
258.215	-8.77
258.351	18.23
258.487	-21.77
258.623	18.23
258.759	4.23
258.895	-10.77
259.031	4.23
259.167	-16.77
259.303	21.23
259.439	0.23
259.575	-11.77
259.711	-4.77
259.847	-9.77
259.983	10.23
260.119	-1.77
260.255	-14.77
260.391	-7.77
260.527	3.23
260.663	23.23
260.799	2.23
260.934	-12.77
261.07	-6.77
261.206	-9.77
261.342	-13.77
261.478	19.23
261.614	15.23
261.749	11.23
261.885	3.23
262.021	-10.77
262.157	16.23
262.293	-14.77
262.428	-6.77
262.564	3.23
262.7	-3.77
262.836	-0.77
262.971	1.23
263.107	-0.77
263.243	5.23
263.378	5.23
263.514	-36.77
263.65	-20.77
263.785	-15.77
263.921	-20.77
264.057	25.23
264.192	15.23
264.328	21.23
264.464	-24.77
264.599	-5.77
264.735	5.23
264.871	-4.77
265.006	-8.77
265.142	7.23
265.277	24.23
265.413	2.23
265.548	3.23
265.684	22.23
265.819	-3.77
265.955	-16.77
266.091	-18.77
266.226	-9.77
266.362	-11.77
266.497	6.23
266.633	-7.77
266.768	-14.77
266.903	-6.77
267.039	16.23
267.174	9.23
267.31	16.23
267.445	15.23
267.581	-14.77
267.716	3.23
267.851	-14.77
267.987	8.23
268.122	22.23
268.258	-9.77
268.393	-11.77
268.528	11.23
268.664	1.23
268.799	-19.77
268.934	-6.77
269.07	-15.77
269.205	-7.77
269.34	-1.77
269.476	-0.77
269.611	-14.77
269.746	26.23
269.881	-5.77
270.017	10.23
270.152	25.23
270.287	0.23
270.422	6.23
270.558	8.23
270.693	-2.77
270.828	12.23
270.963	-31.77
271.098	-6.77
271.234	-7.77
271.369	2.23
271.504	-14.77
271.639	3.23
271.774	-7.77
271.909	-10.77
272.045	-28.77
272.18	-7.77
272.315	5.23
272.45	14.23
272.585	-21.77
272.72	-16.77
272.855	-0.77
272.99	-3.77
273.125	-1.77
273.26	-9.77
273.395	4.23
273.53	-14.77
273.665	4.23
273.8	-3.77
273.935	-5.77
274.07	-0.77
274.205	-3.77
274.34	-6.77
274.475	-23.77
274.61	-1.77
274.745	-7.77
274.88	9.23
275.015	-11.77
275.15	-1.77
275.285	8.23
275.42	-9.77
275.555	16.23
275.69	1.23
275.825	-3.77
275.959	12.23
276.094	-4.77
276.229	-8.77
276.364	-21.77
276.499	0.23
276.634	-4.77
276.768	8.23
276.903	1.23
277.038	-6.77
277.173	4.23
277.308	-8.77
277.442	9.23
277.577	-6.77
277.712	-8.77
277.847	0.23
277.981	11.23
278.116	-24.77
278.251	9.23
278.386	20.23
278.52	0.23
278.655	-13.77
278.79	10.23
278.924	0.23
279.059	7.23
279.194	-15.77
279.328	21.23
279.463	13.23
279.598	17.23
279.732	20.23
279.867	1.23
280.001	3.23
280.136	0.23
280.271	1.23
280.405	4.23
280.54	-20.77
280.674	-6.77
280.809	11.23
280.943	11.23
281.078	1.23
281.213	18.23
281.347	15.23
281.482	-10.77
281.616	-19.77
281.751	-13.77
281.885	-12.77
282.02	-3.77
282.154	-4.77
282.288	-19.77
282.423	-28.77
282.557	-21.77
282.692	-2.77
282.826	-7.77
282.961	7.23
283.095	-1.77
283.229	-8.77
283.364	-24.77
283.498	-11.77
283.633	2.23
283.767	2.23
283.901	5.23
284.036	-8.77
284.17	-22.77
284.304	-6.77
284.439	4.23
284.573	11.23
284.707	27.23
284.842	0.23
284.976	-8.77
285.11	12.23
285.244	3.23
285.379	37.23
285.513	1.23
285.647	3.23
285.781	2.23
285.916	8.23
286.05	6.23
286.184	26.23
286.318	10.23
286.453	-12.77
286.587	-21.77
286.721	-2.77
286.855	-11.77
286.989	-3.77
287.123	-19.77
287.258	-9.77
287.392	-14.77
287.526	5.23
287.66	-5.77
287.794	4.23
287.928	-0.77
288.062	3.23
288.196	-12.77
288.33	10.23
288.464	7.23
288.598	10.23
288.733	-1.77
288.867	1.23
289.001	-0.77
289.135	8.23
289.269	-13.77
289.403	-18.77
289.537	-6.77
289.671	-4.77
289.805	-10.77
289.939	10.23
290.073	-8.77
290.207	4.23
290.34	-15.77
290.474	9.23
290.608	-5.77
290.742	-16.77
290.876	-21.77
291.01	-12.77
291.144	-4.77
291.278	16.23
291.412	17.23
291.546	10.23
291.679	-0.77
291.813	-15.77
291.947	-12.77
292.081	-19.77
292.215	-3.77
292.349	13.23
292.482	17.23
292.616	1.23
292.75	-2.77
292.884	-3.77
293.018	-4.77
293.151	-13.77
293.285	9.23
293.419	-3.77
293.553	1.23
293.686	-9.77
293.82	5.23
293.954	9.23
294.088	24.23
294.221	-12.77
294.355	-1.77
294.489	15.23
294.622	-12.77
294.756	0.23
294.89	8.23
295.023	14.23
295.157	14.23
295.291	3.23
295.424	10.23
295.558	-3.77
295.691	4.23
295.825	-5.77
295.959	8.23
296.092	-0.77
296.226	-9.77
296.359	-11.77
296.493	1.23
296.627	-4.77
296.76	1.23
296.894	16.23
297.027	10.23
297.161	-7.77
297.294	-19.77
297.428	-1.77
297.561	31.23
297.695	2.23
297.828	-5.77
297.962	1.23
298.095	-8.77
298.229	-23.77
298.362	-5.77
298.495	-13.77
298.629	-2.77
298.762	-9.77
298.896	-5.77
299.029	-11.77
299.162	0.23
299.296	-1.77
299.429	-25.77
299.563	0.23
299.696	7.23
299.829	-23.77
299.963	8.23
300.096	9.23
300.229	4.23
300.363	4.23
300.496	-4.77
300.629	-28.77
300.763	1.23
300.896	3.23
301.029	17.23
301.162	9.23
301.296	-1.77
301.429	5.23
301.562	-11.77
301.695	18.23
301.829	-4.77
301.962	32.23
302.095	19.23
302.228	-11.77
302.362	1.23
302.495	-13.77
302.628	7.23
302.761	-16.77
302.894	-8.77
303.027	7.23
303.161	0.23
303.294	-15.77
303.427	16.23
303.56	-17.77
303.693	1.23
303.826	7.23
303.959	4.23
304.092	-12.77
304.225	-8.77
304.359	1.23
304.492	11.23
304.625	1.23
304.758	8.23
304.891	-6.77
305.024	-6.77
305.157	5.23
305.29	-17.77
305.423	3.23
305.556	9.23
305.689	10.23
305.822	0.23
305.955	13.23
306.088	6.23
306.221	15.23
306.354	-0.77
306.487	-27.77
306.62	8.23
306.752	-29.77
306.885	-7.77
307.018	2.23
307.151	3.23
307.284	11.23
307.417	0.23
307.55	2.23
307.683	-20.77
307.816	-13.77
307.948	-2.77
308.081	10.23
308.214	1.23
308.347	8.23
308.48	6.23
308.613	-19.77
308.745	-1.77
308.878	-16.77
309.011	-2.77
309.144	4.23
309.277	21.23
309.409	17.23
309.542	-7.77
309.675	-7.77
309.808	0.23
309.94	8.23
310.073	-22.77
310.206	-2.77
310.339	9.23
310.471	-16.77
310.604	8.23
310.737	-26.77
310.869	-14.77
311.002	-17.77
311.135	-17.77
311.267	-6.77
311.4	7.23
311.533	30.23
311.665	-18.77
311.798	-6.77
311.93	-2.77
312.063	23.23
312.196	28.23
312.328	63.23
312.461	53.23
312.593	25.23
312.726	64.23
312.859	88.23
312.991	173.23
313.124	40.23
313.256	25.23
313.389	-0.77
313.521	-20.77
313.654	-5.77
313.786	-14.77
313.919	8.23
314.051	13.23
314.184	14.23
314.316	7.23
314.449	2.23
314.581	11.23
314.714	-2.77
314.846	-5.77
314.978	-8.77
315.111	-15.77
315.243	-21.77
315.376	-4.77
315.508	5.23
315.641	-7.77
315.773	8.23
315.905	6.23
316.038	-14.77
316.17	5.23
316.302	-17.77
316.435	-7.77
316.567	-13.77
316.699	8.23
316.832	-8.77
316.964	-13.77
317.096	-6.77
317.229	-10.77
317.361	-8.77
317.493	11.23
317.625	-15.77
317.758	-2.77
317.89	9.23
318.022	16.23
318.155	6.23
318.287	-5.77
318.419	1.23
318.551	-7.77
318.683	-6.77
318.816	11.23
318.948	-0.77
319.08	-16.77
319.212	0.23
319.344	18.23
319.477	-12.77
319.609	1.23
319.741	1.23
319.873	-5.77
320.005	-10.77
320.137	-7.77
320.269	0.23
320.401	12.23
320.534	4.23
320.666	-14.77
320.798	-19.77
320.93	-9.77
321.062	-24.77
321.194	0.23
321.326	-5.77
321.458	23.23
321.59	1.23
321.722	-4.77
321.854	-13.77
321.986	24.23
322.118	-12.77
322.25	4.23
322.382	-9.77
322.514	-19.77
322.646	-14.77
322.778	15.23
322.91	-16.77
323.042	-5.77
323.174	-9.77
323.306	-6.77
323.438	-2.77
323.57	-6.77
323.702	7.23
323.834	-0.77
323.966	-12.77
324.097	7.23
324.229	21.23
324.361	4.23
324.493	-11.77
324.625	-6.77
324.757	17.23
324.889	-16.77
325.021	9.23
325.152	16.23
325.284	9.23
325.416	2.23
325.548	25.23
325.68	-8.77
325.811	1.23
325.943	-5.77
326.075	-15.77
326.207	17.23
326.339	1.23
326.47	17.23
326.602	15.23
326.734	13.23
326.866	7.23
326.997	-5.77
327.129	-4.77
327.261	-23.77
327.392	-14.77
327.524	-0.77
327.656	-13.77
327.787	17.23
327.919	0.23
328.051	2.23
328.182	18.23
328.314	17.23
328.446	5.23
328.577	39.23
328.709	17.23
328.841	-5.77
328.972	-3.77
329.104	-4.77
329.235	7.23
329.367	-9.77
329.499	4.23
329.63	7.23
329.762	-7.77
329.893	10.23
330.025	-10.77
330.156	-10.77
330.288	3.23
330.419	12.23
330.551	18.23
330.683	9.23
330.814	7.23
330.946	7.23
331.077	-12.77
331.208	-12.77
331.34	2.23
331.471	4.23
331.603	-5.77
331.734	-14.77
331.866	0.23
331.997	10.23
332.129	-4.77
332.26	-8.77
332.392	23.23
332.523	-5.77
332.654	-11.77
332.786	2.23
332.917	-9.77
333.048	18.23
333.18	29.23
333.311	-0.77
333.443	18.23
333.574	22.23
333.705	38.23
333.837	34.23
333.968	131.23
334.099	232.23
334.231	208.23
334.362	40.23
334.493	23.23
334.624	18.23
334.756	-0.77
334.887	17.23
335.018	-2.77
335.15	16.23
335.281	-3.77
335.412	18.23
335.543	20.23
335.675	25.23
335.806	9.23
335.937	3.23
336.068	2.23
336.199	25.23
336.331	-16.77
336.462	-3.77
336.593	12.23
336.724	-6.77
336.855	0.23
336.986	24.23
337.118	6.23
337.249	31.23
337.38	14.23
337.511	5.23
337.642	3.23
337.773	13.23
337.904	1.23
338.035	9.23
338.166	-14.77
338.298	12.23
338.429	-4.77
338.56	17.23
338.691	16.23
338.822	16.23
338.953	14.23
339.084	15.23
339.215	6.23
339.346	16.23
339.477	12.23
339.608	-2.77
339.739	0.23
339.87	4.23
340.001	-4.77
340.132	1.23
340.263	-1.77
340.394	21.23
340.525	4.23
340.656	-12.77
340.787	-7.77
340.918	16.23
341.049	7.23
341.179	9.23
341.31	4.23
341.441	15.23
341.572	3.23
341.703	22.23
341.834	4.23
341.965	22.23
342.096	15.23
342.227	-2.77
342.357	13.23
342.488	-1.77
342.619	28.23
342.75	23.23
342.881	-11.77
343.012	49.23
343.142	37.23
343.273	2.23
343.404	25.23
343.535	58.23
343.666	35.23
343.796	28.23
343.927	17.23
344.058	21.23
344.189	30.23
344.319	23.23
344.45	12.23
344.581	20.23
344.712	5.23
344.842	25.23
344.973	14.23
345.104	31.23
345.234	3.23
345.365	9.23
345.496	22.23
345.626	44.23
345.757	12.23
345.888	9.23
346.018	35.23
346.149	27.23
346.28	29.23
346.41	21.23
346.541	22.23
346.672	18.23
346.802	32.23
346.933	4.23
347.063	9.23
347.194	24.23
347.325	12.23
347.455	41.23
347.586	9.23
347.716	9.23
347.847	38.23
347.977	20.23
348.108	46.23
348.238	22.23
348.369	25.23
348.499	35.23
348.63	35.23
348.76	43.23
348.891	49.23
349.021	53.23
349.152	45.23
349.282	48.23
349.413	47.23
349.543	53.23
349.674	31.23
349.804	20.23
349.935	20.23
350.065	17.23
350.196	18.23
350.326	21.23
350.456	19.23
350.587	33.23
350.717	22.23
350.848	44.23
350.978	31.23
351.108	11.23
351.239	39.23
351.369	7.23
351.499	22.23
351.63	34.23
351.76	21.23
351.89	17.23
352.021	16.23
352.151	26.23
352.281	23.23
352.412	38.23
352.542	7.23
352.672	13.23
352.803	16.23
352.933	20.23
353.063	24.23
353.193	38.23
353.324	5.23
353.454	37.23
353.584	43.23
353.714	31.23
353.845	13.23
353.975	1.23
354.105	-0.77
354.235	11.23
354.365	24.23
354.496	9.23
354.626	23.23
354.756	17.23
354.886	8.23
355.016	19.23
355.146	-2.77
355.277	28.23
355.407	-2.77
355.537	22.23
355.667	21.23
355.797	27.23
355.927	9.23
356.057	26.23
356.187	14.23
356.318	21.23
356.448	13.23
356.578	33.23
356.708	18.23
356.838	10.23
356.968	39.23
357.098	32.23
357.228	33.23
357.358	24.23
357.488	28.23
357.618	41.23
357.748	51.23
357.878	25.23
358.008	30.23
358.138	26.23
358.268	40.23
358.398	20.23
358.528	0.23
358.658	13.23
358.788	27.23
358.918	10.23
359.048	33.23
359.178	51.23
359.308	34.23
359.438	40.23
359.568	25.23
359.698	19.23
359.827	8.23
359.957	26.23
360.087	37.23
360.217	18.23
360.347	40.23
360.477	35.23
360.607	16.23
360.737	37.23
360.866	1.23
360.996	5.23
361.126	14.23
361.256	38.23
361.386	26.23
361.516	51.23
361.645	20.23
361.775	34.23
361.905	15.23
362.035	25.23
362.165	27.23
362.294	44.23
362.424	45.23
362.554	41.23
362.684	51.23
362.813	35.23
362.943	51.23
363.073	38.23
363.203	45.23
363.332	63.23
363.462	77.23
363.592	108.23
363.721	121.23
363.851	143.23
363.981	193.23
364.111	245.23
364.24	303.23
364.37	471.23
364.5	833.23
364.629	1773.23
364.759	3874.23
364.888	6216.23
365.018	9364.23
365.148	14780.23
365.277	12952.23
365.407	4763.23
365.537	3096.23
365.666	3987.23
365.796	1811.23
365.925	788.23
366.055	760.23
366.184	1043.23
366.314	1379.23
366.444	2488.23
366.573	2105.23
366.703	648.23
366.832	207.23
366.962	113.23
367.091	79.23
367.221	80.23
367.35	47.23
367.48	80.23
367.609	55.23
367.739	47.23
367.868	29.23
367.998	37.23
368.127	56.23
368.257	29.23
368.386	47.23
368.516	52.23
368.645	12.23
368.775	41.23
368.904	30.23
369.033	26.23
369.163	12.23
369.292	30.23
369.422	41.23
369.551	50.23
369.68	24.23
369.81	37.23
369.939	13.23
370.069	43.23
370.198	36.23
370.327	30.23
370.457	41.23
370.586	49.23
370.715	17.23
370.845	28.23
370.974	42.23
371.103	58.23
371.233	41.23
371.362	42.23
371.491	17.23
371.621	40.23
371.75	33.23
371.879	39.23
372.008	41.23
372.138	61.23
372.267	52.23
372.396	53.23
372.525	35.23
372.655	40.23
372.784	6.23
372.913	23.23
373.042	35.23
373.172	28.23
373.301	2.23
373.43	4.23
373.559	10.23
373.688	23.23
373.818	42.23
373.947	26.23
374.076	19.23
374.205	22.23
374.334	5.23
374.463	-5.77
374.593	21.23
374.722	31.23
374.851	40.23
374.98	5.23
375.109	10.23
375.238	26.23
375.367	45.23
375.496	13.23
375.625	-4.77
375.755	33.23
375.884	27.23
376.013	28.23
376.142	7.23
376.271	1.23
376.4	25.23
376.529	16.23
376.658	32.23
376.787	16.23
376.916	3.23
377.045	15.23
377.174	7.23
377.303	12.23
377.432	32.23
377.561	35.23
377.69	13.23
377.819	40.23
377.948	28.23
378.077	12.23
378.206	-0.77
378.335	16.23
378.464	-16.77
378.593	19.23
378.722	3.23
378.851	16.23
378.98	16.23
379.108	7.23
379.237	16.23
379.366	14.23
379.495	29.23
379.624	30.23
379.753	4.23
379.882	18.23
380.011	12.23
380.14	3.23
380.268	22.23
380.397	1.23
380.526	33.23
380.655	7.23
380.784	-9.77
380.913	4.23
381.041	14.23
381.17	7.23
381.299	3.23
381.428	15.23
381.557	14.23
381.685	19.23
381.814	1.23
381.943	9.23
382.072	-5.77
382.2	7.23
382.329	-0.77
382.458	13.23
382.587	38.23
382.715	21.23
382.844	15.23
382.973	11.23
383.102	14.23
383.23	6.23
383.359	9.23
383.488	16.23
383.616	6.23
383.745	4.23
383.874	8.23
384.003	-3.77
384.131	6.23
384.26	4.23
384.389	14.23
384.517	0.23
384.646	10.23
384.774	10.23
384.903	27.23
385.032	43.23
385.16	28.23
385.289	17.23
385.418	24.23
385.546	23.23
385.675	17.23
385.803	7.23
385.932	5.23
386.06	-3.77
386.189	20.23
386.318	1.23
386.446	16.23
386.575	35.23
386.703	19.23
386.832	15.23
386.96	0.23
387.089	17.23
387.217	11.23
387.346	6.23
387.474	-2.77
387.603	8.23
387.731	12.23
387.86	35.23
387.988	5.23
388.117	44.23
388.245	32.23
388.374	-4.77
388.502	10.23
388.631	14.23
388.759	27.23
388.888	18.23
389.016	21.23
389.144	25.23
389.273	-0.77
389.401	26.23
389.53	11.23
389.658	21.23
389.786	7.23
389.915	20.23
390.043	17.23
390.172	14.23
390.3	36.23
390.428	31.23
390.557	38.23
390.685	38.23
390.813	60.23
390.942	48.23
391.07	39.23
391.198	-7.77
391.327	-4.77
391.455	4.23
391.583	24.23
391.712	16.23
391.84	15.23
391.968	-2.77
392.096	15.23
392.225	0.23
392.353	22.23
392.481	43.23
392.609	39.23
392.738	15.23
392.866	23.23
392.994	6.23
393.122	11.23
393.251	12.23
393.379	4.23
393.507	1.23
393.635	13.23
393.764	7.23
393.892	22.23
394.02	7.23
394.148	23.23
394.276	25.23
394.404	56.23
394.533	9.23
394.661	11.23
394.789	25.23
394.917	19.23
395.045	3.23
395.173	12.23
395.302	15.23
395.43	26.23
395.558	39.23
395.686	31.23
395.814	36.23
395.942	12.23
396.07	31.23
396.198	33.23
396.326	19.23
396.454	38.23
396.582	30.23
396.711	26.23
396.839	24.23
396.967	15.23
397.095	37.23
397.223	39.23
397.351	52.23
397.479	56.23
397.607	36.23
397.735	28.23
397.863	48.23
397.991	51.23
398.119	28.23
398.247	50.23
398.375	39.23
398.503	41.23
398.631	33.23
398.759	49.23
398.887	45.23
399.015	47.23
399.143	66.23
399.271	65.23
399.399	55.23
399.526	71.23
399.654	73.23
399.782	72.23
399.91	100.23
400.038	97.23
400.166	86.23
400.294	76.23
400.422	80.23
400.55	87.23
400.678	123.23
400.805	118.23
400.933	114.23
401.061	128.23
401.189	131.23
401.317	130.23
401.445	77.23
401.573	67.23
401.7	61.23
401.828	44.23
401.956	40.23
402.084	30.23
402.212	33.23
402.34	20.23
402.467	49.23
402.595	45.23
402.723	48.23
402.851	57.23
402.978	32.23
403.106	61.23
403.234	80.23
403.362	135.23
403.489	133.23
403.617	147.23
403.745	193.23
403.873	263.23
404	543.23
404.128	1468.23
404.256	3846.23
404.384	5036.23
404.511	5415.23
404.639	7163.23
404.767	11482.23
404.894	14638.23
405.022	4857.23
405.15	1291.23
405.277	419.23
405.405	227.23
405.533	121.23
405.66	121.23
405.788	75.23
405.916	57.23
406.043	51.23
406.171	36.23
406.299	40.23
406.426	49.23
406.554	53.23
406.681	65.23
406.809	30.23
406.937	46.23
407.064	55.23
407.192	133.23
407.319	299.23
407.447	506.23
407.574	528.23
407.702	651.23
407.83	839.23
407.957	1613.23
408.085	950.23
408.212	282.23
408.34	110.23
408.467	38.23
408.595	34.23
408.722	36.23
408.85	58.23
408.977	28.23
409.105	23.23
409.232	24.23
409.36	40.23
409.487	17.23
409.615	21.23
409.742	25.23
409.87	29.23
409.997	37.23
410.125	22.23
410.252	38.23
410.379	32.23
410.507	27.23
410.634	22.23
410.762	11.23
410.889	32.23
411.017	37.23
411.144	10.23
411.271	3.23
411.399	-0.77
411.526	21.23
411.653	32.23
411.781	38.23
411.908	46.23
412.036	33.23
412.163	29.23
412.29	27.23
412.418	24.23
412.545	18.23
412.672	8.23
412.8	32.23
412.927	30.23
413.054	51.23
413.182	30.23
413.309	33.23
413.436	5.23
413.564	20.23
413.691	40.23
413.818	26.23
413.945	10.23
414.073	-0.77
414.2	26.23
414.327	36.23
414.454	11.23
414.582	17.23
414.709	0.23
414.836	20.23
414.963	28.23
415.091	47.23
415.218	33.23
415.345	28.23
415.472	26.23
415.6	31.23
415.727	19.23
415.854	46.23
415.981	22.23
416.108	26.23
416.236	22.23
416.363	29.23
416.49	27.23
416.617	25.23
416.744	35.23
416.871	40.23
416.998	17.23
417.126	21.23
417.253	10.23
417.38	13.23
417.507	33.23
417.634	31.23
417.761	37.23
417.888	32.23
418.015	21.23
418.143	39.23
418.27	44.23
418.397	26.23
418.524	23.23
418.651	21.23
418.778	26.23
418.905	38.23
419.032	44.23
419.159	16.23
419.286	65.23
419.413	56.23
419.54	56.23
419.667	21.23
419.794	31.23
419.921	33.23
420.048	47.23
420.175	37.23
420.302	37.23
420.429	54.23
420.556	35.23
420.683	44.23
420.81	47.23
420.937	76.23
421.064	72.23
421.191	48.23
421.318	64.23
421.445	79.23
421.572	60.23
421.699	54.23
421.826	34.23
421.953	19.23
422.08	34.23
422.207	25.23
422.334	11.23
422.461	25.23
422.588	16.23
422.714	28.23
422.841	35.23
422.968	28.23
423.095	19.23
423.222	-3.77
423.349	10.23
423.476	9.23
423.603	10.23
423.729	10.23
423.856	18.23
423.983	28.23
424.11	6.23
424.237	17.23
424.364	21.23
424.491	20.23
424.617	-0.77
424.744	1.23
424.871	15.23
424.998	11.23
425.125	2.23
425.251	9.23
425.378	15.23
425.505	18.23
425.632	16.23
425.758	7.23
425.885	29.23
426.012	26.23
426.139	37.23
426.266	15.23
426.392	11.23
426.519	42.23
426.646	16.23
426.772	20.23
426.899	-4.77
427.026	21.23
427.153	22.23
427.279	29.23
427.406	20.23
427.533	2.23
427.659	19.23
427.786	18.23
427.913	19.23
428.039	11.23
428.166	13.23
428.293	15.23
428.419	25.23
428.546	30.23
428.673	16.23
428.799	7.23
428.926	23.23
429.053	31.23
429.179	29.23
429.306	26.23
429.433	34.23
429.559	25.23
429.686	7.23
429.812	4.23
429.939	3.23
430.066	13.23
430.192	21.23
430.319	26.23
430.445	24.23
430.572	8.23
430.699	-1.77
430.825	24.23
430.952	26.23
431.078	24.23
431.205	41.23
431.331	35.23
431.458	43.23
431.584	29.23
431.711	25.23
431.837	20.23
431.964	10.23
432.09	27.23
432.217	3.23
432.343	23.23
432.47	41.23
432.596	36.23
432.723	23.23
432.849	22.23
432.976	24.23
433.102	38.23
433.229	16.23
433.355	49.23
433.482	79.23
433.608	95.23
433.735	90.23
433.861	105.23
433.987	149.23
434.114	200.23
434.24	189.23
434.367	208.23
434.493	216.23
434.62	289.23
434.746	374.23
434.872	641.23
434.999	806.23
435.125	1717.23
435.252	5490.23
435.378	13403.23
435.504	15182.23
435.631	15407.23
435.757	15678.23
435.883	15678.23
436.01	15678.23
436.136	15678.23
436.262	15678.23
436.389	3454.23
436.515	2091.23
436.641	793.23
436.768	639.23
436.894	402.23
437.02	380.23
437.147	284.23
437.273	275.23
437.399	220.23
437.526	271.23
437.652	183.23
437.778	188.23
437.904	124.23
438.031	157.23
438.157	136.23
438.283	130.23
438.409	116.23
438.536	125.23
438.662	131.23
438.788	106.23
438.914	94.23
439.041	111.23
439.167	115.23
439.293	88.23
439.419	71.23
439.546	107.23
439.672	74.23
439.798	82.23
439.924	85.23
440.05	93.23
440.177	67.23
440.303	82.23
440.429	41.23
440.555	67.23
440.681	63.23
440.807	89.23
440.934	49.23
441.06	52.23
441.186	53.23
441.312	47.23
441.438	68.23
441.564	52.23
441.69	68.23
441.816	73.23
441.943	33.23
442.069	53.23
442.195	45.23
442.321	64.23
442.447	35.23
442.573	47.23
442.699	42.23
442.825	37.23
442.951	48.23
443.077	47.23
443.203	48.23
443.33	28.23
443.456	16.23
443.582	36.23
443.708	25.23
443.834	39.23
443.96	33.23
444.086	42.23
444.212	47.23
444.338	41.23
444.464	53.23
444.59	50.23
444.716	34.23
444.842	35.23
444.968	39.23
445.094	41.23
445.22	44.23
445.346	39.23
445.472	34.23
445.598	32.23
445.724	29.23
445.85	40.23
445.976	27.23
446.102	41.23
446.228	38.23
446.354	35.23
446.48	29.23
446.605	41.23
446.731	31.23
446.857	24.23
446.983	30.23
447.109	21.23
447.235	26.23
447.361	27.23
447.487	34.23
447.613	37.23
447.739	25.23
447.865	24.23
447.99	44.23
448.116	40.23
448.242	58.23
448.368	19.23
448.494	14.23
448.62	18.23
448.746	49.23
448.872	24.23
448.997	-6.77
449.123	11.23
449.249	31.23
449.375	39.23
449.501	14.23
449.627	21.23
449.752	40.23
449.878	12.23
450.004	14.23
450.13	40.23
450.256	5.23
450.381	33.23
450.507	29.23
450.633	24.23
450.759	33.23
450.884	13.23
451.01	17.23
451.136	20.23
451.262	11.23
451.388	19.23
451.513	14.23
451.639	18.23
451.765	28.23
451.89	40.23
452.016	30.23
452.142	20.23
452.268	36.23
452.393	31.23
452.519	22.23
452.645	29.23
452.771	20.23
452.896	13.23
453.022	29.23
453.148	30.23
453.273	21.23
453.399	39.23
453.525	6.23
453.65	5.23
453.776	13.23
453.902	36.23
454.027	40.23
454.153	14.23
454.279	37.23
454.404	31.23
454.53	42.23
454.656	47.23
454.781	14.23
454.907	17.23
455.032	36.23
455.158	38.23
455.284	42.23
455.409	21.23
455.535	29.23
455.66	29.23
455.786	13.23
455.912	21.23
456.037	10.23
456.163	28.23
456.288	40.23
456.414	0.23
456.539	3.23
456.665	31.23
456.791	24.23
456.916	20.23
457.042	36.23
457.167	9.23
457.293	36.23
457.418	22.23
457.544	11.23
457.669	8.23
457.795	24.23
457.92	21.23
458.046	17.23
458.171	26.23
458.297	7.23
458.422	7.23
458.548	20.23
458.673	15.23
458.799	16.23
458.924	-3.77
459.05	21.23
459.175	20.23
459.301	14.23
459.426	25.23
459.552	16.23
459.677	11.23
459.803	38.23
459.928	23.23
460.053	9.23
460.179	16.23
460.304	36.23
460.43	22.23
460.555	14.23
460.681	24.23
460.806	23.23
460.931	41.23
461.057	30.23
461.182	25.23
461.308	23.23
461.433	22.23
461.558	11.23
461.684	31.23
461.809	27.23
461.934	18.23
462.06	30.23
462.185	7.23
462.311	27.23
462.436	15.23
462.561	31.23
462.687	9.23
462.812	8.23
462.937	20.23
463.063	12.23
463.188	-5.77
463.313	36.23
463.439	10.23
463.564	14.23
463.689	11.23
463.814	20.23
463.94	11.23
464.065	18.23
464.19	42.23
464.316	10.23
464.441	21.23
464.566	-9.77
464.692	13.23
464.817	16.23
464.942	22.23
465.067	16.23
465.193	5.23
465.318	6.23
465.443	21.23
465.568	18.23
465.694	20.23
465.819	19.23
465.944	25.23
466.069	35.23
466.194	36.23
466.32	17.23
466.445	18.23
466.57	15.23
466.695	21.23
466.82	29.23
466.946	27.23
467.071	17.23
467.196	20.23
467.321	26.23
467.446	38.23
467.572	43.23
467.697	27.23
467.822	44.23
467.947	41.23
468.072	28.23
468.197	33.23
468.323	16.23
468.448	32.23
468.573	5.23
468.698	19.23
468.823	32.23
468.948	31.23
469.073	32.23
469.198	47.23
469.324	43.23
469.449	25.23
469.574	48.23
469.699	59.23
469.824	34.23
469.949	12.23
470.074	39.23
470.199	49.23
470.324	48.23
470.449	31.23
470.574	32.23
470.7	13.23
470.825	43.23
470.95	45.23
471.075	36.23
471.2	36.23
471.325	56.23
471.45	50.23
471.575	8.23
471.7	25.23
471.825	8.23
471.95	24.23
472.075	26.23
472.2	19.23
472.325	18.23
472.45	16.23
472.575	8.23
472.7	24.23
472.825	25.23
472.95	34.23
473.075	24.23
473.2	33.23
473.325	24.23
473.45	24.23
473.575	20.23
473.7	40.23
473.825	2.23
473.95	36.23
474.075	14.23
474.2	3.23
474.325	11.23
474.45	27.23
474.574	20.23
474.699	12.23
474.824	15.23
474.949	15.23
475.074	15.23
475.199	29.23
475.324	29.23
475.449	32.23
475.574	28.23
475.699	9.23
475.824	23.23
475.949	11.23
476.073	9.23
476.198	15.23
476.323	15.23
476.448	14.23
476.573	5.23
476.698	30.23
476.823	22.23
476.947	25.23
477.072	5.23
477.197	25.23
477.322	20.23
477.447	10.23
477.572	18.23
477.697	24.23
477.821	-2.77
477.946	30.23
478.071	33.23
478.196	18.23
478.321	7.23
478.445	11.23
478.57	7.23
478.695	13.23
478.82	12.23
478.945	13.23
479.069	3.23
479.194	12.23
479.319	8.23
479.444	9.23
479.569	-4.77
479.693	14.23
479.818	-2.77
479.943	13.23
480.068	4.23
480.192	35.23
480.317	7.23
480.442	17.23
480.567	12.23
480.691	11.23
480.816	7.23
480.941	9.23
481.066	15.23
481.19	40.23
481.315	29.23
481.44	6.23
481.564	9.23
481.689	33.23
481.814	33.23
481.938	8.23
482.063	-7.77
482.188	15.23
482.313	15.23
482.437	2.23
482.562	10.23
482.687	29.23
482.811	21.23
482.936	9.23
483.061	17.23
483.185	3.23
483.31	1.23
483.435	19.23
483.559	30.23
483.684	14.23
483.808	30.23
483.933	17.23
484.058	11.23
484.182	26.23
484.307	27.23
484.432	15.23
484.556	9.23
484.681	24.23
484.805	24.23
484.93	-5.77
485.055	24.23
485.179	44.23
485.304	16.23
485.428	12.23
485.553	20.23
485.678	7.23
485.802	14.23
485.927	40.23
486.051	40.23
486.176	25.23
486.3	0.23
486.425	17.23
486.549	27.23
486.674	11.23
486.799	-11.77
486.923	12.23
487.048	9.23
487.172	29.23
487.297	8.23
487.421	6.23
487.546	12.23
487.67	25.23
487.795	-5.77
487.919	11.23
488.044	18.23
488.168	25.23
488.293	17.23
488.417	2.23
488.542	13.23
488.666	31.23
488.791	24.23
488.915	9.23
489.04	27.23
489.164	23.23
489.289	37.23
489.413	28.23
489.538	22.23
489.662	21.23
489.786	4.23
489.911	24.23
490.035	15.23
490.16	15.23
490.284	7.23
490.409	6.23
490.533	9.23
490.658	45.23
490.782	21.23
490.906	46.23
491.031	116.23
491.155	143.23
491.28	148.23
491.404	162.23
491.528	240.23
491.653	141.23
491.777	62.23
491.902	34.23
492.026	34.23
492.15	21.23
492.275	40.23
492.399	44.23
492.524	11.23
492.648	28.23
492.772	25.23
492.897	30.23
493.021	15.23
493.145	31.23
493.27	18.23
493.394	22.23
493.518	11.23
493.643	10.23
493.767	23.23
493.891	3.23
494.016	31.23
494.14	14.23
494.264	8.23
494.389	28.23
494.513	5.23
494.637	1.23
494.762	26.23
494.886	28.23
495.01	13.23
495.134	25.23
495.259	19.23
495.383	24.23
495.507	20.23
495.632	45.23
495.756	45.23
495.88	4.23
496.004	16.23
496.129	4.23
496.253	26.23
496.377	3.23
496.501	27.23
496.626	6.23
496.75	13.23
496.874	23.23
496.998	20.23
497.123	35.23
497.247	10.23
497.371	18.23
497.495	24.23
497.62	20.23
497.744	3.23
497.868	15.23
497.992	17.23
498.116	-13.77
498.241	21.23
498.365	3.23
498.489	-3.77
498.613	40.23
498.737	18.23
498.862	31.23
498.986	8.23
499.11	0.23
499.234	12.23
499.358	10.23
499.482	16.23
499.607	13.23
499.731	18.23
499.855	29.23
499.979	20.23
500.103	21.23
500.227	25.23
500.351	33.23
500.476	19.23
500.6	6.23
500.724	36.23
500.848	7.23
500.972	8.23
501.096	22.23
501.22	39.23
501.344	24.23
501.469	8.23
501.593	9.23
501.717	31.23
501.841	12.23
501.965	18.23
502.089	13.23
502.213	19.23
502.337	13.23
502.461	8.23
502.585	28.23
502.709	29.23
502.834	-13.77
502.958	6.23
503.082	11.23
503.206	17.23
503.33	29.23
503.454	29.23
503.578	12.23
503.702	22.23
503.826	24.23
503.95	20.23
504.074	15.23
504.198	6.23
504.322	16.23
504.446	24.23
504.57	19.23
504.694	19.23
504.818	16.23
504.942	35.23
505.066	20.23
505.19	11.23
505.314	32.23
505.438	4.23
505.562	-10.77
505.686	39.23
505.81	15.23
505.934	24.23
506.058	23.23
506.182	17.23
506.306	14.23
506.43	12.23
506.554	0.23
506.678	23.23
506.802	12.23
506.926	27.23
507.05	20.23
507.174	27.23
507.298	28.23
507.422	31.23
507.546	17.23
507.67	34.23
507.794	-7.77
507.918	1.23
508.042	19.23
508.165	7.23
508.289	19.23
508.413	21.23
508.537	14.23
508.661	8.23
508.785	14.23
508.909	26.23
509.033	28.23
509.157	18.23
509.281	16.23
509.405	23.23
509.528	38.23
509.652	43.23
509.776	22.23
509.9	51.23
510.024	21.23
510.148	29.23
510.272	35.23
510.396	26.23
510.519	23.23
510.643	47.23
510.767	33.23
510.891	33.23
511.015	19.23
511.139	32.23
511.263	43.23
511.386	28.23
511.51	27.23
511.634	43.23
511.758	34.23
511.882	15.23
512.006	35.23
512.129	41.23
512.253	82.23
512.377	76.23
512.501	72.23
512.625	63.23
512.748	104.23
512.872	75.23
512.996	43.23
513.12	43.23
513.244	57.23
513.367	76.23
513.491	63.23
513.615	84.23
513.739	70.23
513.862	79.23
513.986	80.23
514.11	97.23
514.234	86.23
514.358	109.23
514.481	109.23
514.605	119.23
514.729	91.23
514.853	117.23
514.976	92.23
515.1	93.23
515.224	114.23
515.348	75.23
515.471	73.23
515.595	95.23
515.719	139.23
515.842	238.23
515.966	282.23
516.09	307.23
516.214	292.23
516.337	344.23
516.461	218.23
516.585	80.23
516.708	35.23
516.832	25.23
516.956	22.23
517.08	1.23
517.203	14.23
517.327	11.23
517.451	23.23
517.574	43.23
517.698	23.23
517.822	20.23
517.945	47.23
518.069	28.23
518.193	43.23
518.316	21.23
518.44	7.23
518.564	0.23
518.687	9.23
518.811	30.23
518.935	59.23
519.058	30.23
519.182	13.23
519.306	9.23
519.429	16.23
519.553	31.23
519.676	27.23
519.8	11.23
519.924	-4.77
520.047	18.23
520.171	17.23
520.294	11.23
520.418	31.23
520.542	10.23
520.665	29.23
520.789	20.23
520.913	9.23
521.036	-0.77
521.16	13.23
521.283	15.23
521.407	7.23
521.53	10.23
521.654	-22.77
521.778	30.23
521.901	21.23
522.025	17.23
522.148	-4.77
522.272	21.23
522.395	15.23
522.519	18.23
522.643	10.23
522.766	19.23
522.89	20.23
523.013	33.23
523.137	7.23
523.26	15.23
523.384	28.23
523.507	27.23
523.631	22.23
523.754	10.23
523.878	1.23
524.002	37.23
524.125	15.23
524.249	14.23
524.372	21.23
524.496	5.23
524.619	3.23
524.743	16.23
524.866	23.23
524.99	21.23
525.113	-0.77
525.237	10.23
525.36	10.23
525.484	26.23
525.607	-4.77
525.731	-11.77
525.854	22.23
525.978	50.23
526.101	10.23
526.224	3.23
526.348	20.23
526.471	17.23
526.595	9.23
526.718	14.23
526.842	10.23
526.965	7.23
527.089	15.23
527.212	9.23
527.336	-3.77
527.459	15.23
527.582	0.23
527.706	16.23
527.829	15.23
527.953	18.23
528.076	13.23
528.2	-0.77
528.323	24.23
528.446	30.23
528.57	25.23
528.693	18.23
528.817	8.23
528.94	20.23
529.064	36.23
529.187	5.23
529.31	21.23
529.434	5.23
529.557	0.23
529.68	4.23
529.804	11.23
529.927	9.23
530.051	21.23
530.174	12.23
530.297	8.23
530.421	30.23
530.544	53.23
530.668	28.23
530.791	1.23
530.914	24.23
531.038	22.23
531.161	12.23
531.284	2.23
531.408	19.23
531.531	12.23
531.654	9.23
531.778	33.23
531.901	-0.77
532.024	28.23
532.148	17.23
532.271	16.23
532.394	7.23
532.518	12.23
532.641	17.23
532.764	23.23
532.888	7.23
533.011	-8.77
533.134	-11.77
533.258	24.23
533.381	0.23
533.504	10.23
533.628	18.23
533.751	15.23
533.874	20.23
533.997	13.23
534.121	12.23
534.244	-3.77
534.367	17.23
534.491	17.23
534.614	7.23
534.737	10.23
534.86	22.23
534.984	-9.77
535.107	-2.77
535.23	15.23
535.354	16.23
535.477	15.23
535.6	8.23
535.723	31.23
535.847	1.23
535.97	-9.77
536.093	0.23
536.216	24.23
536.34	10.23
536.463	6.23
536.586	26.23
536.709	35.23
536.833	8.23
536.956	9.23
537.079	19.23
537.202	27.23
537.325	7.23
537.449	4.23
537.572	18.23
537.695	11.23
537.818	9.23
537.941	-0.77
538.065	21.23
538.188	13.23
538.311	22.23
538.434	23.23
538.558	19.23
538.681	15.23
538.804	3.23
538.927	24.23
539.05	9.23
539.173	-0.77
539.297	0.23
539.42	18.23
539.543	22.23
539.666	25.23
539.789	5.23
539.913	24.23
540.036	11.23
540.159	27.23
540.282	14.23
540.405	27.23
540.528	12.23
540.651	37.23
540.775	11.23
540.898	25.23
541.021	24.23
541.144	33.23
541.267	9.23
541.39	44.23
541.513	38.23
541.637	24.23
541.76	21.23
541.883	26.23
542.006	26.23
542.129	41.23
542.252	34.23
542.375	47.23
542.498	28.23
542.622	39.23
542.745	37.23
542.868	44.23
542.991	49.23
543.114	54.23
543.237	64.23
543.36	47.23
543.483	48.23
543.606	65.23
543.73	79.23
543.853	72.23
543.976	82.23
544.099	108.23
544.222	117.23
544.345	132.23
544.468	170.23
544.591	201.23
544.714	280.23
544.837	344.23
544.96	459.23
545.083	648.23
545.206	1103.23
545.329	2435.23
545.453	10928.23
545.576	15250.23
545.699	15678.23
545.822	15678.23
545.945	15678.23
546.068	15678.23
546.191	15678.23
546.314	15678.23
546.437	15678.23
546.56	15678.23
546.683	15678.23
546.806	15678.23
546.929	15678.23
547.052	15678.23
547.175	15678.23
547.298	15678.23
547.421	15678.23
547.544	15678.23
547.667	3536.23
547.79	2689.23
547.913	1045.23
548.036	867.23
548.159	615.23
548.282	618.23
548.405	466.23
548.528	490.23
548.651	400.23
548.774	400.23
548.897	336.23
549.02	345.23
549.143	309.23
549.266	309.23
549.389	276.23
549.512	268.23
549.635	255.23
549.758	255.23
549.881	219.23
550.004	204.23
550.127	196.23
550.25	196.23
550.373	154.23
550.496	195.23
550.619	173.23
550.742	149.23
550.865	144.23
550.988	149.23
551.111	153.23
551.234	152.23
551.356	120.23
551.479	119.23
551.602	100.23
551.725	124.23
551.848	135.23
551.971	128.23
552.094	131.23
552.217	100.23
552.34	96.23
552.463	105.23
552.586	113.23
552.709	106.23
552.832	95.23
552.955	104.23
553.077	111.23
553.2	99.23
553.323	72.23
553.446	75.23
553.569	90.23
553.692	107.23
553.815	103.23
553.938	101.23
554.061	115.23
554.184	96.23
554.306	74.23
554.429	87.23
554.552	90.23
554.675	75.23
554.798	68.23
554.921	72.23
555.044	74.23
555.167	76.23
555.29	75.23
555.412	64.23
555.535	78.23
555.658	64.23
555.781	62.23
555.904	79.23
556.027	71.23
556.15	85.23
556.272	81.23
556.395	85.23
556.518	71.23
556.641	72.23
556.764	63.23
556.887	74.23
557.01	68.23
557.132	48.23
557.255	52.23
557.378	69.23
557.501	59.23
557.624	62.23
557.747	80.23
557.869	78.23
557.992	82.23
558.115	83.23
558.238	70.23
558.361	84.23
558.483	97.23
558.606	54.23
558.729	44.23
558.852	58.23
558.975	52.23
559.098	54.23
559.22	60.23
559.343	51.23
559.466	52.23
559.589	40.23
559.712	56.23
559.834	65.23
559.957	48.23
560.08	52.23
560.203	42.23
560.325	63.23
560.448	67.23
560.571	57.23
560.694	60.23
560.817	57.23
560.939	56.23
561.062	51.23
561.185	56.23
561.308	50.23
561.43	51.23
561.553	66.23
561.676	57.23
561.799	68.23
561.921	49.23
562.044	58.23
562.167	50.23
562.29	79.23
562.413	65.23
562.535	68.23
562.658	38.23
562.781	56.23
562.903	65.23
563.026	88.23
563.149	124.23
563.272	138.23
563.394	124.23
563.517	88.23
563.64	61.23
563.763	38.23
563.885	48.23
564.008	40.23
564.131	47.23
564.254	27.23
564.376	30.23
564.499	33.23
564.622	26.23
564.744	49.23
564.867	36.23
564.99	35.23
565.113	36.23
565.235	28.23
565.358	37.23
565.481	5.23
565.603	34.23
565.726	34.23
565.849	33.23
565.971	35.23
566.094	30.23
566.217	36.23
566.34	33.23
566.462	36.23
566.585	34.23
566.708	64.23
566.83	45.23
566.953	43.23
567.076	32.23
567.198	35.23
567.321	32.23
567.444	24.23
567.566	15.23
567.689	37.23
567.812	32.23
567.934	40.23
568.057	26.23
568.18	24.23
568.302	16.23
568.425	39.23
568.548	38.23
568.67	36.23
568.793	40.23
568.916	36.23
569.038	35.23
569.161	21.23
569.283	21.23
569.406	26.23
569.529	35.23
569.651	27.23
569.774	30.23
569.897	37.23
570.019	49.23
570.142	45.23
570.265	46.23
570.387	51.23
570.51	39.23
570.632	37.23
570.755	18.23
570.878	18.23
571	34.23
571.123	22.23
571.246	45.23
571.368	35.23
571.491	42.23
571.613	33.23
571.736	27.23
571.859	30.23
571.981	18.23
572.104	14.23
572.226	27.23
572.349	19.23
572.472	41.23
572.594	45.23
572.717	37.23
572.839	30.23
572.962	35.23
573.085	21.23
573.207	15.23
573.33	37.23
573.452	48.23
573.575	34.23
573.697	53.23
573.82	31.23
573.943	27.23
574.065	27.23
574.188	23.23
574.31	32.23
574.433	35.23
574.555	46.23
574.678	35.23
574.801	33.23
574.923	22.23
575.046	27.23
575.168	31.23
575.291	35.23
575.413	28.23
575.536	26.23
575.659	40.23
575.781	41.23
575.904	58.23
576.026	75.23
576.149	80.23
576.271	125.23
576.394	218.23
576.516	523.23
576.639	3594.23
576.761	10139.23
576.884	8780.23
577.007	8702.23
577.129	7923.23
577.252	3697.23
577.374	1283.23
577.497	523.23
577.619	277.23
577.742	155.23
577.864	145.23
577.987	107.23
578.109	119.23
578.232	118.23
578.354	156.23
578.477	184.23
578.599	376.23
578.722	1951.23
578.844	9103.23
578.967	9891.23
579.089	8766.23
579.212	9106.23
579.334	5243.23
579.457	1931.23
579.579	717.23
579.702	328.23
579.824	181.23
579.947	129.23
580.069	88.23
580.192	80.23
580.314	96.23
580.437	75.23
580.559	100.23
580.682	71.23
580.804	65.23
580.927	66.23
581.049	58.23
581.172	43.23
581.294	55.23
581.417	47.23
581.539	49.23
581.662	33.23
581.784	41.23
581.907	35.23
582.029	22.23
582.152	20.23
582.274	47.23
582.396	41.23
582.519	47.23
582.641	3.23
582.764	27.23
582.886	49.23
583.009	17.23
583.131	20.23
583.254	32.23
583.376	48.23
583.499	43.23
583.621	37.23
583.743	41.23
583.866	23.23
583.988	23.23
584.111	24.23
584.233	15.23
584.356	26.23
584.478	20.23
584.601	19.23
584.723	26.23
584.845	45.23
584.968	30.23
585.09	24.23
585.213	41.23
585.335	29.23
585.458	32.23
585.58	16.23
585.702	25.23
585.825	36.23
585.947	34.23
586.07	26.23
586.192	13.23
586.315	33.23
586.437	19.23
586.559	28.23
586.682	9.23
586.804	19.23
586.927	20.23
587.049	31.23
587.171	32.23
587.294	29.23
587.416	37.23
587.539	17.23
587.661	29.23
587.783	28.23
587.906	23.23
588.028	29.23
588.151	15.23
588.273	37.23
588.395	28.23
588.518	20.23
588.64	21.23
588.763	29.23
588.885	20.23
589.007	26.23
589.13	7.23
589.252	10.23
589.375	37.23
589.497	14.23
589.619	46.23
589.742	26.23
589.864	26.23
589.986	29.23
590.109	25.23
590.231	29.23
590.354	22.23
590.476	3.23
590.598	18.23
590.721	2.23
590.843	31.23
590.965	30.23
591.088	21.23
591.21	23.23
591.332	31.23
591.455	21.23
591.577	15.23
591.7	35.23
591.822	27.23
591.944	13.23
592.067	25.23
592.189	17.23
592.311	21.23
592.434	15.23
592.556	42.23
592.678	36.23
592.801	35.23
592.923	23.23
593.045	7.23
593.168	9.23
593.29	-1.77
593.412	27.23
593.535	17.23
593.657	31.23
593.779	19.23
593.902	21.23
594.024	21.23
594.146	30.23
594.269	29.23
594.391	10.23
594.513	23.23
594.636	11.23
594.758	18.23
594.88	27.23
595.003	19.23
595.125	20.23
595.247	29.23
595.37	22.23
595.492	-1.77
595.614	48.23
595.737	28.23
595.859	17.23
595.981	17.23
596.104	14.23
596.226	26.23
596.348	20.23
596.471	19.23
596.593	25.23
596.715	5.23
596.838	1.23
596.96	4.23
597.082	25.23
597.204	12.23
597.327	23.23
597.449	6.23
597.571	17.23
597.694	25.23
597.816	22.23
597.938	21.23
598.061	24.23
598.183	15.23
598.305	20.23
598.427	6.23
598.55	16.23
598.672	25.23
598.794	16.23
598.917	5.23
599.039	11.23
599.161	21.23
599.283	27.23
599.406	28.23
599.528	28.23
599.65	25.23
599.773	15.23
599.895	40.23
600.017	33.23
600.139	21.23
600.262	12.23
600.384	28.23
600.506	32.23
600.628	46.23
600.751	27.23
600.873	24.23
600.995	23.23
601.118	32.23
601.24	13.23
601.362	44.23
601.484	34.23
601.607	30.23
601.729	28.23
601.851	21.23
601.973	16.23
602.096	34.23
602.218	17.23
602.34	19.23
602.462	29.23
602.585	21.23
602.707	12.23
602.829	7.23
602.951	13.23
603.074	7.23
603.196	18.23
603.318	3.23
603.44	36.23
603.563	19.23
603.685	8.23
603.807	14.23
603.929	25.23
604.052	29.23
604.174	11.23
604.296	29.23
604.418	21.23
604.541	34.23
604.663	11.23
604.785	16.23
604.907	12.23
605.03	15.23
605.152	38.23
605.274	5.23
605.396	8.23
605.519	15.23
605.641	22.23
605.763	24.23
605.885	28.23
606.008	19.23
606.13	25.23
606.252	24.23
606.374	16.23
606.496	20.23
606.619	31.23
606.741	1.23
606.863	53.23
606.985	39.23
607.108	32.23
607.23	10.23
607.352	17.23
607.474	21.23
607.596	15.23
607.719	12.23
607.841	23.23
607.963	28.23
608.085	5.23
608.207	40.23
608.33	26.23
608.452	6.23
608.574	12.23
608.696	12.23
608.819	3.23
608.941	13.23
609.063	21.23
609.185	17.23
609.307	22.23
609.43	24.23
609.552	28.23
609.674	25.23
609.796	35.23
609.918	26.23
610.041	1.23
610.163	13.23
610.285	20.23
610.407	16.23
610.529	10.23
610.652	17.23
610.774	18.23
610.896	11.23
611.018	11.23
611.14	9.23
611.263	3.23
611.385	14.23
611.507	16.23
611.629	1.23
611.751	24.23
611.873	47.23
611.996	17.23
612.118	23.23
612.24	19.23
612.362	25.23
612.484	43.23
612.607	30.23
612.729	51.23
612.851	37.23
612.973	7.23
613.095	9.23
613.218	19.23
613.34	20.23
613.462	29.23
613.584	18.23
613.706	24.23
613.828	22.23
613.951	3.23
614.073	17.23
614.195	16.23
614.317	19.23
614.439	31.23
614.561	25.23
614.684	22.23
614.806	16.23
614.928	23.23
615.05	21.23
615.172	29.23
615.294	39.23
615.417	15.23
615.539	-11.77
615.661	3.23
615.783	41.23
615.905	16.23
616.027	11.23
616.15	24.23
616.272	6.23
616.394	23.23
616.516	15.23
616.638	28.23
616.76	19.23
616.883	8.23
617.005	11.23
617.127	6.23
617.249	11.23
617.371	27.23
617.493	42.23
617.615	19.23
617.738	25.23
617.86	25.23
617.982	22.23
618.104	19.23
618.226	-7.77
618.348	6.23
618.471	23.23
618.593	24.23
618.715	20.23
618.837	18.23
618.959	25.23
619.081	20.23
619.203	18.23
619.326	21.23
619.448	19.23
619.57	35.23
619.692	21.23
619.814	24.23
619.936	16.23
620.058	21.23
620.181	17.23
620.303	4.23
620.425	11.23
620.547	8.23
620.669	8.23
620.791	-3.77
620.913	7.23
621.036	13.23
621.158	3.23
621.28	0.23
621.402	17.23
621.524	6.23
621.646	17.23
621.768	6.23
621.891	-0.77
622.013	16.23
622.135	3.23
622.257	2.23
622.379	14.23
622.501	16.23
622.623	7.23
622.745	3.23
622.868	4.23
622.99	12.23
623.112	4.23
623.234	7.23
623.356	27.23
623.478	2.23
623.6	35.23
623.722	13.23
623.845	3.23
623.967	12.23
624.089	15.23
624.211	16.23
624.333	13.23
624.455	24.23
624.577	5.23
624.699	14.23
624.822	19.23
624.944	17.23
625.066	22.23
625.188	16.23
625.31	12.23
625.432	29.23
625.554	24.23
625.676	21.23
625.799	25.23
625.921	4.23
626.043	17.23
626.165	13.23
626.287	-7.77
626.409	12.23
626.531	7.23
626.653	13.23
626.775	19.23
626.898	23.23
627.02	28.23
627.142	47.23
627.264	36.23
627.386	14.23
627.508	4.23
627.63	9.23
627.752	9.23
627.874	14.23
627.997	26.23
628.119	17.23
628.241	25.23
628.363	15.23
628.485	7.23
628.607	15.23
628.729	11.23
628.851	24.23
628.973	27.23
629.096	-8.77
629.218	12.23
629.34	7.23
629.462	13.23
629.584	7.23
629.706	1.23
629.828	8.23
629.95	15.23
630.072	17.23
630.195	18.23
630.317	23.23
630.439	12.23
630.561	19.23
630.683	9.23
630.805	22.23
630.927	1.23
631.049	11.23
631.171	-0.77
631.293	19.23
631.416	20.23
631.538	15.23
631.66	4.23
631.782	18.23
631.904	26.23
632.026	8.23
632.148	16.23
632.27	11.23
632.392	17.23
632.514	12.23
632.637	17.23
632.759	6.23
632.881	-10.77
633.003	4.23
633.125	-0.77
633.247	11.23
633.369	4.23
633.491	11.23
633.613	19.23
633.735	-4.77
633.858	9.23
633.98	8.23
634.102	-3.77
634.224	18.23
634.346	5.23
634.468	16.23
634.59	12.23
634.712	-2.77
634.834	19.23
634.956	-8.77
635.078	-5.77
635.201	11.23
635.323	6.23
635.445	12.23
635.567	-0.77
635.689	8.23
635.811	-3.77
635.933	4.23
636.055	24.23
636.177	9.23
636.299	18.23
636.421	10.23
636.544	-3.77
636.666	15.23
636.788	16.23
636.91	6.23
637.032	11.23
637.154	23.23
637.276	44.23
637.398	28.23
637.52	10.23
637.642	10.23
637.764	21.23
637.887	1.23
638.009	16.23
638.131	15.23
638.253	15.23
638.375	32.23
638.497	16.23
638.619	-5.77
638.741	-5.77
638.863	-1.77
638.985	19.23
639.107	13.23
639.23	6.23
639.352	10.23
639.474	15.23
639.596	4.23
639.718	16.23
639.84	11.23
639.962	17.23
640.084	15.23
640.206	19.23
640.328	20.23
640.45	16.23
640.573	-0.77
640.695	-2.77
640.817	12.23
640.939	23.23
641.061	15.23
641.183	6.23
641.305	5.23
641.427	19.23
641.549	9.23
641.671	15.23
641.793	11.23
641.915	21.23
642.038	8.23
642.16	11.23
642.282	3.23
642.404	2.23
642.526	11.23
642.648	26.23
642.77	13.23
642.892	3.23
643.014	17.23
643.136	10.23
643.258	12.23
643.381	30.23
643.503	1.23
643.625	-3.77
643.747	-1.77
643.869	-10.77
643.991	16.23
644.113	10.23
644.235	11.23
644.357	10.23
644.479	15.23
644.601	12.23
644.723	7.23
644.846	11.23
644.968	10.23
645.09	-1.77
645.212	0.23
645.334	-0.77
645.456	10.23
645.578	16.23
645.7	6.23
645.822	16.23
645.944	3.23
646.066	11.23
646.188	-7.77
646.311	31.23
646.433	25.23
646.555	15.23
646.677	20.23
646.799	17.23
646.921	0.23
647.043	15.23
647.165	-3.77
647.287	19.23
647.409	31.23
647.531	34.23
647.654	6.23
647.776	18.23
647.898	26.23
648.02	-1.77
648.142	4.23
648.264	3.23
648.386	-7.77
648.508	-10.77
648.63	-13.77
648.752	17.23
648.874	2.23
648.997	19.23
649.119	20.23
649.241	22.23
649.363	9.23
649.485	15.23
649.607	-0.77
649.729	3.23
649.851	16.23
649.973	1.23
650.095	7.23
650.217	3.23
650.34	24.23
650.462	29.23
650.584	7.23
650.706	18.23
650.828	13.23
650.95	-9.77
651.072	12.23
651.194	-9.77
651.316	-6.77
651.438	3.23
651.56	15.23
651.683	10.23
651.805	5.23
651.927	4.23
652.049	11.23
652.171	16.23
652.293	4.23
652.415	2.23
652.537	-8.77
652.659	-14.77
652.781	10.23
652.903	-0.77
653.026	6.23
653.148	9.23
653.27	8.23
653.392	11.23
653.514	13.23
653.636	4.23
653.758	11.23
653.88	2.23
654.002	1.23
654.124	-5.77
654.247	9.23
654.369	12.23
654.491	19.23
654.613	9.23
654.735	-5.77
654.857	10.23
654.979	-6.77
655.101	4.23
655.223	25.23
655.345	15.23
655.468	18.23
655.59	21.23
655.712	5.23
655.834	4.23
655.956	31.23
656.078	-0.77
656.2	-4.77
656.322	3.23
656.444	-8.77
656.566	20.23
656.689	9.23
656.811	14.23
656.933	18.23
657.055	-5.77
657.177	1.23
657.299	-2.77
657.421	10.23
657.543	8.23
657.665	-0.77
657.787	-2.77
657.91	-0.77
658.032	-1.77
658.154	-6.77
658.276	22.23
658.398	-14.77
658.52	-1.77
658.642	17.23
658.764	2.23
658.886	5.23
659.009	4.23
659.131	15.23
659.253	21.23
659.375	21.23
659.497	14.23
659.619	23.23
659.741	0.23
659.863	8.23
659.985	-3.77
660.108	-2.77
660.23	-6.77
660.352	0.23
660.474	19.23
660.596	12.23
660.718	20.23
660.84	8.23
660.962	25.23
661.084	3.23
661.207	10.23
661.329	24.23
661.451	5.23
661.573	0.23
661.695	9.23
661.817	13.23
661.939	25.23
662.061	16.23
662.184	8.23
662.306	9.23
662.428	-7.77
662.55	10.23
662.672	-0.77
662.794	15.23
662.916	17.23
663.038	-4.77
663.161	19.23
663.283	-0.77
663.405	8.23
663.527	-15.77
663.649	18.23
663.771	-18.77
663.893	-4.77
664.015	6.23
664.138	0.23
664.26	6.23
664.382	7.23
664.504	6.23
664.626	16.23
664.748	1.23
664.87	-10.77
664.992	12.23
665.115	12.23
665.237	7.23
665.359	0.23
665.481	3.23
665.603	24.23
665.725	6.23
665.847	-7.77
665.97	17.23
666.092	13.23
666.214	8.23
666.336	5.23
666.458	6.23
666.58	12.23
666.702	-14.77
666.825	-6.77
666.947	-12.77
667.069	10.23
667.191	13.23
667.313	15.23
667.435	6.23
667.557	3.23
667.68	5.23
667.802	0.23
667.924	1.23
668.046	4.23
668.168	27.23
668.29	18.23
668.412	15.23
668.535	6.23
668.657	11.23
668.779	1.23
668.901	3.23
669.023	11.23
669.145	9.23
669.267	12.23
669.39	-3.77
669.512	8.23
669.634	8.23
669.756	4.23
669.878	7.23
670	0.23
670.123	1.23
670.245	30.23
670.367	21.23
670.489	13.23
670.611	0.23
670.733	1.23
670.856	0.23
670.978	19.23
671.1	22.23
671.222	1.23
671.344	15.23
671.466	3.23
671.589	-2.77
671.711	21.23
671.833	4.23
671.955	-15.77
672.077	-12.77
672.199	19.23
672.322	27.23
672.444	-0.77
672.566	7.23
672.688	0.23
672.81	26.23
672.932	22.23
673.055	21.23
673.177	-15.77
673.299	9.23
673.421	-7.77
673.543	1.23
673.665	22.23
673.788	11.23
673.91	7.23
674.032	1.23
674.154	15.23
674.276	11.23
674.399	11.23
674.521	-7.77
674.643	12.23
674.765	-12.77
674.887	5.23
675.009	13.23
675.132	3.23
675.254	2.23
675.376	0.23
675.498	-0.77
675.62	16.23
675.743	6.23
675.865	13.23
675.987	1.23
676.109	4.23
676.231	12.23
676.354	39.23
676.476	1.23
676.598	26.23
676.72	3.23
676.842	5.23
676.965	-2.77
677.087	5.23
677.209	19.23
677.331	11.23
677.453	9.23
677.576	4.23
677.698	24.23
677.82	3.23
677.942	-12.77
678.064	-0.77
678.187	3.23
678.309	-9.77
678.431	-9.77
678.553	11.23
678.675	22.23
678.798	11.23
678.92	25.23
679.042	0.23
679.164	15.23
679.286	23.23
679.409	7.23
679.531	7.23
679.653	17.23
679.775	3.23
679.898	9.23
680.02	4.23
680.142	2.23
680.264	18.23
680.386	-7.77
680.509	7.23
680.631	8.23
680.753	-2.77
680.875	-0.77
680.998	11.23
681.12	18.23
681.242	11.23
681.364	10.23
681.486	2.23
681.609	4.23
681.731	-22.77
681.853	-14.77
681.975	-12.77
682.098	7.23
682.22	18.23
682.342	8.23
682.464	17.23
682.587	-8.77
682.709	7.23
682.831	8.23
682.953	1.23
683.076	-13.77
683.198	15.23
683.32	11.23
683.442	15.23
683.565	10.23
683.687	-0.77
683.809	12.23
683.931	-0.77
684.054	11.23
684.176	2.23
684.298	13.23
684.42	-4.77
684.543	5.23
684.665	12.23
684.787	-4.77
684.909	11.23
685.032	41.23
685.154	-15.77
685.276	0.23
685.398	-14.77
685.521	-6.77
685.643	2.23
685.765	7.23
685.887	19.23
686.01	17.23
686.132	9.23
686.254	20.23
686.377	14.23
686.499	15.23
686.621	11.23
686.743	20.23
686.866	7.23
686.988	18.23
687.11	8.23
687.232	15.23
687.355	-5.77
687.477	10.23
687.599	-5.77
687.722	-7.77
687.844	18.23
687.966	8.23
688.088	13.23
688.211	33.23
688.333	10.23
688.455	1.23
688.578	9.23
688.7	19.23
688.822	13.23
688.944	1.23
689.067	17.23
689.189	8.23
689.311	-5.77
689.434	5.23
689.556	-3.77
689.678	8.23
689.801	-8.77
689.923	3.23
690.045	21.23
690.167	31.23
690.29	3.23
690.412	-0.77
690.534	19.23
690.657	9.23
690.779	0.23
690.901	1.23
691.024	22.23
691.146	16.23
691.268	-6.77
691.391	16.23
691.513	31.23
691.635	39.23
691.758	14.23
691.88	13.23
692.002	11.23
692.125	7.23
692.247	4.23
692.369	-3.77
692.492	-11.77
692.614	11.23
692.736	-3.77
692.859	-6.77
692.981	-4.77
693.103	6.23
693.226	6.23
693.348	21.23
693.47	6.23
693.593	35.23
693.715	17.23
693.837	22.23
693.96	16.23
694.082	-15.77
694.204	-1.77
694.327	4.23
694.449	-14.77
694.571	-5.77
694.694	-0.77
694.816	4.23
694.938	-8.77
695.061	20.23
695.183	7.23
695.305	4.23
695.428	3.23
695.55	2.23
695.672	-2.77
695.795	29.23
695.917	18.23
696.04	-2.77
696.162	0.23
696.284	3.23
696.407	2.23
696.529	-2.77
696.651	23.23
696.774	11.23
696.896	10.23
697.019	4.23
697.141	11.23
697.263	7.23
697.386	-6.77
697.508	12.23
697.63	21.23
697.753	-3.77
697.875	8.23
697.998	3.23
698.12	17.23
698.242	22.23
698.365	-4.77
698.487	-0.77
698.61	-3.77
698.732	2.23
698.854	11.23
698.977	-2.77
699.099	14.23
699.221	7.23
699.344	10.23
699.466	-2.77
699.589	20.23
699.711	1.23
699.834	7.23
699.956	7.23
700.078	2.23
700.201	-19.77
700.323	5.23
700.446	-12.77
700.568	0.23
700.69	3.23
700.813	11.23
700.935	-0.77
701.058	7.23
701.18	12.23
701.302	-5.77
701.425	7.23
701.547	2.23
701.67	0.23
701.792	11.23
701.915	12.23
702.037	7.23
702.159	7.23
702.282	5.23
702.404	3.23
702.527	20.23
702.649	23.23
702.772	3.23
702.894	7.23
703.017	25.23
703.139	7.23
703.261	22.23
703.384	6.23
703.506	-7.77
703.629	1.23
703.751	14.23
703.874	5.23
703.996	15.23
704.119	-8.77
704.241	-2.77
704.364	-7.77
704.486	3.23
704.608	16.23
704.731	11.23
704.853	11.23
704.976	-2.77
705.098	11.23
705.221	4.23
705.343	7.23
705.466	15.23
705.588	13.23
705.711	5.23
705.833	9.23
705.956	-4.77
706.078	7.23
706.201	-1.77
706.323	-2.77
706.446	11.23
