Data from LowRes_mercury_15_20_11_07_2024_HR4C61881__8__15-23-33-071.txt Node

Date: Thu Nov 07 15:23:33 EST 2024
User: crc00042
Spectrometer: HR4C6188
Trigger mode: 4
Integration Time (sec): 1.000000E-1
Scans to average: 1
Electric dark correction enabled: true
Nonlinearity correction enabled: false
Boxcar width: 0
XAxis mode: Wavelengths
Number of Pixels in Spectrum: 3648
>>>>>Begin Spectral Data<<<<<
245.66	-85.77
245.797	-85.77
245.934	-85.77
246.071	-62.77
246.208	9.23
246.344	0.23
246.481	14.23
246.618	0.23
246.755	2.23
246.892	-16.77
247.029	-10.77
247.165	-5.77
247.302	7.23
247.439	-0.77
247.576	7.23
247.713	-12.77
247.849	32.23
247.986	-16.77
248.123	17.23
248.26	5.23
248.396	20.23
248.533	-8.77
248.67	0.23
248.806	15.23
248.943	-4.77
249.08	-10.77
249.216	23.23
249.353	-15.77
249.49	1.23
249.626	-3.77
249.763	9.23
249.9	-6.77
250.036	-20.77
250.173	-8.77
250.309	6.23
250.446	3.23
250.582	15.23
250.719	-21.77
250.856	-6.77
250.992	7.23
251.129	-2.77
251.265	-10.77
251.402	-5.77
251.538	-3.77
251.675	12.23
251.811	24.23
251.948	17.23
252.084	11.23
252.221	9.23
252.357	-6.77
252.493	47.23
252.63	10.23
252.766	11.23
252.903	18.23
253.039	13.23
253.175	4.23
253.312	15.23
253.448	3.23
253.585	-7.77
253.721	15.23
253.857	9.23
253.994	-9.77
254.13	12.23
254.266	12.23
254.403	6.23
254.539	16.23
254.675	14.23
254.811	-15.77
254.948	-13.77
255.084	2.23
255.22	-9.77
255.356	0.23
255.493	-8.77
255.629	10.23
255.765	8.23
255.901	9.23
256.037	-1.77
256.174	12.23
256.31	-15.77
256.446	-2.77
256.582	11.23
256.718	17.23
256.854	24.23
256.991	7.23
257.127	11.23
257.263	-1.77
257.399	15.23
257.535	10.23
257.671	12.23
257.807	1.23
257.943	3.23
258.079	3.23
258.215	11.23
258.351	45.23
258.487	-0.77
258.623	35.23
258.759	23.23
258.895	8.23
259.031	4.23
259.167	5.23
259.303	18.23
259.439	2.23
259.575	-8.77
259.711	-7.77
259.847	9.23
259.983	12.23
260.119	-5.77
260.255	12.23
260.391	1.23
260.527	14.23
260.663	25.23
260.799	22.23
260.934	7.23
261.07	-7.77
261.206	-7.77
261.342	-15.77
261.478	8.23
261.614	29.23
261.749	27.23
261.885	1.23
262.021	7.23
262.157	15.23
262.293	0.23
262.428	-7.77
262.564	5.23
262.7	28.23
262.836	-3.77
262.971	21.23
263.107	10.23
263.243	30.23
263.378	14.23
263.514	-3.77
263.65	7.23
263.785	-16.77
263.921	-8.77
264.057	-4.77
264.192	5.23
264.328	10.23
264.464	-8.77
264.599	1.23
264.735	23.23
264.871	-14.77
265.006	17.23
265.142	8.23
265.277	19.23
265.413	25.23
265.548	15.23
265.684	6.23
265.819	4.23
265.955	-0.77
266.091	-21.77
266.226	-6.77
266.362	-1.77
266.497	0.23
266.633	8.23
266.768	8.23
266.903	24.23
267.039	25.23
267.174	19.23
267.31	-8.77
267.445	-3.77
267.581	-2.77
267.716	15.23
267.851	15.23
267.987	31.23
268.122	21.23
268.258	7.23
268.393	0.23
268.528	28.23
268.664	-0.77
268.799	8.23
268.934	18.23
269.07	2.23
269.205	17.23
269.34	19.23
269.476	2.23
269.611	-5.77
269.746	9.23
269.881	6.23
270.017	16.23
270.152	10.23
270.287	-0.77
270.422	23.23
270.558	-8.77
270.693	19.23
270.828	-0.77
270.963	1.23
271.098	-5.77
271.234	9.23
271.369	1.23
271.504	2.23
271.639	2.23
271.774	-3.77
271.909	14.23
272.045	-4.77
272.18	-0.77
272.315	-9.77
272.45	7.23
272.585	10.23
272.72	-3.77
272.855	-3.77
272.99	23.23
273.125	-0.77
273.26	-31.77
273.395	14.23
273.53	-6.77
273.665	2.23
273.8	4.23
273.935	3.23
274.07	11.23
274.205	23.23
274.34	5.23
274.475	16.23
274.61	38.23
274.745	-1.77
274.88	11.23
275.015	-1.77
275.15	-0.77
275.285	6.23
275.42	2.23
275.555	36.23
275.69	4.23
275.825	-3.77
275.959	26.23
276.094	16.23
276.229	7.23
276.364	-8.77
276.499	2.23
276.634	-7.77
276.768	-5.77
276.903	4.23
277.038	20.23
277.173	22.23
277.308	5.23
277.442	2.23
277.577	10.23
277.712	-0.77
277.847	15.23
277.981	24.23
278.116	-32.77
278.251	15.23
278.386	20.23
278.52	-4.77
278.655	6.23
278.79	19.23
278.924	10.23
279.059	6.23
279.194	-24.77
279.328	21.23
279.463	16.23
279.598	47.23
279.732	22.23
279.867	23.23
280.001	16.23
280.136	-4.77
280.271	3.23
280.405	11.23
280.54	-4.77
280.674	1.23
280.809	28.23
280.943	-4.77
281.078	-4.77
281.213	18.23
281.347	16.23
281.482	6.23
281.616	-0.77
281.751	5.23
281.885	-12.77
282.02	3.23
282.154	24.23
282.288	-9.77
282.423	-6.77
282.557	-10.77
282.692	16.23
282.826	12.23
282.961	23.23
283.095	0.23
283.229	8.23
283.364	-0.77
283.498	-0.77
283.633	-4.77
283.767	13.23
283.901	12.23
284.036	-15.77
284.17	-11.77
284.304	12.23
284.439	-7.77
284.573	-0.77
284.707	36.23
284.842	-0.77
284.976	-5.77
285.11	1.23
285.244	15.23
285.379	46.23
285.513	-7.77
285.647	19.23
285.781	18.23
285.916	1.23
286.05	-4.77
286.184	20.23
286.318	0.23
286.453	-5.77
286.587	-15.77
286.721	-1.77
286.855	18.23
286.989	13.23
287.123	0.23
287.258	-14.77
287.392	11.23
287.526	-1.77
287.66	-7.77
287.794	-0.77
287.928	2.23
288.062	16.23
288.196	-4.77
288.33	-7.77
288.464	21.23
288.598	20.23
288.733	17.23
288.867	30.23
289.001	6.23
289.135	9.23
289.269	11.23
289.403	8.23
289.537	-0.77
289.671	20.23
289.805	-1.77
289.939	-0.77
290.073	-10.77
290.207	25.23
290.34	12.23
290.474	14.23
290.608	21.23
290.742	12.23
290.876	9.23
291.01	10.23
291.144	31.23
291.278	2.23
291.412	14.23
291.546	5.23
291.679	-1.77
291.813	2.23
291.947	0.23
292.081	-7.77
292.215	20.23
292.349	33.23
292.482	37.23
292.616	3.23
292.75	13.23
292.884	5.23
293.018	10.23
293.151	5.23
293.285	14.23
293.419	-0.77
293.553	-9.77
293.686	14.23
293.82	24.23
293.954	27.23
294.088	11.23
294.221	15.23
294.355	1.23
294.489	-7.77
294.622	-7.77
294.756	-4.77
294.89	2.23
295.023	15.23
295.157	5.23
295.291	20.23
295.424	17.23
295.558	18.23
295.691	-3.77
295.825	-0.77
295.959	5.23
296.092	1.23
296.226	-1.77
296.359	10.23
296.493	8.23
296.627	6.23
296.76	6.23
296.894	-11.77
297.027	2.23
297.161	-1.77
297.294	-10.77
297.428	-9.77
297.561	12.23
297.695	-4.77
297.828	16.23
297.962	9.23
298.095	4.23
298.229	-1.77
298.362	-6.77
298.495	-11.77
298.629	-7.77
298.762	-8.77
298.896	5.23
299.029	-15.77
299.162	3.23
299.296	1.23
299.429	9.23
299.563	18.23
299.696	12.23
299.829	11.23
299.963	15.23
300.096	13.23
300.229	11.23
300.363	1.23
300.496	9.23
300.629	-23.77
300.763	6.23
300.896	0.23
301.029	9.23
301.162	12.23
301.296	-8.77
301.429	15.23
301.562	-15.77
301.695	1.23
301.829	6.23
301.962	37.23
302.095	4.23
302.228	1.23
302.362	-5.77
302.495	-2.77
302.628	22.23
302.761	4.23
302.894	17.23
303.027	16.23
303.161	8.23
303.294	-6.77
303.427	24.23
303.56	0.23
303.693	2.23
303.826	1.23
303.959	4.23
304.092	26.23
304.225	-4.77
304.359	13.23
304.492	12.23
304.625	-8.77
304.758	26.23
304.891	-13.77
305.024	2.23
305.157	-6.77
305.29	-5.77
305.423	-3.77
305.556	9.23
305.689	28.23
305.822	15.23
305.955	22.23
306.088	3.23
306.221	13.23
306.354	-4.77
306.487	-8.77
306.62	-6.77
306.752	7.23
306.885	18.23
307.018	-6.77
307.151	-2.77
307.284	11.23
307.417	8.23
307.55	9.23
307.683	-9.77
307.816	6.23
307.948	-5.77
308.081	8.23
308.214	25.23
308.347	35.23
308.48	8.23
308.613	-4.77
308.745	18.23
308.878	1.23
309.011	-1.77
309.144	7.23
309.277	13.23
309.409	21.23
309.542	-8.77
309.675	22.23
309.808	13.23
309.94	37.23
310.073	-1.77
310.206	-8.77
310.339	12.23
310.471	-0.77
310.604	12.23
310.737	-14.77
310.869	-0.77
311.002	-1.77
311.135	11.23
311.267	-8.77
311.4	7.23
311.533	15.23
311.665	3.23
311.798	17.23
311.93	7.23
312.063	22.23
312.196	37.23
312.328	96.23
312.461	63.23
312.593	30.23
312.726	51.23
312.859	110.23
312.991	180.23
313.124	37.23
313.256	9.23
313.389	9.23
313.521	-2.77
313.654	0.23
313.786	-25.77
313.919	-3.77
314.051	10.23
314.184	9.23
314.316	14.23
314.449	0.23
314.581	-0.77
314.714	2.23
314.846	16.23
314.978	17.23
315.111	3.23
315.243	2.23
315.376	13.23
315.508	4.23
315.641	2.23
315.773	24.23
315.905	3.23
316.038	15.23
316.17	-1.77
316.302	0.23
316.435	-5.77
316.567	10.23
316.699	19.23
316.832	-2.77
316.964	5.23
317.096	-0.77
317.229	19.23
317.361	-13.77
317.493	-24.77
317.625	2.23
317.758	17.23
317.89	38.23
318.022	18.23
318.155	9.23
318.287	16.23
318.419	15.23
318.551	17.23
318.683	23.23
318.816	-1.77
318.948	3.23
319.08	-14.77
319.212	-5.77
319.344	-4.77
319.477	5.23
319.609	12.23
319.741	16.23
319.873	16.23
320.005	-13.77
320.137	9.23
320.269	0.23
320.401	13.23
320.534	9.23
320.666	-13.77
320.798	-15.77
320.93	-11.77
321.062	-9.77
321.194	4.23
321.326	5.23
321.458	5.23
321.59	15.23
321.722	1.23
321.854	1.23
321.986	19.23
322.118	-2.77
322.25	2.23
322.382	2.23
322.514	4.23
322.646	-7.77
322.778	1.23
322.91	0.23
323.042	13.23
323.174	11.23
323.306	-10.77
323.438	-7.77
323.57	12.23
323.702	4.23
323.834	2.23
323.966	6.23
324.097	0.23
324.229	2.23
324.361	-3.77
324.493	9.23
324.625	9.23
324.757	15.23
324.889	16.23
325.021	2.23
325.152	12.23
325.284	12.23
325.416	1.23
325.548	16.23
325.68	9.23
325.811	26.23
325.943	19.23
326.075	15.23
326.207	23.23
326.339	1.23
326.47	-6.77
326.602	17.23
326.734	21.23
326.866	18.23
326.997	-4.77
327.129	-5.77
327.261	-8.77
327.392	-4.77
327.524	29.23
327.656	14.23
327.787	16.23
327.919	14.23
328.051	3.23
328.182	15.23
328.314	33.23
328.446	-0.77
328.577	23.23
328.709	4.23
328.841	-6.77
328.972	-1.77
329.104	-8.77
329.235	22.23
329.367	5.23
329.499	1.23
329.63	5.23
329.762	13.23
329.893	33.23
330.025	13.23
330.156	-11.77
330.288	25.23
330.419	19.23
330.551	7.23
330.683	7.23
330.814	1.23
330.946	21.23
331.077	8.23
331.208	4.23
331.34	-3.77
331.471	9.23
331.603	-2.77
331.734	-23.77
331.866	-6.77
331.997	-2.77
332.129	-6.77
332.26	-3.77
332.392	25.23
332.523	8.23
332.654	-9.77
332.786	4.23
332.917	14.23
333.048	13.23
333.18	40.23
333.311	19.23
333.443	11.23
333.574	2.23
333.705	34.23
333.837	43.23
333.968	128.23
334.099	226.23
334.231	203.23
334.362	76.23
334.493	41.23
334.624	20.23
334.756	23.23
334.887	23.23
335.018	13.23
335.15	11.23
335.281	22.23
335.412	30.23
335.543	27.23
335.675	15.23
335.806	28.23
335.937	18.23
336.068	15.23
336.199	30.23
336.331	-0.77
336.462	-1.77
336.593	17.23
336.724	-9.77
336.855	9.23
336.986	21.23
337.118	26.23
337.249	16.23
337.38	20.23
337.511	11.23
337.642	7.23
337.773	22.23
337.904	-0.77
338.035	0.23
338.166	14.23
338.298	16.23
338.429	10.23
338.56	6.23
338.691	33.23
338.822	15.23
338.953	17.23
339.084	28.23
339.215	16.23
339.346	20.23
339.477	3.23
339.608	13.23
339.739	15.23
339.87	30.23
340.001	12.23
340.132	23.23
340.263	19.23
340.394	19.23
340.525	31.23
340.656	3.23
340.787	2.23
340.918	14.23
341.049	8.23
341.179	17.23
341.31	21.23
341.441	18.23
341.572	29.23
341.703	28.23
341.834	6.23
341.965	7.23
342.096	-0.77
342.227	19.23
342.357	19.23
342.488	23.23
342.619	11.23
342.75	14.23
342.881	15.23
343.012	48.23
343.142	27.23
343.273	-2.77
343.404	30.23
343.535	43.23
343.666	35.23
343.796	29.23
343.927	23.23
344.058	42.23
344.189	26.23
344.319	33.23
344.45	38.23
344.581	17.23
344.712	5.23
344.842	24.23
344.973	26.23
345.104	29.23
345.234	21.23
345.365	8.23
345.496	19.23
345.626	33.23
345.757	29.23
345.888	14.23
346.018	32.23
346.149	28.23
346.28	62.23
346.41	15.23
346.541	48.23
346.672	23.23
346.802	40.23
346.933	27.23
347.063	33.23
347.194	33.23
347.325	35.23
347.455	38.23
347.586	34.23
347.716	1.23
347.847	39.23
347.977	31.23
348.108	44.23
348.238	47.23
348.369	46.23
348.499	42.23
348.63	34.23
348.76	43.23
348.891	61.23
349.021	67.23
349.152	49.23
349.282	71.23
349.413	42.23
349.543	47.23
349.674	36.23
349.804	53.23
349.935	21.23
350.065	27.23
350.196	23.23
350.326	28.23
350.456	21.23
350.587	41.23
350.717	33.23
350.848	28.23
350.978	24.23
351.108	20.23
351.239	33.23
351.369	28.23
351.499	23.23
351.63	30.23
351.76	31.23
351.89	18.23
352.021	6.23
352.151	20.23
352.281	41.23
352.412	28.23
352.542	19.23
352.672	4.23
352.803	8.23
352.933	32.23
353.063	28.23
353.193	10.23
353.324	33.23
353.454	19.23
353.584	48.23
353.714	21.23
353.845	11.23
353.975	20.23
354.105	19.23
354.235	26.23
354.365	49.23
354.496	11.23
354.626	28.23
354.756	45.23
354.886	39.23
355.016	30.23
355.146	15.23
355.277	24.23
355.407	-2.77
355.537	28.23
355.667	30.23
355.797	31.23
355.927	10.23
356.057	21.23
356.187	18.23
356.318	30.23
356.448	29.23
356.578	32.23
356.708	33.23
356.838	45.23
356.968	20.23
357.098	34.23
357.228	47.23
357.358	20.23
357.488	26.23
357.618	56.23
357.748	43.23
357.878	23.23
358.008	21.23
358.138	13.23
358.268	28.23
358.398	60.23
358.528	20.23
358.658	27.23
358.788	30.23
358.918	32.23
359.048	28.23
359.178	26.23
359.308	49.23
359.438	56.23
359.568	33.23
359.698	16.23
359.827	31.23
359.957	46.23
360.087	23.23
360.217	23.23
360.347	35.23
360.477	42.23
360.607	5.23
360.737	47.23
360.866	38.23
360.996	13.23
361.126	14.23
361.256	41.23
361.386	48.23
361.516	54.23
361.645	15.23
361.775	31.23
361.905	22.23
362.035	46.23
362.165	35.23
362.294	36.23
362.424	56.23
362.554	36.23
362.684	15.23
362.813	26.23
362.943	52.23
363.073	46.23
363.203	63.23
363.332	92.23
363.462	94.23
363.592	115.23
363.721	142.23
363.851	165.23
363.981	218.23
364.111	250.23
364.24	311.23
364.37	494.23
364.5	868.23
364.629	1850.23
364.759	3924.23
364.888	6390.23
365.018	9560.23
365.148	14882.23
365.277	13089.23
365.407	4836.23
365.537	3161.23
365.666	4059.23
365.796	1850.23
365.925	821.23
366.055	793.23
366.184	1072.23
366.314	1426.23
366.444	2516.23
366.573	2168.23
366.703	698.23
366.832	224.23
366.962	110.23
367.091	72.23
367.221	51.23
367.35	51.23
367.48	78.23
367.609	59.23
367.739	60.23
367.868	29.23
367.998	51.23
368.127	36.23
368.257	55.23
368.386	54.23
368.516	56.23
368.645	42.23
368.775	38.23
368.904	41.23
369.033	32.23
369.163	37.23
369.292	51.23
369.422	36.23
369.551	40.23
369.68	39.23
369.81	41.23
369.939	33.23
370.069	63.23
370.198	44.23
370.327	20.23
370.457	49.23
370.586	67.23
370.715	39.23
370.845	12.23
370.974	37.23
371.103	49.23
371.233	41.23
371.362	53.23
371.491	43.23
371.621	52.23
371.75	40.23
371.879	36.23
372.008	50.23
372.138	46.23
372.267	69.23
372.396	41.23
372.525	30.23
372.655	48.23
372.784	34.23
372.913	26.23
373.042	16.23
373.172	42.23
373.301	4.23
373.43	15.23
373.559	26.23
373.688	43.23
373.818	30.23
373.947	48.23
374.076	19.23
374.205	22.23
374.334	12.23
374.463	1.23
374.593	29.23
374.722	21.23
374.851	24.23
374.98	4.23
375.109	27.23
375.238	21.23
375.367	46.23
375.496	12.23
375.625	-5.77
375.755	43.23
375.884	51.23
376.013	39.23
376.142	10.23
376.271	11.23
376.4	15.23
376.529	20.23
376.658	32.23
376.787	9.23
376.916	26.23
377.045	11.23
377.174	19.23
377.303	17.23
377.432	27.23
377.561	29.23
377.69	14.23
377.819	41.23
377.948	17.23
378.077	15.23
378.206	7.23
378.335	9.23
378.464	20.23
378.593	31.23
378.722	23.23
378.851	15.23
378.98	30.23
379.108	10.23
379.237	-3.77
379.366	16.23
379.495	16.23
379.624	20.23
379.753	23.23
379.882	29.23
380.011	12.23
380.14	11.23
380.268	10.23
380.397	3.23
380.526	30.23
380.655	11.23
380.784	-15.77
380.913	1.23
381.041	18.23
381.17	-5.77
381.299	9.23
381.428	23.23
381.557	29.23
381.685	24.23
381.814	18.23
381.943	7.23
382.072	-5.77
382.2	-7.77
382.329	25.23
382.458	11.23
382.587	19.23
382.715	22.23
382.844	14.23
382.973	8.23
383.102	21.23
383.23	30.23
383.359	20.23
383.488	39.23
383.616	19.23
383.745	0.23
383.874	16.23
384.003	11.23
384.131	29.23
384.26	27.23
384.389	22.23
384.517	16.23
384.646	23.23
384.774	39.23
384.903	37.23
385.032	43.23
385.16	31.23
385.289	7.23
385.418	12.23
385.546	13.23
385.675	19.23
385.803	37.23
385.932	42.23
386.06	11.23
386.189	25.23
386.318	18.23
386.446	26.23
386.575	30.23
386.703	32.23
386.832	4.23
386.96	13.23
387.089	34.23
387.217	24.23
387.346	38.23
387.474	18.23
387.603	13.23
387.731	17.23
387.86	36.23
387.988	34.23
388.117	25.23
388.245	33.23
388.374	28.23
388.502	24.23
388.631	13.23
388.759	8.23
388.888	25.23
389.016	29.23
389.144	3.23
389.273	13.23
389.401	19.23
389.53	5.23
389.658	39.23
389.786	5.23
389.915	25.23
390.043	33.23
390.172	23.23
390.3	38.23
390.428	37.23
390.557	15.23
390.685	32.23
390.813	44.23
390.942	49.23
391.07	41.23
391.198	27.23
391.327	22.23
391.455	34.23
391.583	41.23
391.712	36.23
391.84	34.23
391.968	26.23
392.096	25.23
392.225	20.23
392.353	39.23
392.481	15.23
392.609	44.23
392.738	37.23
392.866	39.23
392.994	19.23
393.122	42.23
393.251	29.23
393.379	20.23
393.507	19.23
393.635	32.23
393.764	24.23
393.892	52.23
394.02	26.23
394.148	8.23
394.276	33.23
394.404	54.23
394.533	25.23
394.661	27.23
394.789	23.23
394.917	53.23
395.045	18.23
395.173	26.23
395.302	19.23
395.43	21.23
395.558	25.23
395.686	25.23
395.814	29.23
395.942	13.23
396.07	15.23
396.198	25.23
396.326	41.23
396.454	44.23
396.582	43.23
396.711	34.23
396.839	45.23
396.967	52.23
397.095	31.23
397.223	42.23
397.351	56.23
397.479	38.23
397.607	37.23
397.735	56.23
397.863	59.23
397.991	46.23
398.119	41.23
398.247	53.23
398.375	53.23
398.503	53.23
398.631	54.23
398.759	63.23
398.887	54.23
399.015	50.23
399.143	45.23
399.271	61.23
399.399	69.23
399.526	78.23
399.654	79.23
399.782	54.23
399.91	96.23
400.038	95.23
400.166	84.23
400.294	74.23
400.422	87.23
400.55	140.23
400.678	118.23
400.805	123.23
400.933	117.23
401.061	144.23
401.189	123.23
401.317	139.23
401.445	108.23
401.573	87.23
401.7	75.23
401.828	57.23
401.956	55.23
402.084	31.23
402.212	48.23
402.34	43.23
402.467	26.23
402.595	55.23
402.723	52.23
402.851	65.23
402.978	76.23
403.106	91.23
403.234	94.23
403.362	122.23
403.489	126.23
403.617	141.23
403.745	215.23
403.873	291.23
404	571.23
404.128	1481.23
404.256	3965.23
404.384	5184.23
404.511	5532.23
404.639	7307.23
404.767	11605.23
404.894	14734.23
405.022	5008.23
405.15	1328.23
405.277	429.23
405.405	248.23
405.533	132.23
405.66	110.23
405.788	69.23
405.916	72.23
406.043	34.23
406.171	47.23
406.299	49.23
406.426	81.23
406.554	78.23
406.681	74.23
406.809	88.23
406.937	65.23
407.064	68.23
407.192	145.23
407.319	323.23
407.447	531.23
407.574	568.23
407.702	638.23
407.83	861.23
407.957	1629.23
408.085	959.23
408.212	288.23
408.34	117.23
408.467	65.23
408.595	63.23
408.722	48.23
408.85	82.23
408.977	37.23
409.105	39.23
409.232	33.23
409.36	35.23
409.487	27.23
409.615	41.23
409.742	52.23
409.87	31.23
409.997	53.23
410.125	49.23
410.252	61.23
410.379	20.23
410.507	45.23
410.634	39.23
410.762	31.23
410.889	53.23
411.017	45.23
411.144	30.23
411.271	31.23
411.399	20.23
411.526	22.23
411.653	40.23
411.781	37.23
411.908	29.23
412.036	17.23
412.163	27.23
412.29	54.23
412.418	32.23
412.545	38.23
412.672	27.23
412.8	53.23
412.927	48.23
413.054	44.23
413.182	40.23
413.309	29.23
413.436	22.23
413.564	18.23
413.691	38.23
413.818	47.23
413.945	9.23
414.073	32.23
414.2	33.23
414.327	48.23
414.454	51.23
414.582	29.23
414.709	17.23
414.836	12.23
414.963	49.23
415.091	55.23
415.218	36.23
415.345	37.23
415.472	46.23
415.6	33.23
415.727	30.23
415.854	31.23
415.981	45.23
416.108	45.23
416.236	38.23
416.363	42.23
416.49	33.23
416.617	38.23
416.744	42.23
416.871	36.23
416.998	24.23
417.126	46.23
417.253	26.23
417.38	38.23
417.507	44.23
417.634	24.23
417.761	41.23
417.888	40.23
418.015	23.23
418.143	22.23
418.27	43.23
418.397	36.23
418.524	39.23
418.651	41.23
418.778	56.23
418.905	63.23
419.032	42.23
419.159	26.23
419.286	61.23
419.413	54.23
419.54	56.23
419.667	24.23
419.794	30.23
419.921	57.23
420.048	58.23
420.175	64.23
420.302	48.23
420.429	51.23
420.556	51.23
420.683	58.23
420.81	63.23
420.937	55.23
421.064	66.23
421.191	58.23
421.318	81.23
421.445	73.23
421.572	46.23
421.699	63.23
421.826	56.23
421.953	44.23
422.08	59.23
422.207	25.23
422.334	13.23
422.461	26.23
422.588	26.23
422.714	41.23
422.841	31.23
422.968	15.23
423.095	13.23
423.222	8.23
423.349	28.23
423.476	37.23
423.603	15.23
423.729	11.23
423.856	6.23
423.983	21.23
424.11	17.23
424.237	45.23
424.364	27.23
424.491	19.23
424.617	-4.77
424.744	11.23
424.871	29.23
424.998	16.23
425.125	8.23
425.251	35.23
425.378	13.23
425.505	12.23
425.632	19.23
425.758	11.23
425.885	24.23
426.012	21.23
426.139	48.23
426.266	37.23
426.392	37.23
426.519	19.23
426.646	17.23
426.772	59.23
426.899	34.23
427.026	35.23
427.153	31.23
427.279	32.23
427.406	22.23
427.533	26.23
427.659	27.23
427.786	20.23
427.913	41.23
428.039	37.23
428.166	21.23
428.293	22.23
428.419	30.23
428.546	32.23
428.673	30.23
428.799	7.23
428.926	28.23
429.053	45.23
429.179	37.23
429.306	36.23
429.433	48.23
429.559	40.23
429.686	1.23
429.812	11.23
429.939	40.23
430.066	45.23
430.192	19.23
430.319	39.23
430.445	29.23
430.572	37.23
430.699	28.23
430.825	12.23
430.952	43.23
431.078	41.23
431.205	51.23
431.331	25.23
431.458	54.23
431.584	36.23
431.711	9.23
431.837	35.23
431.964	31.23
432.09	27.23
432.217	20.23
432.343	25.23
432.47	22.23
432.596	31.23
432.723	20.23
432.849	32.23
432.976	42.23
433.102	38.23
433.229	24.23
433.355	57.23
433.482	85.23
433.608	115.23
433.735	129.23
433.861	113.23
433.987	171.23
434.114	194.23
434.24	168.23
434.367	231.23
434.493	232.23
434.62	301.23
434.746	414.23
434.872	666.23
434.999	840.23
435.125	1786.23
435.252	5645.23
435.378	13583.23
435.504	15272.23
435.631	15493.23
435.757	15686.23
435.883	15686.23
436.01	15686.23
436.136	15686.23
436.262	15686.23
436.389	3583.23
436.515	2677.23
436.641	897.23
436.768	657.23
436.894	395.23
437.02	387.23
437.147	300.23
437.273	328.23
437.399	217.23
437.526	239.23
437.652	181.23
437.778	209.23
437.904	150.23
438.031	159.23
438.157	151.23
438.283	151.23
438.409	114.23
438.536	127.23
438.662	109.23
438.788	116.23
438.914	118.23
439.041	138.23
439.167	121.23
439.293	110.23
439.419	109.23
439.546	112.23
439.672	88.23
439.798	118.23
439.924	102.23
440.05	111.23
440.177	80.23
440.303	86.23
440.429	68.23
440.555	71.23
440.681	55.23
440.807	68.23
440.934	52.23
441.06	87.23
441.186	60.23
441.312	69.23
441.438	61.23
441.564	67.23
441.69	62.23
441.816	74.23
441.943	62.23
442.069	49.23
442.195	48.23
442.321	62.23
442.447	24.23
442.573	35.23
442.699	43.23
442.825	49.23
442.951	67.23
443.077	71.23
443.203	66.23
443.33	50.23
443.456	34.23
443.582	54.23
443.708	46.23
443.834	66.23
443.96	57.23
444.086	35.23
444.212	43.23
444.338	69.23
444.464	74.23
444.59	56.23
444.716	55.23
444.842	74.23
444.968	26.23
445.094	41.23
445.22	38.23
445.346	33.23
445.472	48.23
445.598	28.23
445.724	26.23
445.85	51.23
445.976	42.23
446.102	49.23
446.228	57.23
446.354	36.23
446.48	36.23
446.605	28.23
446.731	31.23
446.857	17.23
446.983	38.23
447.109	42.23
447.235	26.23
447.361	32.23
447.487	54.23
447.613	50.23
447.739	38.23
447.865	15.23
447.99	29.23
448.116	43.23
448.242	28.23
448.368	15.23
448.494	26.23
448.62	40.23
448.746	30.23
448.872	43.23
448.997	25.23
449.123	20.23
449.249	48.23
449.375	53.23
449.501	32.23
449.627	12.23
449.752	57.23
449.878	21.23
450.004	23.23
450.13	25.23
450.256	17.23
450.381	29.23
450.507	20.23
450.633	17.23
450.759	48.23
450.884	23.23
451.01	44.23
451.136	24.23
451.262	35.23
451.388	25.23
451.513	21.23
451.639	41.23
451.765	41.23
451.89	42.23
452.016	43.23
452.142	12.23
452.268	39.23
452.393	39.23
452.519	-0.77
452.645	42.23
452.771	23.23
452.896	14.23
453.022	28.23
453.148	20.23
453.273	40.23
453.399	48.23
453.525	23.23
453.65	18.23
453.776	31.23
453.902	54.23
454.027	23.23
454.153	47.23
454.279	39.23
454.404	26.23
454.53	31.23
454.656	59.23
454.781	35.23
454.907	25.23
455.032	21.23
455.158	21.23
455.284	44.23
455.409	54.23
455.535	41.23
455.66	33.23
455.786	44.23
455.912	47.23
456.037	20.23
456.163	36.23
456.288	42.23
456.414	-6.77
456.539	17.23
456.665	28.23
456.791	27.23
456.916	14.23
457.042	28.23
457.167	7.23
457.293	34.23
457.418	26.23
457.544	15.23
457.669	23.23
457.795	31.23
457.92	35.23
458.046	31.23
458.171	17.23
458.297	20.23
458.422	20.23
458.548	15.23
458.673	28.23
458.799	3.23
458.924	1.23
459.05	31.23
459.175	21.23
459.301	23.23
459.426	44.23
459.552	37.23
459.677	18.23
459.803	45.23
459.928	38.23
460.053	20.23
460.179	13.23
460.304	28.23
460.43	25.23
460.555	22.23
460.681	15.23
460.806	24.23
460.931	42.23
461.057	39.23
461.182	36.23
461.308	35.23
461.433	58.23
461.558	15.23
461.684	35.23
461.809	30.23
461.934	22.23
462.06	29.23
462.185	-11.77
462.311	24.23
462.436	43.23
462.561	27.23
462.687	15.23
462.812	12.23
462.937	17.23
463.063	26.23
463.188	11.23
463.313	23.23
463.439	18.23
463.564	34.23
463.689	28.23
463.814	52.23
463.94	8.23
464.065	26.23
464.19	41.23
464.316	4.23
464.441	-3.77
464.566	18.23
464.692	16.23
464.817	32.23
464.942	18.23
465.067	19.23
465.193	1.23
465.318	20.23
465.443	8.23
465.568	16.23
465.694	26.23
465.819	44.23
465.944	32.23
466.069	26.23
466.194	23.23
466.32	47.23
466.445	34.23
466.57	25.23
466.695	11.23
466.82	39.23
466.946	45.23
467.071	30.23
467.196	31.23
467.321	29.23
467.446	36.23
467.572	31.23
467.697	24.23
467.822	53.23
467.947	49.23
468.072	21.23
468.197	20.23
468.323	34.23
468.448	26.23
468.573	10.23
468.698	32.23
468.823	39.23
468.948	28.23
469.073	41.23
469.198	52.23
469.324	55.23
469.449	34.23
469.574	56.23
469.699	55.23
469.824	48.23
469.949	37.23
470.074	52.23
470.199	54.23
470.324	43.23
470.449	37.23
470.574	30.23
470.7	37.23
470.825	46.23
470.95	55.23
471.075	10.23
471.2	46.23
471.325	54.23
471.45	34.23
471.575	32.23
471.7	49.23
471.825	37.23
471.95	37.23
472.075	23.23
472.2	36.23
472.325	30.23
472.45	35.23
472.575	29.23
472.7	27.23
472.825	37.23
472.95	33.23
473.075	37.23
473.2	41.23
473.325	35.23
473.45	32.23
473.575	33.23
473.7	54.23
473.825	35.23
473.95	24.23
474.075	35.23
474.2	7.23
474.325	13.23
474.45	20.23
474.574	24.23
474.699	29.23
474.824	23.23
474.949	24.23
475.074	16.23
475.199	45.23
475.324	38.23
475.449	18.23
475.574	37.23
475.699	29.23
475.824	14.23
475.949	22.23
476.073	3.23
476.198	12.23
476.323	11.23
476.448	27.23
476.573	16.23
476.698	47.23
476.823	29.23
476.947	16.23
477.072	14.23
477.197	20.23
477.322	20.23
477.447	21.23
477.572	26.23
477.697	9.23
477.821	25.23
477.946	28.23
478.071	41.23
478.196	26.23
478.321	36.23
478.445	19.23
478.57	1.23
478.695	18.23
478.82	34.23
478.945	28.23
479.069	13.23
479.194	24.23
479.319	31.23
479.444	33.23
479.569	20.23
479.693	15.23
479.818	33.23
479.943	25.23
480.068	15.23
480.192	18.23
480.317	9.23
480.442	37.23
480.567	19.23
480.691	8.23
480.816	9.23
480.941	12.23
481.066	11.23
481.19	32.23
481.315	25.23
481.44	18.23
481.564	15.23
481.689	13.23
481.814	10.23
481.938	25.23
482.063	-1.77
482.188	23.23
482.313	38.23
482.437	23.23
482.562	23.23
482.687	42.23
482.811	13.23
482.936	23.23
483.061	21.23
483.185	23.23
483.31	24.23
483.435	23.23
483.559	28.23
483.684	19.23
483.808	29.23
483.933	25.23
484.058	16.23
484.182	26.23
484.307	23.23
484.432	23.23
484.556	43.23
484.681	19.23
484.805	27.23
484.93	26.23
485.055	37.23
485.179	37.23
485.304	9.23
485.428	20.23
485.553	15.23
485.678	12.23
485.802	26.23
485.927	28.23
486.051	9.23
486.176	22.23
486.3	23.23
486.425	48.23
486.549	22.23
486.674	30.23
486.799	17.23
486.923	15.23
487.048	23.23
487.172	30.23
487.297	26.23
487.421	16.23
487.546	15.23
487.67	24.23
487.795	20.23
487.919	30.23
488.044	30.23
488.168	15.23
488.293	9.23
488.417	17.23
488.542	13.23
488.666	25.23
488.791	29.23
488.915	34.23
489.04	24.23
489.164	25.23
489.289	30.23
489.413	15.23
489.538	30.23
489.662	30.23
489.786	13.23
489.911	25.23
490.035	31.23
490.16	23.23
490.284	10.23
490.409	9.23
490.533	-0.77
490.658	42.23
490.782	20.23
490.906	50.23
491.031	128.23
491.155	142.23
491.28	137.23
491.404	165.23
491.528	263.23
491.653	153.23
491.777	76.23
491.902	14.23
492.026	55.23
492.15	32.23
492.275	34.23
492.399	21.23
492.524	12.23
492.648	18.23
492.772	20.23
492.897	39.23
493.021	32.23
493.145	29.23
493.27	30.23
493.394	23.23
493.518	13.23
493.643	16.23
493.767	26.23
493.891	13.23
494.016	17.23
494.14	11.23
494.264	23.23
494.389	15.23
494.513	11.23
494.637	6.23
494.762	16.23
494.886	22.23
495.01	10.23
495.134	39.23
495.259	44.23
495.383	19.23
495.507	21.23
495.632	20.23
495.756	33.23
495.88	22.23
496.004	30.23
496.129	15.23
496.253	39.23
496.377	15.23
496.501	28.23
496.626	11.23
496.75	21.23
496.874	29.23
496.998	33.23
497.123	38.23
497.247	38.23
497.371	18.23
497.495	23.23
497.62	13.23
497.744	22.23
497.868	7.23
497.992	16.23
498.116	27.23
498.241	30.23
498.365	17.23
498.489	21.23
498.613	46.23
498.737	18.23
498.862	20.23
498.986	9.23
499.11	32.23
499.234	9.23
499.358	26.23
499.482	11.23
499.607	25.23
499.731	41.23
499.855	21.23
499.979	18.23
500.103	26.23
500.227	34.23
500.351	31.23
500.476	23.23
500.6	32.23
500.724	23.23
500.848	19.23
500.972	45.23
501.096	28.23
501.22	45.23
501.344	15.23
501.469	17.23
501.593	27.23
501.717	28.23
501.841	34.23
501.965	25.23
502.089	18.23
502.213	19.23
502.337	10.23
502.461	12.23
502.585	23.23
502.709	32.23
502.834	25.23
502.958	25.23
503.082	30.23
503.206	23.23
503.33	37.23
503.454	31.23
503.578	23.23
503.702	50.23
503.826	27.23
503.95	24.23
504.074	13.23
504.198	33.23
504.322	3.23
504.446	7.23
504.57	24.23
504.694	10.23
504.818	23.23
504.942	32.23
505.066	10.23
505.19	28.23
505.314	28.23
505.438	24.23
505.562	21.23
505.686	12.23
505.81	5.23
505.934	18.23
506.058	7.23
506.182	16.23
506.306	20.23
506.43	35.23
506.554	23.23
506.678	8.23
506.802	27.23
506.926	21.23
507.05	29.23
507.174	37.23
507.298	29.23
507.422	13.23
507.546	45.23
507.67	31.23
507.794	4.23
507.918	17.23
508.042	16.23
508.165	3.23
508.289	19.23
508.413	14.23
508.537	28.23
508.661	23.23
508.785	30.23
508.909	46.23
509.033	25.23
509.157	20.23
509.281	27.23
509.405	29.23
509.528	42.23
509.652	28.23
509.776	37.23
509.9	50.23
510.024	26.23
510.148	42.23
510.272	28.23
510.396	37.23
510.519	29.23
510.643	52.23
510.767	25.23
510.891	21.23
511.015	32.23
511.139	55.23
511.263	67.23
511.386	31.23
511.51	49.23
511.634	37.23
511.758	29.23
511.882	30.23
512.006	52.23
512.129	64.23
512.253	84.23
512.377	72.23
512.501	89.23
512.625	84.23
512.748	94.23
512.872	74.23
512.996	61.23
513.12	55.23
513.244	57.23
513.367	80.23
513.491	91.23
513.615	99.23
513.739	63.23
513.862	75.23
513.986	67.23
514.11	88.23
514.234	88.23
514.358	111.23
514.481	106.23
514.605	128.23
514.729	115.23
514.853	110.23
514.976	90.23
515.1	111.23
515.224	126.23
515.348	78.23
515.471	81.23
515.595	114.23
515.719	132.23
515.842	223.23
515.966	285.23
516.09	301.23
516.214	301.23
516.337	326.23
516.461	234.23
516.585	99.23
516.708	59.23
516.832	39.23
516.956	32.23
517.08	23.23
517.203	19.23
517.327	29.23
517.451	23.23
517.574	43.23
517.698	12.23
517.822	11.23
517.945	25.23
518.069	33.23
518.193	49.23
518.316	25.23
518.44	13.23
518.564	-6.77
518.687	16.23
518.811	19.23
518.935	43.23
519.058	37.23
519.182	17.23
519.306	30.23
519.429	28.23
519.553	48.23
519.676	37.23
519.8	25.23
519.924	17.23
520.047	21.23
520.171	23.23
520.294	15.23
520.418	26.23
520.542	14.23
520.665	35.23
520.789	23.23
520.913	2.23
521.036	-2.77
521.16	8.23
521.283	17.23
521.407	9.23
521.53	12.23
521.654	15.23
521.778	27.23
521.901	22.23
522.025	15.23
522.148	8.23
522.272	24.23
522.395	20.23
522.519	20.23
522.643	26.23
522.766	18.23
522.89	5.23
523.013	28.23
523.137	12.23
523.26	11.23
523.384	11.23
523.507	24.23
523.631	25.23
523.754	5.23
523.878	16.23
524.002	9.23
524.125	25.23
524.249	13.23
524.372	27.23
524.496	24.23
524.619	29.23
524.743	25.23
524.866	8.23
524.99	24.23
525.113	-2.77
525.237	18.23
525.36	34.23
525.484	7.23
525.607	14.23
525.731	14.23
525.854	28.23
525.978	28.23
526.101	-0.77
526.224	17.23
526.348	23.23
526.471	17.23
526.595	27.23
526.718	38.23
526.842	24.23
526.965	49.23
527.089	25.23
527.212	32.23
527.336	25.23
527.459	14.23
527.582	19.23
527.706	33.23
527.829	33.23
527.953	21.23
528.076	-2.77
528.2	21.23
528.323	37.23
528.446	28.23
528.57	33.23
528.693	20.23
528.817	13.23
528.94	27.23
529.064	55.23
529.187	23.23
529.31	10.23
529.434	12.23
529.557	3.23
529.68	19.23
529.804	9.23
529.927	27.23
530.051	23.23
530.174	9.23
530.297	16.23
530.421	34.23
530.544	35.23
530.668	29.23
530.791	9.23
530.914	40.23
531.038	39.23
531.161	15.23
531.284	25.23
531.408	45.23
531.531	29.23
531.654	30.23
531.778	44.23
531.901	13.23
532.024	32.23
532.148	1.23
532.271	2.23
532.394	14.23
532.518	28.23
532.641	32.23
532.764	44.23
532.888	24.23
533.011	5.23
533.134	22.23
533.258	26.23
533.381	11.23
533.504	26.23
533.628	23.23
533.751	17.23
533.874	17.23
533.997	13.23
534.121	3.23
534.244	23.23
534.367	16.23
534.491	33.23
534.614	35.23
534.737	25.23
534.86	26.23
534.984	23.23
535.107	15.23
535.23	26.23
535.354	23.23
535.477	22.23
535.6	10.23
535.723	23.23
535.847	29.23
535.97	7.23
536.093	9.23
536.216	-2.77
536.34	11.23
536.463	10.23
536.586	26.23
536.709	19.23
536.833	20.23
536.956	25.23
537.079	37.23
537.202	27.23
537.325	13.23
537.449	17.23
537.572	24.23
537.695	15.23
537.818	3.23
537.941	13.23
538.065	28.23
538.188	16.23
538.311	29.23
538.434	23.23
538.558	10.23
538.681	34.23
538.804	26.23
538.927	28.23
539.05	23.23
539.173	19.23
539.297	12.23
539.42	28.23
539.543	24.23
539.666	29.23
539.789	36.23
539.913	33.23
540.036	32.23
540.159	29.23
540.282	21.23
540.405	20.23
540.528	23.23
540.651	41.23
540.775	7.23
540.898	37.23
541.021	38.23
541.144	42.23
541.267	50.23
541.39	17.23
541.513	39.23
541.637	32.23
541.76	21.23
541.883	37.23
542.006	53.23
542.129	48.23
542.252	41.23
542.375	58.23
542.498	43.23
542.622	61.23
542.745	46.23
542.868	45.23
542.991	60.23
543.114	60.23
543.237	52.23
543.36	57.23
543.483	66.23
543.606	89.23
543.73	94.23
543.853	76.23
543.976	96.23
544.099	124.23
544.222	126.23
544.345	139.23
544.468	177.23
544.591	227.23
544.714	259.23
544.837	333.23
544.96	455.23
545.083	673.23
545.206	1079.23
545.329	2474.23
545.453	11199.23
545.576	15297.23
545.699	15686.23
545.822	15686.23
545.945	15686.23
546.068	15686.23
546.191	15686.23
546.314	15686.23
546.437	15686.23
546.56	15686.23
546.683	15686.23
546.806	15686.23
546.929	15686.23
547.052	15686.23
547.175	15686.23
547.298	15686.23
547.421	15686.23
547.544	15686.23
547.667	4031.23
547.79	4802.23
547.913	1442.23
548.036	984.23
548.159	703.23
548.282	676.23
548.405	504.23
548.528	531.23
548.651	426.23
548.774	430.23
548.897	368.23
549.02	384.23
549.143	339.23
549.266	322.23
549.389	276.23
549.512	268.23
549.635	269.23
549.758	235.23
549.881	210.23
550.004	229.23
550.127	208.23
550.25	183.23
550.373	175.23
550.496	195.23
550.619	161.23
550.742	170.23
550.865	153.23
550.988	167.23
551.111	159.23
551.234	153.23
551.356	118.23
551.479	119.23
551.602	130.23
551.725	137.23
551.848	135.23
551.971	149.23
552.094	113.23
552.217	128.23
552.34	120.23
552.463	117.23
552.586	105.23
552.709	111.23
552.832	97.23
552.955	102.23
553.077	99.23
553.2	114.23
553.323	85.23
553.446	95.23
553.569	92.23
553.692	100.23
553.815	109.23
553.938	117.23
554.061	120.23
554.184	92.23
554.306	89.23
554.429	88.23
554.552	85.23
554.675	60.23
554.798	84.23
554.921	87.23
555.044	78.23
555.167	81.23
555.29	79.23
555.412	76.23
555.535	80.23
555.658	71.23
555.781	71.23
555.904	63.23
556.027	77.23
556.15	74.23
556.272	70.23
556.395	86.23
556.518	68.23
556.641	80.23
556.764	88.23
556.887	97.23
557.01	71.23
557.132	72.23
557.255	61.23
557.378	83.23
557.501	78.23
557.624	72.23
557.747	61.23
557.869	83.23
557.992	95.23
558.115	102.23
558.238	93.23
558.361	121.23
558.483	104.23
558.606	80.23
558.729	59.23
558.852	84.23
558.975	59.23
559.098	77.23
559.22	64.23
559.343	53.23
559.466	49.23
559.589	43.23
559.712	64.23
559.834	66.23
559.957	40.23
560.08	60.23
560.203	68.23
560.325	81.23
560.448	72.23
560.571	53.23
560.694	45.23
560.817	73.23
560.939	54.23
561.062	62.23
561.185	59.23
561.308	62.23
561.43	65.23
561.553	66.23
561.676	46.23
561.799	49.23
561.921	61.23
562.044	69.23
562.167	51.23
562.29	76.23
562.413	83.23
562.535	80.23
562.658	52.23
562.781	63.23
562.903	65.23
563.026	97.23
563.149	112.23
563.272	124.23
563.394	113.23
563.517	102.23
563.64	84.23
563.763	53.23
563.885	64.23
564.008	68.23
564.131	55.23
564.254	35.23
564.376	31.23
564.499	26.23
564.622	30.23
564.744	51.23
564.867	48.23
564.99	32.23
565.113	61.23
565.235	53.23
565.358	33.23
565.481	34.23
565.603	37.23
565.726	33.23
565.849	54.23
565.971	47.23
566.094	43.23
566.217	45.23
566.34	39.23
566.462	36.23
566.585	49.23
566.708	71.23
566.83	39.23
566.953	45.23
567.076	31.23
567.198	27.23
567.321	23.23
567.444	40.23
567.566	37.23
567.689	31.23
567.812	36.23
567.934	46.23
568.057	56.23
568.18	39.23
568.302	43.23
568.425	13.23
568.548	33.23
568.67	36.23
568.793	34.23
568.916	47.23
569.038	32.23
569.161	42.23
569.283	36.23
569.406	25.23
569.529	34.23
569.651	29.23
569.774	28.23
569.897	25.23
570.019	26.23
570.142	39.23
570.265	35.23
570.387	27.23
570.51	31.23
570.632	28.23
570.755	29.23
570.878	45.23
571	44.23
571.123	33.23
571.246	59.23
571.368	34.23
571.491	28.23
571.613	34.23
571.736	37.23
571.859	37.23
571.981	24.23
572.104	25.23
572.226	31.23
572.349	23.23
572.472	46.23
572.594	40.23
572.717	35.23
572.839	41.23
572.962	45.23
573.085	44.23
573.207	23.23
573.33	29.23
573.452	46.23
573.575	39.23
573.697	26.23
573.82	41.23
573.943	16.23
574.065	40.23
574.188	36.23
574.31	45.23
574.433	56.23
574.555	54.23
574.678	18.23
574.801	50.23
574.923	32.23
575.046	42.23
575.168	30.23
575.291	40.23
575.413	53.23
575.536	39.23
575.659	72.23
575.781	67.23
575.904	71.23
576.026	78.23
576.149	74.23
576.271	128.23
576.394	210.23
576.516	519.23
576.639	3719.23
576.761	10307.23
576.884	8931.23
577.007	8935.23
577.129	8083.23
577.252	3796.23
577.374	1305.23
577.497	526.23
577.619	291.23
577.742	178.23
577.864	160.23
577.987	135.23
578.109	130.23
578.232	134.23
578.354	160.23
578.477	191.23
578.599	384.23
578.722	1999.23
578.844	9278.23
578.967	9968.23
579.089	8868.23
579.212	9214.23
579.334	5317.23
579.457	1945.23
579.579	723.23
579.702	335.23
579.824	205.23
579.947	111.23
580.069	104.23
580.192	89.23
580.314	95.23
580.437	93.23
580.559	102.23
580.682	62.23
580.804	65.23
580.927	68.23
581.049	87.23
581.172	52.23
581.294	39.23
581.417	55.23
581.539	55.23
581.662	48.23
581.784	58.23
581.907	45.23
582.029	40.23
582.152	22.23
582.274	26.23
582.396	32.23
582.519	53.23
582.641	48.23
582.764	21.23
582.886	41.23
583.009	38.23
583.131	29.23
583.254	23.23
583.376	64.23
583.499	49.23
583.621	32.23
583.743	47.23
583.866	33.23
583.988	45.23
584.111	61.23
584.233	49.23
584.356	44.23
584.478	36.23
584.601	18.23
584.723	20.23
584.845	33.23
584.968	23.23
585.09	11.23
585.213	34.23
585.335	12.23
585.458	17.23
585.58	25.23
585.702	59.23
585.825	57.23
585.947	31.23
586.07	16.23
586.192	38.23
586.315	27.23
586.437	18.23
586.559	21.23
586.682	15.23
586.804	31.23
586.927	17.23
587.049	20.23
587.171	29.23
587.294	33.23
587.416	52.23
587.539	40.23
587.661	36.23
587.783	30.23
587.906	28.23
588.028	24.23
588.151	36.23
588.273	54.23
588.395	33.23
588.518	15.23
588.64	22.23
588.763	36.23
588.885	38.23
589.007	48.23
589.13	18.23
589.252	26.23
589.375	36.23
589.497	39.23
589.619	36.23
589.742	44.23
589.864	51.23
589.986	19.23
590.109	22.23
590.231	21.23
590.354	37.23
590.476	16.23
590.598	16.23
590.721	-3.77
590.843	32.23
590.965	21.23
591.088	29.23
591.21	22.23
591.332	41.23
591.455	10.23
591.577	24.23
591.7	34.23
591.822	41.23
591.944	36.23
592.067	35.23
592.189	28.23
592.311	53.23
592.434	29.23
592.556	40.23
592.678	37.23
592.801	33.23
592.923	30.23
593.045	23.23
593.168	34.23
593.29	25.23
593.412	21.23
593.535	30.23
593.657	8.23
593.779	26.23
593.902	27.23
594.024	25.23
594.146	26.23
594.269	29.23
594.391	19.23
594.513	34.23
594.636	12.23
594.758	23.23
594.88	29.23
595.003	15.23
595.125	9.23
595.247	27.23
595.37	11.23
595.492	10.23
595.614	27.23
595.737	35.23
595.859	27.23
595.981	34.23
596.104	35.23
596.226	26.23
596.348	31.23
596.471	32.23
596.593	50.23
596.715	36.23
596.838	28.23
596.96	12.23
597.082	15.23
597.204	34.23
597.327	39.23
597.449	11.23
597.571	20.23
597.694	28.23
597.816	27.23
597.938	14.23
598.061	8.23
598.183	13.23
598.305	50.23
598.427	40.23
598.55	18.23
598.672	41.23
598.794	37.23
598.917	23.23
599.039	22.23
599.161	41.23
599.283	32.23
599.406	27.23
599.528	45.23
599.65	34.23
599.773	10.23
599.895	28.23
600.017	53.23
600.139	19.23
600.262	18.23
600.384	32.23
600.506	31.23
600.628	43.23
600.751	46.23
600.873	28.23
600.995	35.23
601.118	41.23
601.24	29.23
601.362	52.23
601.484	36.23
601.607	27.23
601.729	30.23
601.851	3.23
601.973	27.23
602.096	17.23
602.218	21.23
602.34	35.23
602.462	27.23
602.585	27.23
602.707	18.23
602.829	39.23
602.951	34.23
603.074	4.23
603.196	20.23
603.318	10.23
603.44	35.23
603.563	26.23
603.685	13.23
603.807	13.23
603.929	26.23
604.052	49.23
604.174	35.23
604.296	23.23
604.418	38.23
604.541	16.23
604.663	31.23
604.785	12.23
604.907	9.23
605.03	-1.77
605.152	51.23
605.274	16.23
605.396	34.23
605.519	16.23
605.641	25.23
605.763	24.23
605.885	17.23
606.008	13.23
606.13	43.23
606.252	34.23
606.374	5.23
606.496	-9.77
606.619	25.23
606.741	34.23
606.863	48.23
606.985	41.23
607.108	31.23
607.23	17.23
607.352	11.23
607.474	14.23
607.596	36.23
607.719	39.23
607.841	28.23
607.963	15.23
608.085	-4.77
608.207	36.23
608.33	31.23
608.452	7.23
608.574	17.23
608.696	29.23
608.819	39.23
608.941	23.23
609.063	17.23
609.185	21.23
609.307	22.23
609.43	32.23
609.552	8.23
609.674	9.23
609.796	38.23
609.918	38.23
610.041	28.23
610.163	21.23
610.285	23.23
610.407	13.23
610.529	9.23
610.652	17.23
610.774	25.23
610.896	17.23
611.018	34.23
611.14	28.23
611.263	6.23
611.385	9.23
611.507	34.23
611.629	13.23
611.751	23.23
611.873	44.23
611.996	19.23
612.118	38.23
612.24	23.23
612.362	40.23
612.484	52.23
612.607	40.23
612.729	52.23
612.851	33.23
612.973	14.23
613.095	25.23
613.218	14.23
613.34	22.23
613.462	30.23
613.584	30.23
613.706	18.23
613.828	52.23
613.951	24.23
614.073	9.23
614.195	20.23
614.317	34.23
614.439	32.23
614.561	24.23
614.684	39.23
614.806	34.23
614.928	59.23
615.05	20.23
615.172	33.23
615.294	29.23
615.417	31.23
615.539	17.23
615.661	23.23
615.783	41.23
615.905	30.23
616.027	31.23
616.15	30.23
616.272	12.23
616.394	29.23
616.516	8.23
616.638	14.23
616.76	13.23
616.883	19.23
617.005	13.23
617.127	23.23
617.249	41.23
617.371	35.23
617.493	20.23
617.615	37.23
617.738	20.23
617.86	27.23
617.982	29.23
618.104	29.23
618.226	3.23
618.348	8.23
618.471	17.23
618.593	30.23
618.715	15.23
618.837	28.23
618.959	29.23
619.081	38.23
619.203	29.23
619.326	33.23
619.448	31.23
619.57	37.23
619.692	31.23
619.814	18.23
619.936	23.23
620.058	26.23
620.181	18.23
620.303	14.23
620.425	24.23
620.547	9.23
620.669	16.23
620.791	29.23
620.913	16.23
621.036	8.23
621.158	32.23
621.28	18.23
621.402	12.23
621.524	20.23
621.646	34.23
621.768	21.23
621.891	3.23
622.013	31.23
622.135	15.23
622.257	7.23
622.379	18.23
622.501	27.23
622.623	17.23
622.745	19.23
622.868	8.23
622.99	13.23
623.112	11.23
623.234	17.23
623.356	26.23
623.478	14.23
623.6	13.23
623.722	14.23
623.845	17.23
623.967	12.23
624.089	12.23
624.211	34.23
624.333	25.23
624.455	17.23
624.577	11.23
624.699	35.23
624.822	16.23
624.944	4.23
625.066	20.23
625.188	16.23
625.31	26.23
625.432	42.23
625.554	7.23
625.676	34.23
625.799	19.23
625.921	36.23
626.043	25.23
626.165	21.23
626.287	13.23
626.409	31.23
626.531	19.23
626.653	12.23
626.775	25.23
626.898	32.23
627.02	34.23
627.142	55.23
627.264	36.23
627.386	7.23
627.508	29.23
627.63	17.23
627.752	18.23
627.874	21.23
627.997	8.23
628.119	15.23
628.241	32.23
628.363	26.23
628.485	31.23
628.607	24.23
628.729	15.23
628.851	7.23
628.973	3.23
629.096	5.23
629.218	19.23
629.34	21.23
629.462	8.23
629.584	18.23
629.706	13.23
629.828	27.23
629.95	33.23
630.072	17.23
630.195	28.23
630.317	15.23
630.439	21.23
630.561	40.23
630.683	3.23
630.805	16.23
630.927	22.23
631.049	26.23
631.171	11.23
631.293	16.23
631.416	33.23
631.538	27.23
631.66	24.23
631.782	42.23
631.904	49.23
632.026	11.23
632.148	20.23
632.27	7.23
632.392	31.23
632.514	17.23
632.637	24.23
632.759	5.23
632.881	10.23
633.003	12.23
633.125	-2.77
633.247	-7.77
633.369	4.23
633.491	11.23
633.613	15.23
633.735	19.23
633.858	18.23
633.98	4.23
634.102	10.23
634.224	27.23
634.346	21.23
634.468	10.23
634.59	27.23
634.712	31.23
634.834	24.23
634.956	14.23
635.078	18.23
635.201	10.23
635.323	20.23
635.445	9.23
635.567	1.23
635.689	28.23
635.811	11.23
635.933	10.23
636.055	11.23
636.177	13.23
636.299	31.23
636.421	23.23
636.544	10.23
636.666	9.23
636.788	12.23
636.91	18.23
637.032	9.23
637.154	10.23
637.276	36.23
637.398	29.23
637.52	32.23
637.642	23.23
637.764	10.23
637.887	12.23
638.009	22.23
638.131	24.23
638.253	0.23
638.375	26.23
638.497	35.23
638.619	2.23
638.741	5.23
638.863	7.23
638.985	7.23
639.107	16.23
639.23	4.23
639.352	25.23
639.474	12.23
639.596	20.23
639.718	29.23
639.84	19.23
639.962	24.23
640.084	13.23
640.206	27.23
640.328	8.23
640.45	27.23
640.573	3.23
640.695	21.23
640.817	6.23
640.939	18.23
641.061	5.23
641.183	18.23
641.305	20.23
641.427	9.23
641.549	17.23
641.671	23.23
641.793	16.23
641.915	23.23
642.038	5.23
642.16	10.23
642.282	9.23
642.404	21.23
642.526	22.23
642.648	9.23
642.77	20.23
642.892	20.23
643.014	15.23
643.136	21.23
643.258	24.23
643.381	40.23
643.503	38.23
643.625	12.23
643.747	11.23
643.869	9.23
643.991	11.23
644.113	30.23
644.235	30.23
644.357	7.23
644.479	17.23
644.601	20.23
644.723	20.23
644.846	17.23
644.968	23.23
645.09	15.23
645.212	-0.77
645.334	27.23
645.456	24.23
645.578	35.23
645.7	14.23
645.822	31.23
645.944	7.23
646.066	11.23
646.188	11.23
646.311	31.23
646.433	10.23
646.555	27.23
646.677	16.23
646.799	17.23
646.921	25.23
647.043	33.23
647.165	4.23
647.287	16.23
647.409	6.23
647.531	37.23
647.654	-5.77
647.776	12.23
647.898	32.23
648.02	16.23
648.142	3.23
648.264	7.23
648.386	16.23
648.508	13.23
648.63	11.23
648.752	12.23
648.874	17.23
648.997	27.23
649.119	32.23
649.241	3.23
649.363	19.23
649.485	16.23
649.607	1.23
649.729	5.23
649.851	18.23
649.973	24.23
650.095	24.23
650.217	21.23
650.34	4.23
650.462	12.23
650.584	24.23
650.706	27.23
650.828	24.23
650.95	13.23
651.072	27.23
651.194	7.23
651.316	-1.77
651.438	16.23
651.56	0.23
651.683	-4.77
651.805	20.23
651.927	7.23
652.049	12.23
652.171	11.23
652.293	4.23
652.415	-2.77
652.537	-12.77
652.659	-0.77
652.781	14.23
652.903	21.23
653.026	33.23
653.148	31.23
653.27	18.23
653.392	28.23
653.514	9.23
653.636	3.23
653.758	0.23
653.88	-10.77
654.002	9.23
654.124	25.23
654.247	8.23
654.369	29.23
654.491	1.23
654.613	12.23
654.735	13.23
654.857	41.23
654.979	8.23
655.101	21.23
655.223	36.23
655.345	16.23
655.468	18.23
655.59	8.23
655.712	18.23
655.834	10.23
655.956	31.23
656.078	12.23
656.2	14.23
656.322	21.23
656.444	-17.77
656.566	23.23
656.689	7.23
656.811	8.23
656.933	24.23
657.055	-7.77
657.177	2.23
657.299	16.23
657.421	27.23
657.543	23.23
657.665	8.23
657.787	15.23
657.91	2.23
658.032	24.23
658.154	5.23
658.276	3.23
658.398	13.23
658.52	28.23
658.642	23.23
658.764	9.23
658.886	-2.77
659.009	5.23
659.131	24.23
659.253	17.23
659.375	15.23
659.497	17.23
659.619	27.23
659.741	1.23
659.863	11.23
659.985	2.23
660.108	0.23
660.23	8.23
660.352	16.23
660.474	29.23
660.596	19.23
660.718	8.23
660.84	1.23
660.962	15.23
661.084	3.23
661.207	18.23
661.329	16.23
661.451	9.23
661.573	13.23
661.695	32.23
661.817	22.23
661.939	27.23
662.061	33.23
662.184	19.23
662.306	9.23
662.428	16.23
662.55	27.23
662.672	-3.77
662.794	5.23
662.916	12.23
663.038	12.23
663.161	23.23
663.283	16.23
663.405	19.23
663.527	13.23
663.649	20.23
663.771	19.23
663.893	9.23
664.015	8.23
664.138	10.23
664.26	19.23
664.382	7.23
664.504	11.23
664.626	-8.77
664.748	3.23
664.87	3.23
664.992	22.23
665.115	0.23
665.237	6.23
665.359	15.23
665.481	14.23
665.603	12.23
665.725	11.23
665.847	-8.77
665.97	7.23
666.092	23.23
666.214	19.23
666.336	8.23
666.458	11.23
666.58	8.23
666.702	-4.77
666.825	13.23
666.947	8.23
667.069	24.23
667.191	7.23
667.313	12.23
667.435	-4.77
667.557	-2.77
667.68	9.23
667.802	9.23
667.924	4.23
668.046	21.23
668.168	11.23
668.29	21.23
668.412	0.23
668.535	1.23
668.657	25.23
668.779	16.23
668.901	11.23
669.023	9.23
669.145	21.23
669.267	26.23
669.39	24.23
669.512	3.23
669.634	1.23
669.756	15.23
669.878	-0.77
670	25.23
670.123	1.23
670.245	33.23
670.367	41.23
670.489	17.23
670.611	13.23
670.733	12.23
670.856	18.23
670.978	24.23
671.1	21.23
671.222	11.23
671.344	27.23
671.466	10.23
671.589	0.23
671.711	-1.77
671.833	4.23
671.955	11.23
672.077	26.23
672.199	25.23
672.322	35.23
672.444	25.23
672.566	22.23
672.688	11.23
672.81	5.23
672.932	20.23
673.055	8.23
673.177	9.23
673.299	12.23
673.421	15.23
673.543	15.23
673.665	23.23
673.788	20.23
673.91	-9.77
674.032	7.23
674.154	-0.77
674.276	7.23
674.399	15.23
674.521	-2.77
674.643	10.23
674.765	4.23
674.887	3.23
675.009	3.23
675.132	11.23
675.254	17.23
675.376	12.23
675.498	9.23
675.62	9.23
675.743	16.23
675.865	22.23
675.987	17.23
676.109	4.23
676.231	13.23
676.354	19.23
676.476	17.23
676.598	4.23
676.72	7.23
676.842	14.23
676.965	10.23
677.087	5.23
677.209	19.23
677.331	31.23
677.453	30.23
677.576	24.23
677.698	15.23
677.82	12.23
677.942	-2.77
678.064	8.23
678.187	8.23
678.309	1.23
678.431	18.23
678.553	11.23
678.675	32.23
678.798	28.23
678.92	12.23
679.042	10.23
679.164	15.23
679.286	30.23
679.409	23.23
679.531	15.23
679.653	7.23
679.775	8.23
679.898	-7.77
680.02	1.23
680.142	4.23
680.264	19.23
680.386	-4.77
680.509	12.23
680.631	9.23
680.753	0.23
680.875	15.23
680.998	7.23
681.12	24.23
681.242	31.23
681.364	11.23
681.486	27.23
681.609	0.23
681.731	-11.77
681.853	4.23
681.975	5.23
682.098	23.23
682.22	25.23
682.342	8.23
682.464	18.23
682.587	15.23
682.709	17.23
682.831	1.23
682.953	3.23
683.076	-8.77
683.198	22.23
683.32	15.23
683.442	19.23
683.565	25.23
683.687	12.23
683.809	9.23
683.931	-1.77
684.054	18.23
684.176	12.23
684.298	17.23
684.42	15.23
684.543	4.23
684.665	16.23
684.787	8.23
684.909	5.23
685.032	20.23
685.154	1.23
685.276	25.23
685.398	3.23
685.521	-6.77
685.643	11.23
685.765	23.23
685.887	24.23
686.01	17.23
686.132	15.23
686.254	35.23
686.377	7.23
686.499	6.23
686.621	25.23
686.743	29.23
686.866	1.23
686.988	28.23
687.11	35.23
687.232	34.23
687.355	1.23
687.477	8.23
687.599	7.23
687.722	19.23
687.844	24.23
687.966	10.23
688.088	23.23
688.211	41.23
688.333	22.23
688.455	27.23
688.578	22.23
688.7	24.23
688.822	12.23
688.944	-2.77
689.067	37.23
689.189	38.23
689.311	3.23
689.434	7.23
689.556	15.23
689.678	32.23
689.801	8.23
689.923	23.23
690.045	29.23
690.167	29.23
690.29	26.23
690.412	21.23
690.534	17.23
690.657	3.23
690.779	9.23
690.901	0.23
691.024	18.23
691.146	40.23
691.268	18.23
691.391	30.23
691.513	17.23
691.635	13.23
691.758	13.23
691.88	33.23
692.002	17.23
692.125	2.23
692.247	11.23
692.369	5.23
692.492	-14.77
692.614	9.23
692.736	-3.77
692.859	16.23
692.981	12.23
693.103	12.23
693.226	30.23
693.348	35.23
693.47	11.23
693.593	35.23
693.715	34.23
693.837	47.23
693.96	12.23
694.082	8.23
694.204	11.23
694.327	18.23
694.449	16.23
694.571	17.23
694.694	27.23
694.816	12.23
694.938	4.23
695.061	4.23
695.183	0.23
695.305	9.23
695.428	24.23
695.55	2.23
695.672	12.23
695.795	40.23
695.917	37.23
696.04	11.23
696.162	3.23
696.284	17.23
696.407	15.23
696.529	26.23
696.651	34.23
696.774	2.23
696.896	37.23
697.019	24.23
697.141	15.23
697.263	9.23
697.386	10.23
697.508	19.23
697.63	25.23
697.753	31.23
697.875	8.23
697.998	2.23
698.12	7.23
698.242	26.23
698.365	19.23
698.487	0.23
698.61	21.23
698.732	23.23
698.854	24.23
698.977	-5.77
699.099	32.23
699.221	14.23
699.344	18.23
699.466	10.23
699.589	27.23
699.711	1.23
699.834	9.23
699.956	24.23
700.078	20.23
700.201	0.23
700.323	15.23
700.446	13.23
700.568	10.23
700.69	7.23
700.813	17.23
700.935	27.23
701.058	2.23
701.18	7.23
701.302	24.23
701.425	8.23
701.547	25.23
701.67	7.23
701.792	26.23
701.915	3.23
702.037	-7.77
702.159	16.23
702.282	11.23
702.404	12.23
702.527	31.23
702.649	41.23
702.772	19.23
702.894	9.23
703.017	12.23
703.139	20.23
703.261	32.23
703.384	28.23
703.506	12.23
703.629	2.23
703.751	13.23
703.874	17.23
703.996	4.23
704.119	-15.77
704.241	8.23
704.364	-6.77
704.486	16.23
704.608	13.23
704.731	33.23
704.853	4.23
704.976	9.23
705.098	23.23
705.221	-7.77
705.343	13.23
705.466	21.23
705.588	18.23
705.711	21.23
705.833	27.23
705.956	18.23
706.078	25.23
706.201	5.23
706.323	7.23
706.446	5.23
