Data from LowRes_mercury_15_20_11_07_2024_HR4C61881__21__15-23-34-371.txt Node

Date: Thu Nov 07 15:23:34 EST 2024
User: crc00042
Spectrometer: HR4C6188
Trigger mode: 4
Integration Time (sec): 1.000000E-1
Scans to average: 1
Electric dark correction enabled: true
Nonlinearity correction enabled: false
Boxcar width: 0
XAxis mode: Wavelengths
Number of Pixels in Spectrum: 3648
>>>>>Begin Spectral Data<<<<<
245.66	-52.69
245.797	-52.69
245.934	-52.69
246.071	-62.69
246.208	22.31
246.344	-9.69
246.481	-15.69
246.618	1.31
246.755	24.31
246.892	4.31
247.029	-13.69
247.165	-8.69
247.302	18.31
247.439	-7.69
247.576	1.31
247.713	8.31
247.849	24.31
247.986	-26.69
248.123	11.31
248.26	3.31
248.396	0.31
248.533	13.31
248.67	8.31
248.806	14.31
248.943	-1.69
249.08	32.31
249.216	22.31
249.353	-11.69
249.49	6.31
249.626	6.31
249.763	-2.69
249.9	8.31
250.036	-6.69
250.173	4.31
250.309	13.31
250.446	25.31
250.582	3.31
250.719	0.31
250.856	-13.69
250.992	4.31
251.129	1.31
251.265	5.31
251.402	-3.69
251.538	4.31
251.675	5.31
251.811	28.31
251.948	-2.69
252.084	6.31
252.221	12.31
252.357	0.31
252.493	34.31
252.63	-4.69
252.766	15.31
252.903	10.31
253.039	0.31
253.175	-9.69
253.312	3.31
253.448	-6.69
253.585	-17.69
253.721	16.31
253.857	-14.69
253.994	-2.69
254.13	-2.69
254.266	-0.69
254.403	2.31
254.539	-3.69
254.675	24.31
254.811	15.31
254.948	7.31
255.084	-3.69
255.22	4.31
255.356	5.31
255.493	2.31
255.629	1.31
255.765	5.31
255.901	3.31
256.037	24.31
256.174	30.31
256.31	-13.69
256.446	-5.69
256.582	-0.69
256.718	16.31
256.854	8.31
256.991	30.31
257.127	30.31
257.263	15.31
257.399	4.31
257.535	-5.69
257.671	-7.69
257.807	-17.69
257.943	8.31
258.079	-18.69
258.215	-10.69
258.351	26.31
258.487	8.31
258.623	20.31
258.759	-6.69
258.895	16.31
259.031	2.31
259.167	-10.69
259.303	19.31
259.439	11.31
259.575	-2.69
259.711	9.31
259.847	-12.69
259.983	21.31
260.119	-6.69
260.255	-1.69
260.391	8.31
260.527	16.31
260.663	21.31
260.799	19.31
260.934	3.31
261.07	0.31
261.206	-14.69
261.342	-7.69
261.478	23.31
261.614	25.31
261.749	17.31
261.885	-5.69
262.021	10.31
262.157	30.31
262.293	1.31
262.428	-0.69
262.564	-2.69
262.7	21.31
262.836	-1.69
262.971	9.31
263.107	16.31
263.243	17.31
263.378	4.31
263.514	-12.69
263.65	17.31
263.785	-11.69
263.921	2.31
264.057	2.31
264.192	18.31
264.328	33.31
264.464	1.31
264.599	1.31
264.735	27.31
264.871	15.31
265.006	11.31
265.142	23.31
265.277	1.31
265.413	19.31
265.548	24.31
265.684	26.31
265.819	8.31
265.955	-17.69
266.091	-27.69
266.226	2.31
266.362	20.31
266.497	13.31
266.633	3.31
266.768	9.31
266.903	20.31
267.039	33.31
267.174	29.31
267.31	-8.69
267.445	-15.69
267.581	-0.69
267.716	10.31
267.851	1.31
267.987	13.31
268.122	14.31
268.258	2.31
268.393	-7.69
268.528	11.31
268.664	8.31
268.799	-9.69
268.934	4.31
269.07	-4.69
269.205	-1.69
269.34	25.31
269.476	12.31
269.611	-9.69
269.746	20.31
269.881	29.31
270.017	33.31
270.152	3.31
270.287	17.31
270.422	19.31
270.558	-9.69
270.693	11.31
270.828	-18.69
270.963	12.31
271.098	-3.69
271.234	13.31
271.369	22.31
271.504	14.31
271.639	0.31
271.774	9.31
271.909	2.31
272.045	-9.69
272.18	-0.69
272.315	-1.69
272.45	6.31
272.585	-14.69
272.72	-5.69
272.855	11.31
272.99	26.31
273.125	-6.69
273.26	0.31
273.395	-13.69
273.53	-7.69
273.665	5.31
273.8	0.31
273.935	12.31
274.07	-0.69
274.205	11.31
274.34	5.31
274.475	3.31
274.61	20.31
274.745	0.31
274.88	17.31
275.015	0.31
275.15	20.31
275.285	19.31
275.42	21.31
275.555	26.31
275.69	12.31
275.825	14.31
275.959	14.31
276.094	2.31
276.229	3.31
276.364	-1.69
276.499	4.31
276.634	6.31
276.768	1.31
276.903	-7.69
277.038	17.31
277.173	-5.69
277.308	20.31
277.442	2.31
277.577	11.31
277.712	2.31
277.847	10.31
277.981	29.31
278.116	-4.69
278.251	12.31
278.386	16.31
278.52	15.31
278.655	20.31
278.79	17.31
278.924	13.31
279.059	18.31
279.194	8.31
279.328	47.31
279.463	12.31
279.598	22.31
279.732	17.31
279.867	15.31
280.001	26.31
280.136	8.31
280.271	15.31
280.405	13.31
280.54	3.31
280.674	-9.69
280.809	28.31
280.943	-4.69
281.078	0.31
281.213	11.31
281.347	16.31
281.482	19.31
281.616	5.31
281.751	6.31
281.885	-3.69
282.02	-3.69
282.154	17.31
282.288	5.31
282.423	-1.69
282.557	-12.69
282.692	10.31
282.826	10.31
282.961	46.31
283.095	10.31
283.229	17.31
283.364	-15.69
283.498	4.31
283.633	18.31
283.767	15.31
283.901	6.31
284.036	5.31
284.17	-12.69
284.304	6.31
284.439	-0.69
284.573	2.31
284.707	12.31
284.842	5.31
284.976	11.31
285.11	-14.69
285.244	5.31
285.379	49.31
285.513	10.31
285.647	17.31
285.781	15.31
285.916	31.31
286.05	18.31
286.184	36.31
286.318	19.31
286.453	2.31
286.587	-1.69
286.721	-12.69
286.855	13.31
286.989	16.31
287.123	3.31
287.258	-10.69
287.392	15.31
287.526	20.31
287.66	17.31
287.794	15.31
287.928	-5.69
288.062	-0.69
288.196	-2.69
288.33	-0.69
288.464	17.31
288.598	22.31
288.733	2.31
288.867	27.31
289.001	25.31
289.135	17.31
289.269	4.31
289.403	6.31
289.537	4.31
289.671	19.31
289.805	-13.69
289.939	10.31
290.073	4.31
290.207	15.31
290.34	-1.69
290.474	41.31
290.608	11.31
290.742	6.31
290.876	11.31
291.01	10.31
291.144	17.31
291.278	16.31
291.412	11.31
291.546	5.31
291.679	-1.69
291.813	8.31
291.947	6.31
292.081	6.31
292.215	0.31
292.349	7.31
292.482	22.31
292.616	4.31
292.75	-11.69
292.884	-0.69
293.018	1.31
293.151	-18.69
293.285	0.31
293.419	6.31
293.553	-6.69
293.686	-12.69
293.82	12.31
293.954	25.31
294.088	24.31
294.221	11.31
294.355	-2.69
294.489	16.31
294.622	-2.69
294.756	20.31
294.89	3.31
295.023	22.31
295.157	-0.69
295.291	21.31
295.424	27.31
295.558	6.31
295.691	18.31
295.825	18.31
295.959	4.31
296.092	-5.69
296.226	5.31
296.359	-0.69
296.493	10.31
296.627	34.31
296.76	19.31
296.894	14.31
297.027	6.31
297.161	3.31
297.294	10.31
297.428	3.31
297.561	17.31
297.695	-10.69
297.828	14.31
297.962	-7.69
298.095	-6.69
298.229	12.31
298.362	15.31
298.495	-3.69
298.629	-0.69
298.762	21.31
298.896	18.31
299.029	-1.69
299.162	5.31
299.296	12.31
299.429	-3.69
299.563	4.31
299.696	24.31
299.829	19.31
299.963	18.31
300.096	-4.69
300.229	-1.69
300.363	15.31
300.496	13.31
300.629	-19.69
300.763	-1.69
300.896	8.31
301.029	5.31
301.162	1.31
301.296	18.31
301.429	14.31
301.562	-18.69
301.695	-6.69
301.829	15.31
301.962	10.31
302.095	-9.69
302.228	-8.69
302.362	2.31
302.495	-11.69
302.628	10.31
302.761	1.31
302.894	17.31
303.027	41.31
303.161	-4.69
303.294	0.31
303.427	25.31
303.56	16.31
303.693	-0.69
303.826	10.31
303.959	12.31
304.092	4.31
304.225	13.31
304.359	19.31
304.492	33.31
304.625	13.31
304.758	10.31
304.891	5.31
305.024	4.31
305.157	-3.69
305.29	-1.69
305.423	14.31
305.556	11.31
305.689	29.31
305.822	9.31
305.955	10.31
306.088	9.31
306.221	4.31
306.354	-12.69
306.487	-13.69
306.62	-4.69
306.752	8.31
306.885	15.31
307.018	10.31
307.151	15.31
307.284	14.31
307.417	10.31
307.55	26.31
307.683	4.31
307.816	5.31
307.948	11.31
308.081	13.31
308.214	13.31
308.347	18.31
308.48	-3.69
308.613	-13.69
308.745	23.31
308.878	3.31
309.011	21.31
309.144	15.31
309.277	8.31
309.409	33.31
309.542	2.31
309.675	9.31
309.808	15.31
309.94	9.31
310.073	-15.69
310.206	11.31
310.339	11.31
310.471	-2.69
310.604	17.31
310.737	-9.69
310.869	4.31
311.002	12.31
311.135	3.31
311.267	-9.69
311.4	9.31
311.533	22.31
311.665	-3.69
311.798	8.31
311.93	22.31
312.063	21.31
312.196	63.31
312.328	97.31
312.461	72.31
312.593	35.31
312.726	57.31
312.859	95.31
312.991	166.31
313.124	49.31
313.256	37.31
313.389	26.31
313.521	-6.69
313.654	8.31
313.786	-4.69
313.919	-5.69
314.051	-5.69
314.184	20.31
314.316	21.31
314.449	-16.69
314.581	3.31
314.714	-5.69
314.846	-2.69
314.978	0.31
315.111	9.31
315.243	3.31
315.376	17.31
315.508	14.31
315.641	-1.69
315.773	15.31
315.905	17.31
316.038	5.31
316.17	15.31
316.302	3.31
316.435	-2.69
316.567	8.31
316.699	16.31
316.832	-5.69
316.964	-1.69
317.096	6.31
317.229	0.31
317.361	-7.69
317.493	0.31
317.625	-21.69
317.758	15.31
317.89	10.31
318.022	1.31
318.155	5.31
318.287	-10.69
318.419	10.31
318.551	21.31
318.683	6.31
318.816	2.31
318.948	1.31
319.08	-11.69
319.212	1.31
319.344	14.31
319.477	-5.69
319.609	17.31
319.741	13.31
319.873	3.31
320.005	-1.69
320.137	18.31
320.269	-1.69
320.401	6.31
320.534	17.31
320.666	-0.69
320.798	1.31
320.93	11.31
321.062	15.31
321.194	10.31
321.326	16.31
321.458	6.31
321.59	12.31
321.722	20.31
321.854	12.31
321.986	12.31
322.118	12.31
322.25	10.31
322.382	8.31
322.514	0.31
322.646	-0.69
322.778	20.31
322.91	-2.69
323.042	2.31
323.174	-0.69
323.306	4.31
323.438	-5.69
323.57	6.31
323.702	-1.69
323.834	-10.69
323.966	-11.69
324.097	15.31
324.229	22.31
324.361	23.31
324.493	17.31
324.625	6.31
324.757	17.31
324.889	7.31
325.021	7.31
325.152	16.31
325.284	11.31
325.416	1.31
325.548	29.31
325.68	-8.69
325.811	6.31
325.943	22.31
326.075	6.31
326.207	38.31
326.339	11.31
326.47	7.31
326.602	13.31
326.734	17.31
326.866	7.31
326.997	1.31
327.129	4.31
327.261	-2.69
327.392	2.31
327.524	10.31
327.656	22.31
327.787	27.31
327.919	3.31
328.051	20.31
328.182	24.31
328.314	24.31
328.446	5.31
328.577	14.31
328.709	0.31
328.841	-12.69
328.972	-5.69
329.104	2.31
329.235	16.31
329.367	17.31
329.499	4.31
329.63	3.31
329.762	6.31
329.893	27.31
330.025	2.31
330.156	-4.69
330.288	-4.69
330.419	6.31
330.551	-8.69
330.683	14.31
330.814	6.31
330.946	22.31
331.077	12.31
331.208	9.31
331.34	-2.69
331.471	-3.69
331.603	21.31
331.734	6.31
331.866	16.31
331.997	18.31
332.129	18.31
332.26	5.31
332.392	10.31
332.523	21.31
332.654	8.31
332.786	24.31
332.917	-10.69
333.048	27.31
333.18	29.31
333.311	19.31
333.443	1.31
333.574	24.31
333.705	47.31
333.837	40.31
333.968	122.31
334.099	222.31
334.231	208.31
334.362	50.31
334.493	34.31
334.624	28.31
334.756	18.31
334.887	30.31
335.018	12.31
335.15	23.31
335.281	26.31
335.412	33.31
335.543	31.31
335.675	24.31
335.806	9.31
335.937	4.31
336.068	14.31
336.199	39.31
336.331	10.31
336.462	22.31
336.593	15.31
336.724	0.31
336.855	29.31
336.986	19.31
337.118	30.31
337.249	-1.69
337.38	27.31
337.511	18.31
337.642	43.31
337.773	30.31
337.904	5.31
338.035	10.31
338.166	14.31
338.298	16.31
338.429	-1.69
338.56	27.31
338.691	15.31
338.822	0.31
338.953	19.31
339.084	21.31
339.215	27.31
339.346	21.31
339.477	16.31
339.608	16.31
339.739	6.31
339.87	18.31
340.001	23.31
340.132	29.31
340.263	31.31
340.394	29.31
340.525	14.31
340.656	12.31
340.787	8.31
340.918	28.31
341.049	31.31
341.179	14.31
341.31	29.31
341.441	34.31
341.572	25.31
341.703	6.31
341.834	-3.69
341.965	20.31
342.096	26.31
342.227	22.31
342.357	12.31
342.488	22.31
342.619	24.31
342.75	19.31
342.881	22.31
343.012	41.31
343.142	42.31
343.273	17.31
343.404	28.31
343.535	55.31
343.666	51.31
343.796	39.31
343.927	44.31
344.058	41.31
344.189	44.31
344.319	36.31
344.45	23.31
344.581	33.31
344.712	15.31
344.842	42.31
344.973	25.31
345.104	26.31
345.234	33.31
345.365	3.31
345.496	32.31
345.626	37.31
345.757	37.31
345.888	11.31
346.018	21.31
346.149	11.31
346.28	30.31
346.41	24.31
346.541	46.31
346.672	24.31
346.802	25.31
346.933	24.31
347.063	27.31
347.194	30.31
347.325	28.31
347.455	57.31
347.586	51.31
347.716	14.31
347.847	36.31
347.977	48.31
348.108	41.31
348.238	51.31
348.369	30.31
348.499	41.31
348.63	49.31
348.76	49.31
348.891	42.31
349.021	65.31
349.152	54.31
349.282	35.31
349.413	32.31
349.543	87.31
349.674	44.31
349.804	44.31
349.935	34.31
350.065	21.31
350.196	21.31
350.326	42.31
350.456	20.31
350.587	51.31
350.717	29.31
350.848	37.31
350.978	32.31
351.108	23.31
351.239	55.31
351.369	23.31
351.499	28.31
351.63	39.31
351.76	32.31
351.89	14.31
352.021	28.31
352.151	18.31
352.281	38.31
352.412	33.31
352.542	39.31
352.672	30.31
352.803	19.31
352.933	19.31
353.063	24.31
353.193	20.31
353.324	6.31
353.454	33.31
353.584	40.31
353.714	15.31
353.845	34.31
353.975	32.31
354.105	21.31
354.235	23.31
354.365	29.31
354.496	24.31
354.626	32.31
354.756	17.31
354.886	23.31
355.016	34.31
355.146	30.31
355.277	34.31
355.407	14.31
355.537	19.31
355.667	31.31
355.797	29.31
355.927	23.31
356.057	27.31
356.187	14.31
356.318	21.31
356.448	37.31
356.578	35.31
356.708	35.31
356.838	25.31
356.968	57.31
357.098	20.31
357.228	41.31
357.358	42.31
357.488	33.31
357.618	57.31
357.748	53.31
357.878	38.31
358.008	36.31
358.138	26.31
358.268	17.31
358.398	26.31
358.528	4.31
358.658	49.31
358.788	29.31
358.918	33.31
359.048	27.31
359.178	49.31
359.308	42.31
359.438	53.31
359.568	44.31
359.698	33.31
359.827	20.31
359.957	26.31
360.087	24.31
360.217	33.31
360.347	28.31
360.477	42.31
360.607	18.31
360.737	35.31
360.866	40.31
360.996	24.31
361.126	25.31
361.256	45.31
361.386	50.31
361.516	52.31
361.645	29.31
361.775	33.31
361.905	12.31
362.035	46.31
362.165	35.31
362.294	45.31
362.424	47.31
362.554	54.31
362.684	32.31
362.813	43.31
362.943	49.31
363.073	49.31
363.203	76.31
363.332	89.31
363.462	94.31
363.592	89.31
363.721	125.31
363.851	160.31
363.981	204.31
364.111	247.31
364.24	335.31
364.37	510.31
364.5	869.31
364.629	1838.31
364.759	3929.31
364.888	6377.31
365.018	9465.31
365.148	14850.31
365.277	13188.31
365.407	4821.31
365.537	3164.31
365.666	4054.31
365.796	1858.31
365.925	823.31
366.055	782.31
366.184	1039.31
366.314	1398.31
366.444	2486.31
366.573	2139.31
366.703	691.31
366.832	222.31
366.962	123.31
367.091	94.31
367.221	81.31
367.35	50.31
367.48	94.31
367.609	60.31
367.739	69.31
367.868	50.31
367.998	37.31
368.127	63.31
368.257	65.31
368.386	51.31
368.516	52.31
368.645	41.31
368.775	76.31
368.904	44.31
369.033	25.31
369.163	29.31
369.292	38.31
369.422	43.31
369.551	46.31
369.68	69.31
369.81	38.31
369.939	33.31
370.069	46.31
370.198	47.31
370.327	35.31
370.457	42.31
370.586	50.31
370.715	39.31
370.845	26.31
370.974	53.31
371.103	59.31
371.233	58.31
371.362	41.31
371.491	34.31
371.621	70.31
371.75	56.31
371.879	51.31
372.008	49.31
372.138	61.31
372.267	74.31
372.396	58.31
372.525	45.31
372.655	29.31
372.784	21.31
372.913	36.31
373.042	59.31
373.172	53.31
373.301	14.31
373.43	4.31
373.559	34.31
373.688	37.31
373.818	24.31
373.947	44.31
374.076	24.31
374.205	34.31
374.334	26.31
374.463	21.31
374.593	29.31
374.722	24.31
374.851	32.31
374.98	16.31
375.109	29.31
375.238	30.31
375.367	49.31
375.496	8.31
375.625	17.31
375.755	45.31
375.884	36.31
376.013	39.31
376.142	27.31
376.271	25.31
376.4	24.31
376.529	33.31
376.658	36.31
376.787	20.31
376.916	35.31
377.045	35.31
377.174	8.31
377.303	15.31
377.432	28.31
377.561	38.31
377.69	21.31
377.819	47.31
377.948	35.31
378.077	23.31
378.206	27.31
378.335	18.31
378.464	13.31
378.593	33.31
378.722	21.31
378.851	20.31
378.98	36.31
379.108	8.31
379.237	11.31
379.366	21.31
379.495	25.31
379.624	26.31
379.753	11.31
379.882	36.31
380.011	19.31
380.14	19.31
380.268	26.31
380.397	5.31
380.526	22.31
380.655	15.31
380.784	15.31
380.913	26.31
381.041	41.31
381.17	9.31
381.299	30.31
381.428	38.31
381.557	25.31
381.685	4.31
381.814	19.31
381.943	26.31
382.072	17.31
382.2	29.31
382.329	27.31
382.458	15.31
382.587	29.31
382.715	36.31
382.844	19.31
382.973	26.31
383.102	33.31
383.23	27.31
383.359	12.31
383.488	45.31
383.616	5.31
383.745	-5.69
383.874	12.31
384.003	23.31
384.131	27.31
384.26	12.31
384.389	23.31
384.517	2.31
384.646	14.31
384.774	27.31
384.903	32.31
385.032	32.31
385.16	21.31
385.289	35.31
385.418	37.31
385.546	18.31
385.675	36.31
385.803	38.31
385.932	45.31
386.06	15.31
386.189	32.31
386.318	25.31
386.446	34.31
386.575	23.31
386.703	38.31
386.832	15.31
386.96	12.31
387.089	30.31
387.217	29.31
387.346	29.31
387.474	20.31
387.603	26.31
387.731	46.31
387.86	34.31
387.988	42.31
388.117	44.31
388.245	22.31
388.374	12.31
388.502	20.31
388.631	20.31
388.759	25.31
388.888	24.31
389.016	-0.69
389.144	30.31
389.273	33.31
389.401	14.31
389.53	22.31
389.658	35.31
389.786	25.31
389.915	22.31
390.043	18.31
390.172	30.31
390.3	52.31
390.428	46.31
390.557	42.31
390.685	33.31
390.813	51.31
390.942	59.31
391.07	33.31
391.198	24.31
391.327	14.31
391.455	2.31
391.583	48.31
391.712	25.31
391.84	24.31
391.968	18.31
392.096	18.31
392.225	17.31
392.353	36.31
392.481	28.31
392.609	43.31
392.738	25.31
392.866	36.31
392.994	24.31
393.122	45.31
393.251	41.31
393.379	27.31
393.507	10.31
393.635	32.31
393.764	15.31
393.892	33.31
394.02	30.31
394.148	37.31
394.276	42.31
394.404	46.31
394.533	22.31
394.661	32.31
394.789	62.31
394.917	41.31
395.045	35.31
395.173	18.31
395.302	22.31
395.43	23.31
395.558	44.31
395.686	47.31
395.814	55.31
395.942	37.31
396.07	42.31
396.198	21.31
396.326	45.31
396.454	54.31
396.582	40.31
396.711	50.31
396.839	31.31
396.967	42.31
397.095	24.31
397.223	38.31
397.351	43.31
397.479	45.31
397.607	55.31
397.735	42.31
397.863	53.31
397.991	54.31
398.119	24.31
398.247	36.31
398.375	46.31
398.503	41.31
398.631	65.31
398.759	47.31
398.887	44.31
399.015	36.31
399.143	73.31
399.271	84.31
399.399	69.31
399.526	91.31
399.654	87.31
399.782	81.31
399.91	93.31
400.038	96.31
400.166	95.31
400.294	89.31
400.422	81.31
400.55	103.31
400.678	115.31
400.805	112.31
400.933	119.31
401.061	122.31
401.189	130.31
401.317	162.31
401.445	93.31
401.573	86.31
401.7	49.31
401.828	59.31
401.956	59.31
402.084	53.31
402.212	35.31
402.34	22.31
402.467	32.31
402.595	41.31
402.723	42.31
402.851	62.31
402.978	53.31
403.106	85.31
403.234	78.31
403.362	113.31
403.489	129.31
403.617	144.31
403.745	214.31
403.873	280.31
404	578.31
404.128	1488.31
404.256	4004.31
404.384	5242.31
404.511	5544.31
404.639	7285.31
404.767	11539.31
404.894	14705.31
405.022	4934.31
405.15	1324.31
405.277	419.31
405.405	245.31
405.533	138.31
405.66	124.31
405.788	74.31
405.916	72.31
406.043	58.31
406.171	71.31
406.299	71.31
406.426	61.31
406.554	63.31
406.681	64.31
406.809	45.31
406.937	67.31
407.064	62.31
407.192	130.31
407.319	302.31
407.447	543.31
407.574	565.31
407.702	635.31
407.83	837.31
407.957	1634.31
408.085	964.31
408.212	295.31
408.34	113.31
408.467	70.31
408.595	69.31
408.722	66.31
408.85	59.31
408.977	48.31
409.105	40.31
409.232	34.31
409.36	43.31
409.487	60.31
409.615	37.31
409.742	33.31
409.87	44.31
409.997	51.31
410.125	37.31
410.252	58.31
410.379	29.31
410.507	33.31
410.634	35.31
410.762	21.31
410.889	25.31
411.017	35.31
411.144	44.31
411.271	38.31
411.399	31.31
411.526	34.31
411.653	42.31
411.781	35.31
411.908	42.31
412.036	28.31
412.163	32.31
412.29	46.31
412.418	42.31
412.545	42.31
412.672	40.31
412.8	35.31
412.927	44.31
413.054	65.31
413.182	36.31
413.309	37.31
413.436	16.31
413.564	34.31
413.691	36.31
413.818	53.31
413.945	4.31
414.073	31.31
414.2	49.31
414.327	50.31
414.454	53.31
414.582	34.31
414.709	13.31
414.836	22.31
414.963	27.31
415.091	40.31
415.218	45.31
415.345	36.31
415.472	43.31
415.6	31.31
415.727	28.31
415.854	32.31
415.981	8.31
416.108	9.31
416.236	28.31
416.363	29.31
416.49	32.31
416.617	24.31
416.744	46.31
416.871	44.31
416.998	34.31
417.126	39.31
417.253	36.31
417.38	28.31
417.507	14.31
417.634	33.31
417.761	39.31
417.888	45.31
418.015	39.31
418.143	50.31
418.27	65.31
418.397	41.31
418.524	30.31
418.651	37.31
418.778	34.31
418.905	60.31
419.032	65.31
419.159	32.31
419.286	57.31
419.413	49.31
419.54	52.31
419.667	38.31
419.794	43.31
419.921	49.31
420.048	57.31
420.175	53.31
420.302	47.31
420.429	62.31
420.556	80.31
420.683	59.31
420.81	51.31
420.937	70.31
421.064	74.31
421.191	44.31
421.318	58.31
421.445	86.31
421.572	53.31
421.699	65.31
421.826	50.31
421.953	28.31
422.08	39.31
422.207	13.31
422.334	17.31
422.461	42.31
422.588	17.31
422.714	33.31
422.841	46.31
422.968	30.31
423.095	29.31
423.222	10.31
423.349	10.31
423.476	44.31
423.603	11.31
423.729	16.31
423.856	22.31
423.983	56.31
424.11	6.31
424.237	20.31
424.364	12.31
424.491	9.31
424.617	-3.69
424.744	10.31
424.871	14.31
424.998	26.31
425.125	24.31
425.251	36.31
425.378	18.31
425.505	21.31
425.632	22.31
425.758	5.31
425.885	19.31
426.012	37.31
426.139	57.31
426.266	28.31
426.392	29.31
426.519	30.31
426.646	25.31
426.772	37.31
426.899	32.31
427.026	42.31
427.153	32.31
427.279	36.31
427.406	27.31
427.533	16.31
427.659	19.31
427.786	26.31
427.913	33.31
428.039	29.31
428.166	27.31
428.293	24.31
428.419	22.31
428.546	13.31
428.673	18.31
428.799	14.31
428.926	25.31
429.053	38.31
429.179	34.31
429.306	31.31
429.433	44.31
429.559	40.31
429.686	20.31
429.812	18.31
429.939	26.31
430.066	9.31
430.192	31.31
430.319	27.31
430.445	29.31
430.572	13.31
430.699	2.31
430.825	15.31
430.952	26.31
431.078	32.31
431.205	49.31
431.331	36.31
431.458	17.31
431.584	28.31
431.711	8.31
431.837	23.31
431.964	23.31
432.09	34.31
432.217	2.31
432.343	24.31
432.47	44.31
432.596	23.31
432.723	22.31
432.849	24.31
432.976	32.31
433.102	31.31
433.229	36.31
433.355	47.31
433.482	80.31
433.608	108.31
433.735	120.31
433.861	124.31
433.987	167.31
434.114	205.31
434.24	180.31
434.367	219.31
434.493	235.31
434.62	268.31
434.746	405.31
434.872	616.31
434.999	831.31
435.125	1739.31
435.252	5562.31
435.378	13489.31
435.504	15277.31
435.631	15474.31
435.757	15687.31
435.883	15687.31
436.01	15687.31
436.136	15687.31
436.262	15687.31
436.389	3510.31
436.515	2565.31
436.641	873.31
436.768	678.31
436.894	421.31
437.02	405.31
437.147	295.31
437.273	311.31
437.399	224.31
437.526	238.31
437.652	178.31
437.778	199.31
437.904	144.31
438.031	174.31
438.157	146.31
438.283	164.31
438.409	142.31
438.536	126.31
438.662	125.31
438.788	129.31
438.914	126.31
439.041	132.31
439.167	113.31
439.293	105.31
439.419	90.31
439.546	92.31
439.672	58.31
439.798	75.31
439.924	101.31
440.05	98.31
440.177	88.31
440.303	97.31
440.429	62.31
440.555	70.31
440.681	47.31
440.807	73.31
440.934	77.31
441.06	86.31
441.186	58.31
441.312	80.31
441.438	73.31
441.564	86.31
441.69	77.31
441.816	82.31
441.943	61.31
442.069	62.31
442.195	57.31
442.321	60.31
442.447	25.31
442.573	42.31
442.699	65.31
442.825	58.31
442.951	53.31
443.077	69.31
443.203	62.31
443.33	38.31
443.456	44.31
443.582	66.31
443.708	36.31
443.834	44.31
443.96	50.31
444.086	43.31
444.212	57.31
444.338	45.31
444.464	65.31
444.59	55.31
444.716	50.31
444.842	41.31
444.968	21.31
445.094	26.31
445.22	37.31
445.346	36.31
445.472	42.31
445.598	41.31
445.724	31.31
445.85	41.31
445.976	53.31
446.102	67.31
446.228	44.31
446.354	44.31
446.48	45.31
446.605	36.31
446.731	56.31
446.857	21.31
446.983	42.31
447.109	56.31
447.235	43.31
447.361	35.31
447.487	33.31
447.613	32.31
447.739	37.31
447.865	51.31
447.99	37.31
448.116	34.31
448.242	50.31
448.368	38.31
448.494	22.31
448.62	51.31
448.746	30.31
448.872	29.31
448.997	17.31
449.123	34.31
449.249	42.31
449.375	54.31
449.501	27.31
449.627	21.31
449.752	51.31
449.878	17.31
450.004	6.31
450.13	37.31
450.256	36.31
450.381	36.31
450.507	32.31
450.633	34.31
450.759	35.31
450.884	44.31
451.01	47.31
451.136	8.31
451.262	19.31
451.388	53.31
451.513	10.31
451.639	34.31
451.765	21.31
451.89	26.31
452.016	33.31
452.142	30.31
452.268	32.31
452.393	34.31
452.519	26.31
452.645	38.31
452.771	22.31
452.896	11.31
453.022	7.31
453.148	23.31
453.273	36.31
453.399	16.31
453.525	16.31
453.65	34.31
453.776	41.31
453.902	31.31
454.027	41.31
454.153	41.31
454.279	51.31
454.404	31.31
454.53	50.31
454.656	50.31
454.781	38.31
454.907	14.31
455.032	27.31
455.158	55.31
455.284	48.31
455.409	41.31
455.535	41.31
455.66	38.31
455.786	53.31
455.912	37.31
456.037	18.31
456.163	41.31
456.288	42.31
456.414	13.31
456.539	13.31
456.665	55.31
456.791	22.31
456.916	30.31
457.042	44.31
457.167	20.31
457.293	29.31
457.418	24.31
457.544	25.31
457.669	30.31
457.795	32.31
457.92	34.31
458.046	33.31
458.171	38.31
458.297	33.31
458.422	10.31
458.548	12.31
458.673	29.31
458.799	24.31
458.924	2.31
459.05	25.31
459.175	25.31
459.301	56.31
459.426	35.31
459.552	27.31
459.677	39.31
459.803	37.31
459.928	44.31
460.053	34.31
460.179	43.31
460.304	41.31
460.43	14.31
460.555	21.31
460.681	46.31
460.806	34.31
460.931	48.31
461.057	49.31
461.182	26.31
461.308	30.31
461.433	19.31
461.558	16.31
461.684	36.31
461.809	33.31
461.934	31.31
462.06	26.31
462.185	21.31
462.311	37.31
462.436	28.31
462.561	30.31
462.687	31.31
462.812	39.31
462.937	24.31
463.063	26.31
463.188	34.31
463.313	43.31
463.439	32.31
463.564	3.31
463.689	21.31
463.814	41.31
463.94	35.31
464.065	41.31
464.19	36.31
464.316	27.31
464.441	38.31
464.566	28.31
464.692	25.31
464.817	33.31
464.942	19.31
465.067	26.31
465.193	-3.69
465.318	27.31
465.443	34.31
465.568	21.31
465.694	19.31
465.819	29.31
465.944	19.31
466.069	46.31
466.194	34.31
466.32	15.31
466.445	30.31
466.57	20.31
466.695	37.31
466.82	40.31
466.946	36.31
467.071	35.31
467.196	30.31
467.321	52.31
467.446	28.31
467.572	25.31
467.697	21.31
467.822	58.31
467.947	35.31
468.072	40.31
468.197	23.31
468.323	17.31
468.448	33.31
468.573	12.31
468.698	28.31
468.823	27.31
468.948	44.31
469.073	38.31
469.198	45.31
469.324	61.31
469.449	40.31
469.574	34.31
469.699	57.31
469.824	43.31
469.949	31.31
470.074	32.31
470.199	54.31
470.324	54.31
470.449	51.31
470.574	16.31
470.7	30.31
470.825	42.31
470.95	57.31
471.075	31.31
471.2	52.31
471.325	38.31
471.45	38.31
471.575	35.31
471.7	35.31
471.825	9.31
471.95	42.31
472.075	32.31
472.2	30.31
472.325	21.31
472.45	27.31
472.575	34.31
472.7	35.31
472.825	41.31
472.95	46.31
473.075	44.31
473.2	46.31
473.325	40.31
473.45	43.31
473.575	35.31
473.7	57.31
473.825	36.31
473.95	51.31
474.075	35.31
474.2	28.31
474.325	17.31
474.45	40.31
474.574	33.31
474.699	36.31
474.824	23.31
474.949	-4.69
475.074	26.31
475.199	24.31
475.324	41.31
475.449	33.31
475.574	23.31
475.699	10.31
475.824	24.31
475.949	25.31
476.073	9.31
476.198	20.31
476.323	27.31
476.448	30.31
476.573	14.31
476.698	34.31
476.823	47.31
476.947	27.31
477.072	25.31
477.197	29.31
477.322	6.31
477.447	5.31
477.572	23.31
477.697	19.31
477.821	17.31
477.946	47.31
478.071	26.31
478.196	22.31
478.321	28.31
478.445	32.31
478.57	14.31
478.695	25.31
478.82	36.31
478.945	33.31
479.069	20.31
479.194	9.31
479.319	35.31
479.444	32.31
479.569	30.31
479.693	33.31
479.818	46.31
479.943	12.31
480.068	34.31
480.192	31.31
480.317	24.31
480.442	15.31
480.567	26.31
480.691	22.31
480.816	8.31
480.941	41.31
481.066	39.31
481.19	27.31
481.315	37.31
481.44	34.31
481.564	11.31
481.689	16.31
481.814	25.31
481.938	21.31
482.063	-11.69
482.188	5.31
482.313	24.31
482.437	18.31
482.562	8.31
482.687	19.31
482.811	14.31
482.936	14.31
483.061	29.31
483.185	31.31
483.31	32.31
483.435	41.31
483.559	10.31
483.684	38.31
483.808	33.31
483.933	18.31
484.058	34.31
484.182	24.31
484.307	18.31
484.432	28.31
484.556	20.31
484.681	30.31
484.805	23.31
484.93	12.31
485.055	24.31
485.179	37.31
485.304	40.31
485.428	9.31
485.553	12.31
485.678	20.31
485.802	20.31
485.927	41.31
486.051	28.31
486.176	7.31
486.3	14.31
486.425	35.31
486.549	34.31
486.674	42.31
486.799	27.31
486.923	12.31
487.048	12.31
487.172	11.31
487.297	15.31
487.421	17.31
487.546	30.31
487.67	49.31
487.795	3.31
487.919	12.31
488.044	36.31
488.168	26.31
488.293	30.31
488.417	2.31
488.542	27.31
488.666	34.31
488.791	25.31
488.915	21.31
489.04	20.31
489.164	20.31
489.289	36.31
489.413	5.31
489.538	38.31
489.662	25.31
489.786	17.31
489.911	21.31
490.035	16.31
490.16	17.31
490.284	14.31
490.409	22.31
490.533	33.31
490.658	44.31
490.782	17.31
490.906	39.31
491.031	102.31
491.155	163.31
491.28	159.31
491.404	166.31
491.528	265.31
491.653	163.31
491.777	78.31
491.902	34.31
492.026	44.31
492.15	43.31
492.275	47.31
492.399	33.31
492.524	30.31
492.648	40.31
492.772	25.31
492.897	29.31
493.021	20.31
493.145	41.31
493.27	33.31
493.394	29.31
493.518	17.31
493.643	10.31
493.767	46.31
493.891	26.31
494.016	14.31
494.14	21.31
494.264	19.31
494.389	43.31
494.513	28.31
494.637	24.31
494.762	21.31
494.886	45.31
495.01	20.31
495.134	23.31
495.259	38.31
495.383	43.31
495.507	26.31
495.632	42.31
495.756	41.31
495.88	36.31
496.004	29.31
496.129	16.31
496.253	30.31
496.377	34.31
496.501	40.31
496.626	12.31
496.75	14.31
496.874	19.31
496.998	20.31
497.123	45.31
497.247	25.31
497.371	25.31
497.495	27.31
497.62	13.31
497.744	9.31
497.868	13.31
497.992	5.31
498.116	6.31
498.241	31.31
498.365	15.31
498.489	18.31
498.613	37.31
498.737	18.31
498.862	19.31
498.986	22.31
499.11	22.31
499.234	2.31
499.358	2.31
499.482	23.31
499.607	36.31
499.731	16.31
499.855	30.31
499.979	11.31
500.103	37.31
500.227	42.31
500.351	25.31
500.476	24.31
500.6	24.31
500.724	28.31
500.848	31.31
500.972	33.31
501.096	18.31
501.22	33.31
501.344	29.31
501.469	21.31
501.593	26.31
501.717	22.31
501.841	20.31
501.965	18.31
502.089	10.31
502.213	18.31
502.337	12.31
502.461	20.31
502.585	25.31
502.709	28.31
502.834	16.31
502.958	22.31
503.082	30.31
503.206	32.31
503.33	50.31
503.454	32.31
503.578	27.31
503.702	29.31
503.826	25.31
503.95	30.31
504.074	20.31
504.198	30.31
504.322	16.31
504.446	-5.69
504.57	31.31
504.694	31.31
504.818	33.31
504.942	28.31
505.066	34.31
505.19	22.31
505.314	16.31
505.438	26.31
505.562	18.31
505.686	41.31
505.81	25.31
505.934	33.31
506.058	27.31
506.182	30.31
506.306	25.31
506.43	15.31
506.554	26.31
506.678	12.31
506.802	17.31
506.926	37.31
507.05	17.31
507.174	36.31
507.298	42.31
507.422	20.31
507.546	19.31
507.67	25.31
507.794	8.31
507.918	28.31
508.042	33.31
508.165	19.31
508.289	13.31
508.413	21.31
508.537	12.31
508.661	43.31
508.785	25.31
508.909	33.31
509.033	31.31
509.157	37.31
509.281	44.31
509.405	35.31
509.528	45.31
509.652	45.31
509.776	25.31
509.9	53.31
510.024	27.31
510.148	44.31
510.272	31.31
510.396	33.31
510.519	24.31
510.643	59.31
510.767	45.31
510.891	36.31
511.015	42.31
511.139	36.31
511.263	63.31
511.386	49.31
511.51	33.31
511.634	48.31
511.758	49.31
511.882	37.31
512.006	49.31
512.129	72.31
512.253	96.31
512.377	86.31
512.501	84.31
512.625	86.31
512.748	70.31
512.872	79.31
512.996	54.31
513.12	65.31
513.244	62.31
513.367	72.31
513.491	79.31
513.615	69.31
513.739	65.31
513.862	84.31
513.986	92.31
514.11	102.31
514.234	93.31
514.358	127.31
514.481	123.31
514.605	91.31
514.729	118.31
514.853	138.31
514.976	102.31
515.1	109.31
515.224	107.31
515.348	93.31
515.471	78.31
515.595	107.31
515.719	145.31
515.842	225.31
515.966	281.31
516.09	282.31
516.214	285.31
516.337	320.31
516.461	233.31
516.585	90.31
516.708	45.31
516.832	33.31
516.956	20.31
517.08	21.31
517.203	18.31
517.327	21.31
517.451	47.31
517.574	50.31
517.698	18.31
517.822	37.31
517.945	30.31
518.069	22.31
518.193	30.31
518.316	37.31
518.44	51.31
518.564	20.31
518.687	16.31
518.811	31.31
518.935	39.31
519.058	31.31
519.182	20.31
519.306	15.31
519.429	23.31
519.553	64.31
519.676	50.31
519.8	24.31
519.924	29.31
520.047	37.31
520.171	20.31
520.294	28.31
520.418	31.31
520.542	25.31
520.665	23.31
520.789	19.31
520.913	2.31
521.036	1.31
521.16	16.31
521.283	26.31
521.407	6.31
521.53	8.31
521.654	11.31
521.778	38.31
521.901	21.31
522.025	21.31
522.148	20.31
522.272	13.31
522.395	19.31
522.519	38.31
522.643	8.31
522.766	35.31
522.89	30.31
523.013	26.31
523.137	9.31
523.26	12.31
523.384	9.31
523.507	25.31
523.631	20.31
523.754	3.31
523.878	28.31
524.002	17.31
524.125	5.31
524.249	16.31
524.372	35.31
524.496	24.31
524.619	40.31
524.743	29.31
524.866	21.31
524.99	35.31
525.113	24.31
525.237	29.31
525.36	17.31
525.484	17.31
525.607	20.31
525.731	-9.69
525.854	12.31
525.978	33.31
526.101	14.31
526.224	19.31
526.348	13.31
526.471	17.31
526.595	29.31
526.718	37.31
526.842	7.31
526.965	22.31
527.089	24.31
527.212	28.31
527.336	20.31
527.459	25.31
527.582	23.31
527.706	33.31
527.829	19.31
527.953	22.31
528.076	12.31
528.2	7.31
528.323	29.31
528.446	39.31
528.57	26.31
528.693	47.31
528.817	18.31
528.94	20.31
529.064	50.31
529.187	18.31
529.31	1.31
529.434	18.31
529.557	14.31
529.68	18.31
529.804	1.31
529.927	6.31
530.051	19.31
530.174	19.31
530.297	18.31
530.421	24.31
530.544	29.31
530.668	21.31
530.791	14.31
530.914	39.31
531.038	20.31
531.161	27.31
531.284	48.31
531.408	35.31
531.531	16.31
531.654	21.31
531.778	18.31
531.901	25.31
532.024	29.31
532.148	-1.69
532.271	33.31
532.394	12.31
532.518	21.31
532.641	19.31
532.764	42.31
532.888	27.31
533.011	4.31
533.134	11.31
533.258	45.31
533.381	23.31
533.504	10.31
533.628	25.31
533.751	45.31
533.874	28.31
533.997	24.31
534.121	8.31
534.244	20.31
534.367	10.31
534.491	18.31
534.614	28.31
534.737	23.31
534.86	11.31
534.984	3.31
535.107	21.31
535.23	40.31
535.354	35.31
535.477	24.31
535.6	14.31
535.723	21.31
535.847	27.31
535.97	12.31
536.093	17.31
536.216	14.31
536.34	29.31
536.463	-0.69
536.586	24.31
536.709	21.31
536.833	42.31
536.956	29.31
537.079	11.31
537.202	36.31
537.325	28.31
537.449	15.31
537.572	19.31
537.695	27.31
537.818	12.31
537.941	12.31
538.065	20.31
538.188	21.31
538.311	26.31
538.434	24.31
538.558	26.31
538.681	17.31
538.804	32.31
538.927	27.31
539.05	22.31
539.173	16.31
539.297	18.31
539.42	33.31
539.543	27.31
539.666	40.31
539.789	26.31
539.913	37.31
540.036	32.31
540.159	35.31
540.282	12.31
540.405	16.31
540.528	20.31
540.651	29.31
540.775	38.31
540.898	36.31
541.021	36.31
541.144	21.31
541.267	21.31
541.39	36.31
541.513	45.31
541.637	24.31
541.76	33.31
541.883	44.31
542.006	59.31
542.129	58.31
542.252	47.31
542.375	32.31
542.498	30.31
542.622	49.31
542.745	46.31
542.868	49.31
542.991	54.31
543.114	51.31
543.237	57.31
543.36	54.31
543.483	40.31
543.606	58.31
543.73	87.31
543.853	84.31
543.976	89.31
544.099	116.31
544.222	136.31
544.345	140.31
544.468	168.31
544.591	240.31
544.714	264.31
544.837	347.31
544.96	454.31
545.083	658.31
545.206	1116.31
545.329	2449.31
545.453	11072.31
545.576	15276.31
545.699	15687.31
545.822	15687.31
545.945	15687.31
546.068	15687.31
546.191	15687.31
546.314	15687.31
546.437	15687.31
546.56	15687.31
546.683	15687.31
546.806	15687.31
546.929	15687.31
547.052	15687.31
547.175	15687.31
547.298	15687.31
547.421	15687.31
547.544	15687.31
547.667	3796.31
547.79	4045.31
547.913	1327.31
548.036	968.31
548.159	655.31
548.282	695.31
548.405	506.31
548.528	498.31
548.651	406.31
548.774	422.31
548.897	353.31
549.02	391.31
549.143	333.31
549.266	316.31
549.389	273.31
549.512	276.31
549.635	266.31
549.758	251.31
549.881	230.31
550.004	231.31
550.127	198.31
550.25	181.31
550.373	189.31
550.496	178.31
550.619	151.31
550.742	170.31
550.865	145.31
550.988	170.31
551.111	169.31
551.234	164.31
551.356	138.31
551.479	140.31
551.602	124.31
551.725	143.31
551.848	145.31
551.971	140.31
552.094	138.31
552.217	128.31
552.34	125.31
552.463	102.31
552.586	100.31
552.709	97.31
552.832	93.31
552.955	119.31
553.077	115.31
553.2	126.31
553.323	86.31
553.446	92.31
553.569	90.31
553.692	104.31
553.815	92.31
553.938	100.31
554.061	107.31
554.184	111.31
554.306	107.31
554.429	96.31
554.552	91.31
554.675	51.31
554.798	86.31
554.921	94.31
555.044	72.31
555.167	79.31
555.29	75.31
555.412	63.31
555.535	72.31
555.658	64.31
555.781	66.31
555.904	79.31
556.027	73.31
556.15	67.31
556.272	85.31
556.395	82.31
556.518	72.31
556.641	78.31
556.764	84.31
556.887	83.31
557.01	64.31
557.132	63.31
557.255	74.31
557.378	73.31
557.501	70.31
557.624	68.31
557.747	72.31
557.869	68.31
557.992	91.31
558.115	99.31
558.238	88.31
558.361	97.31
558.483	109.31
558.606	84.31
558.729	62.31
558.852	76.31
558.975	82.31
559.098	72.31
559.22	77.31
559.343	49.31
559.466	58.31
559.589	56.31
559.712	46.31
559.834	65.31
559.957	57.31
560.08	52.31
560.203	49.31
560.325	70.31
560.448	72.31
560.571	52.31
560.694	57.31
560.817	73.31
560.939	63.31
561.062	70.31
561.185	64.31
561.308	82.31
561.43	66.31
561.553	56.31
561.676	54.31
561.799	74.31
561.921	48.31
562.044	63.31
562.167	64.31
562.29	95.31
562.413	72.31
562.535	61.31
562.658	58.31
562.781	75.31
562.903	84.31
563.026	103.31
563.149	149.31
563.272	125.31
563.394	130.31
563.517	110.31
563.64	65.31
563.763	38.31
563.885	66.31
564.008	45.31
564.131	39.31
564.254	33.31
564.376	39.31
564.499	28.31
564.622	30.31
564.744	44.31
564.867	44.31
564.99	50.31
565.113	58.31
565.235	28.31
565.358	48.31
565.481	28.31
565.603	39.31
565.726	44.31
565.849	46.31
565.971	55.31
566.094	40.31
566.217	43.31
566.34	36.31
566.462	32.31
566.585	52.31
566.708	56.31
566.83	34.31
566.953	52.31
567.076	48.31
567.198	60.31
567.321	24.31
567.444	60.31
567.566	36.31
567.689	28.31
567.812	27.31
567.934	42.31
568.057	37.31
568.18	43.31
568.302	44.31
568.425	45.31
568.548	49.31
568.67	29.31
568.793	44.31
568.916	24.31
569.038	38.31
569.161	49.31
569.283	48.31
569.406	46.31
569.529	30.31
569.651	35.31
569.774	28.31
569.897	30.31
570.019	25.31
570.142	48.31
570.265	40.31
570.387	25.31
570.51	47.31
570.632	50.31
570.755	35.31
570.878	32.31
571	47.31
571.123	43.31
571.246	45.31
571.368	26.31
571.491	31.31
571.613	32.31
571.736	18.31
571.859	32.31
571.981	22.31
572.104	26.31
572.226	60.31
572.349	35.31
572.472	27.31
572.594	29.31
572.717	36.31
572.839	20.31
572.962	31.31
573.085	45.31
573.207	44.31
573.33	19.31
573.452	38.31
573.575	38.31
573.697	41.31
573.82	33.31
573.943	40.31
574.065	57.31
574.188	51.31
574.31	59.31
574.433	72.31
574.555	57.31
574.678	27.31
574.801	43.31
574.923	33.31
575.046	46.31
575.168	37.31
575.291	42.31
575.413	49.31
575.536	42.31
575.659	56.31
575.781	33.31
575.904	65.31
576.026	81.31
576.149	93.31
576.271	128.31
576.394	190.31
576.516	544.31
576.639	3688.31
576.761	10309.31
576.884	8939.31
577.007	8845.31
577.129	8094.31
577.252	3773.31
577.374	1324.31
577.497	514.31
577.619	312.31
577.742	184.31
577.864	150.31
577.987	148.31
578.109	130.31
578.232	133.31
578.354	142.31
578.477	176.31
578.599	396.31
578.722	2016.31
578.844	9147.31
578.967	9940.31
579.089	8880.31
579.212	9194.31
579.334	5275.31
579.457	1933.31
579.579	745.31
579.702	347.31
579.824	233.31
579.947	130.31
580.069	113.31
580.192	87.31
580.314	94.31
580.437	77.31
580.559	116.31
580.682	70.31
580.804	78.31
580.927	73.31
581.049	89.31
581.172	67.31
581.294	70.31
581.417	55.31
581.539	45.31
581.662	54.31
581.784	52.31
581.907	49.31
582.029	40.31
582.152	46.31
582.274	59.31
582.396	45.31
582.519	31.31
582.641	33.31
582.764	27.31
582.886	49.31
583.009	44.31
583.131	22.31
583.254	47.31
583.376	67.31
583.499	49.31
583.621	46.31
583.743	66.31
583.866	43.31
583.988	46.31
584.111	30.31
584.233	49.31
584.356	51.31
584.478	30.31
584.601	25.31
584.723	34.31
584.845	34.31
584.968	22.31
585.09	30.31
585.213	44.31
585.335	32.31
585.458	35.31
585.58	24.31
585.702	40.31
585.825	49.31
585.947	33.31
586.07	21.31
586.192	20.31
586.315	42.31
586.437	1.31
586.559	39.31
586.682	21.31
586.804	47.31
586.927	32.31
587.049	36.31
587.171	52.31
587.294	34.31
587.416	53.31
587.539	36.31
587.661	32.31
587.783	20.31
587.906	31.31
588.028	33.31
588.151	27.31
588.273	44.31
588.395	28.31
588.518	26.31
588.64	30.31
588.763	49.31
588.885	34.31
589.007	42.31
589.13	8.31
589.252	14.31
589.375	23.31
589.497	34.31
589.619	30.31
589.742	40.31
589.864	45.31
589.986	40.31
590.109	37.31
590.231	41.31
590.354	38.31
590.476	31.31
590.598	22.31
590.721	24.31
590.843	35.31
590.965	35.31
591.088	35.31
591.21	18.31
591.332	40.31
591.455	29.31
591.577	19.31
591.7	34.31
591.822	39.31
591.944	36.31
592.067	35.31
592.189	36.31
592.311	27.31
592.434	21.31
592.556	45.31
592.678	22.31
592.801	33.31
592.923	35.31
593.045	33.31
593.168	20.31
593.29	12.31
593.412	41.31
593.535	30.31
593.657	27.31
593.779	31.31
593.902	26.31
594.024	27.31
594.146	40.31
594.269	41.31
594.391	24.31
594.513	30.31
594.636	30.31
594.758	24.31
594.88	37.31
595.003	33.31
595.125	33.31
595.247	44.31
595.37	33.31
595.492	15.31
595.614	48.31
595.737	28.31
595.859	24.31
595.981	36.31
596.104	42.31
596.226	26.31
596.348	22.31
596.471	12.31
596.593	18.31
596.715	17.31
596.838	41.31
596.96	21.31
597.082	32.31
597.204	35.31
597.327	40.31
597.449	14.31
597.571	33.31
597.694	42.31
597.816	39.31
597.938	45.31
598.061	28.31
598.183	32.31
598.305	44.31
598.427	28.31
598.55	37.31
598.672	36.31
598.794	28.31
598.917	19.31
599.039	30.31
599.161	22.31
599.283	28.31
599.406	33.31
599.528	30.31
599.65	57.31
599.773	35.31
599.895	50.31
600.017	34.31
600.139	29.31
600.262	29.31
600.384	17.31
600.506	27.31
600.628	45.31
600.751	47.31
600.873	37.31
600.995	30.31
601.118	36.31
601.24	23.31
601.362	35.31
601.484	32.31
601.607	24.31
601.729	17.31
601.851	22.31
601.973	30.31
602.096	35.31
602.218	27.31
602.34	16.31
602.462	22.31
602.585	33.31
602.707	25.31
602.829	38.31
602.951	34.31
603.074	6.31
603.196	25.31
603.318	16.31
603.44	27.31
603.563	22.31
603.685	10.31
603.807	29.31
603.929	32.31
604.052	35.31
604.174	47.31
604.296	46.31
604.418	51.31
604.541	43.31
604.663	24.31
604.785	19.31
604.907	18.31
605.03	20.31
605.152	54.31
605.274	13.31
605.396	21.31
605.519	41.31
605.641	27.31
605.763	16.31
605.885	16.31
606.008	31.31
606.13	22.31
606.252	19.31
606.374	23.31
606.496	21.31
606.619	24.31
606.741	12.31
606.863	37.31
606.985	32.31
607.108	28.31
607.23	12.31
607.352	14.31
607.474	32.31
607.596	31.31
607.719	28.31
607.841	33.31
607.963	27.31
608.085	13.31
608.207	42.31
608.33	16.31
608.452	19.31
608.574	8.31
608.696	33.31
608.819	27.31
608.941	34.31
609.063	34.31
609.185	15.31
609.307	27.31
609.43	36.31
609.552	37.31
609.674	13.31
609.796	31.31
609.918	15.31
610.041	19.31
610.163	29.31
610.285	24.31
610.407	38.31
610.529	9.31
610.652	8.31
610.774	27.31
610.896	27.31
611.018	27.31
611.14	28.31
611.263	21.31
611.385	13.31
611.507	32.31
611.629	13.31
611.751	28.31
611.873	56.31
611.996	17.31
612.118	48.31
612.24	30.31
612.362	39.31
612.484	54.31
612.607	36.31
612.729	36.31
612.851	30.31
612.973	33.31
613.095	30.31
613.218	25.31
613.34	27.31
613.462	19.31
613.584	36.31
613.706	31.31
613.828	32.31
613.951	27.31
614.073	8.31
614.195	-1.69
614.317	35.31
614.439	19.31
614.561	16.31
614.684	32.31
614.806	41.31
614.928	27.31
615.05	28.31
615.172	26.31
615.294	38.31
615.417	25.31
615.539	25.31
615.661	18.31
615.783	41.31
615.905	14.31
616.027	24.31
616.15	31.31
616.272	29.31
616.394	24.31
616.516	16.31
616.638	17.31
616.76	29.31
616.883	34.31
617.005	14.31
617.127	19.31
617.249	30.31
617.371	27.31
617.493	20.31
617.615	48.31
617.738	40.31
617.86	33.31
617.982	25.31
618.104	21.31
618.226	20.31
618.348	3.31
618.471	28.31
618.593	20.31
618.715	17.31
618.837	30.31
618.959	32.31
619.081	32.31
619.203	19.31
619.326	24.31
619.448	51.31
619.57	29.31
619.692	23.31
619.814	33.31
619.936	41.31
620.058	13.31
620.181	13.31
620.303	26.31
620.425	28.31
620.547	30.31
620.669	5.31
620.791	9.31
620.913	12.31
621.036	12.31
621.158	24.31
621.28	29.31
621.402	18.31
621.524	20.31
621.646	29.31
621.768	16.31
621.891	14.31
622.013	10.31
622.135	18.31
622.257	-2.69
622.379	18.31
622.501	24.31
622.623	38.31
622.745	16.31
622.868	2.31
622.99	13.31
623.112	17.31
623.234	22.31
623.356	32.31
623.478	33.31
623.6	32.31
623.722	20.31
623.845	20.31
623.967	40.31
624.089	33.31
624.211	29.31
624.333	20.31
624.455	29.31
624.577	39.31
624.699	29.31
624.822	34.31
624.944	7.31
625.066	23.31
625.188	5.31
625.31	35.31
625.432	32.31
625.554	34.31
625.676	58.31
625.799	44.31
625.921	14.31
626.043	31.31
626.165	26.31
626.287	17.31
626.409	28.31
626.531	1.31
626.653	16.31
626.775	30.31
626.898	26.31
627.02	38.31
627.142	49.31
627.264	24.31
627.386	24.31
627.508	30.31
627.63	22.31
627.752	42.31
627.874	17.31
627.997	20.31
628.119	24.31
628.241	28.31
628.363	42.31
628.485	14.31
628.607	21.31
628.729	20.31
628.851	20.31
628.973	16.31
629.096	35.31
629.218	13.31
629.34	8.31
629.462	15.31
629.584	17.31
629.706	15.31
629.828	29.31
629.95	40.31
630.072	18.31
630.195	14.31
630.317	21.31
630.439	20.31
630.561	37.31
630.683	12.31
630.805	18.31
630.927	27.31
631.049	25.31
631.171	8.31
631.293	14.31
631.416	24.31
631.538	22.31
631.66	36.31
631.782	36.31
631.904	32.31
632.026	12.31
632.148	27.31
632.27	18.31
632.392	14.31
632.514	8.31
632.637	18.31
632.759	6.31
632.881	14.31
633.003	4.31
633.125	15.31
633.247	4.31
633.369	16.31
633.491	18.31
633.613	31.31
633.735	2.31
633.858	13.31
633.98	5.31
634.102	12.31
634.224	17.31
634.346	9.31
634.468	6.31
634.59	17.31
634.712	28.31
634.834	26.31
634.956	4.31
635.078	-0.69
635.201	16.31
635.323	28.31
635.445	13.31
635.567	9.31
635.689	9.31
635.811	24.31
635.933	24.31
636.055	24.31
636.177	10.31
636.299	32.31
636.421	6.31
636.544	-3.69
636.666	6.31
636.788	22.31
636.91	33.31
637.032	21.31
637.154	31.31
637.276	39.31
637.398	45.31
637.52	10.31
637.642	6.31
637.764	22.31
637.887	26.31
638.009	7.31
638.131	25.31
638.253	25.31
638.375	33.31
638.497	35.31
638.619	19.31
638.741	4.31
638.863	10.31
638.985	-1.69
639.107	3.31
639.23	10.31
639.352	30.31
639.474	16.31
639.596	9.31
639.718	19.31
639.84	21.31
639.962	14.31
640.084	30.31
640.206	18.31
640.328	-1.69
640.45	25.31
640.573	17.31
640.695	18.31
640.817	5.31
640.939	44.31
641.061	6.31
641.183	30.31
641.305	16.31
641.427	11.31
641.549	30.31
641.671	29.31
641.793	16.31
641.915	36.31
642.038	8.31
642.16	15.31
642.282	24.31
642.404	30.31
642.526	23.31
642.648	11.31
642.77	22.31
642.892	25.31
643.014	29.31
643.136	31.31
643.258	18.31
643.381	33.31
643.503	35.31
643.625	9.31
643.747	-9.69
643.869	24.31
643.991	18.31
644.113	40.31
644.235	25.31
644.357	5.31
644.479	11.31
644.601	24.31
644.723	14.31
644.846	28.31
644.968	21.31
645.09	20.31
645.212	18.31
645.334	14.31
645.456	12.31
645.578	18.31
645.7	13.31
645.822	25.31
645.944	18.31
646.066	10.31
646.188	18.31
646.311	30.31
646.433	11.31
646.555	25.31
646.677	26.31
646.799	14.31
646.921	22.31
647.043	31.31
647.165	2.31
647.287	-4.69
647.409	21.31
647.531	28.31
647.654	8.31
647.776	26.31
647.898	19.31
648.02	12.31
648.142	16.31
648.264	17.31
648.386	14.31
648.508	9.31
648.63	13.31
648.752	22.31
648.874	-7.69
648.997	2.31
649.119	29.31
649.241	11.31
649.363	30.31
649.485	24.31
649.607	13.31
649.729	15.31
649.851	13.31
649.973	24.31
650.095	29.31
650.217	10.31
650.34	0.31
650.462	4.31
650.584	21.31
650.706	30.31
650.828	17.31
650.95	-6.69
651.072	25.31
651.194	-0.69
651.316	17.31
651.438	15.31
651.56	14.31
651.683	8.31
651.805	18.31
651.927	6.31
652.049	1.31
652.171	10.31
652.293	24.31
652.415	20.31
652.537	4.31
652.659	-1.69
652.781	20.31
652.903	22.31
653.026	33.31
653.148	8.31
653.27	18.31
653.392	10.31
653.514	9.31
653.636	36.31
653.758	12.31
653.88	15.31
654.002	1.31
654.124	5.31
654.247	4.31
654.369	23.31
654.491	15.31
654.613	16.31
654.735	8.31
654.857	35.31
654.979	-0.69
655.101	20.31
655.223	48.31
655.345	28.31
655.468	14.31
655.59	11.31
655.712	21.31
655.834	27.31
655.956	13.31
656.078	13.31
656.2	21.31
656.322	9.31
656.444	-2.69
656.566	2.31
656.689	3.31
656.811	8.31
656.933	21.31
657.055	2.31
657.177	21.31
657.299	5.31
657.421	2.31
657.543	16.31
657.665	10.31
657.787	21.31
657.91	13.31
658.032	1.31
658.154	10.31
658.276	16.31
658.398	1.31
658.52	24.31
658.642	17.31
658.764	25.31
658.886	0.31
659.009	12.31
659.131	13.31
659.253	6.31
659.375	32.31
659.497	1.31
659.619	17.31
659.741	20.31
659.863	21.31
659.985	5.31
660.108	25.31
660.23	9.31
660.352	26.31
660.474	39.31
660.596	10.31
660.718	11.31
660.84	4.31
660.962	10.31
661.084	16.31
661.207	21.31
661.329	25.31
661.451	16.31
661.573	27.31
661.695	18.31
661.817	37.31
661.939	34.31
662.061	39.31
662.184	9.31
662.306	12.31
662.428	14.31
662.55	22.31
662.672	5.31
662.794	14.31
662.916	12.31
663.038	20.31
663.161	37.31
663.283	25.31
663.405	41.31
663.527	-1.69
663.649	23.31
663.771	5.31
663.893	16.31
664.015	8.31
664.138	11.31
664.26	20.31
664.382	16.31
664.504	-5.69
664.626	-4.69
664.748	16.31
664.87	14.31
664.992	24.31
665.115	19.31
665.237	16.31
665.359	15.31
665.481	8.31
665.603	15.31
665.725	13.31
665.847	13.31
665.97	12.31
666.092	11.31
666.214	12.31
666.336	15.31
666.458	20.31
666.58	22.31
666.702	11.31
666.825	5.31
666.947	8.31
667.069	8.31
667.191	13.31
667.313	6.31
667.435	4.31
667.557	0.31
667.68	20.31
667.802	1.31
667.924	11.31
668.046	26.31
668.168	21.31
668.29	24.31
668.412	24.31
668.535	2.31
668.657	-7.69
668.779	2.31
668.901	17.31
669.023	30.31
669.145	14.31
669.267	33.31
669.39	17.31
669.512	18.31
669.634	29.31
669.756	-6.69
669.878	5.31
670	11.31
670.123	15.31
670.245	21.31
670.367	30.31
670.489	36.31
670.611	16.31
670.733	4.31
670.856	10.31
670.978	17.31
671.1	21.31
671.222	27.31
671.344	3.31
671.466	-13.69
671.589	-3.69
671.711	24.31
671.833	19.31
671.955	14.31
672.077	1.31
672.199	22.31
672.322	30.31
672.444	16.31
672.566	13.31
672.688	18.31
672.81	19.31
672.932	9.31
673.055	10.31
673.177	-0.69
673.299	15.31
673.421	10.31
673.543	21.31
673.665	16.31
673.788	27.31
673.91	-0.69
674.032	4.31
674.154	16.31
674.276	15.31
674.399	-7.69
674.521	11.31
674.643	9.31
674.765	8.31
674.887	24.31
675.009	30.31
675.132	9.31
675.254	19.31
675.376	8.31
675.498	2.31
675.62	24.31
675.743	7.31
675.865	14.31
675.987	15.31
676.109	12.31
676.231	16.31
676.354	27.31
676.476	13.31
676.598	32.31
676.72	-4.69
676.842	24.31
676.965	5.31
677.087	23.31
677.209	8.31
677.331	22.31
677.453	24.31
677.576	15.31
677.698	19.31
677.82	15.31
677.942	0.31
678.064	6.31
678.187	30.31
678.309	19.31
678.431	13.31
678.553	20.31
678.675	30.31
678.798	32.31
678.92	27.31
679.042	2.31
679.164	-2.69
679.286	12.31
679.409	26.31
679.531	0.31
679.653	12.31
679.775	10.31
679.898	8.31
680.02	1.31
680.142	-5.69
680.264	29.31
680.386	-7.69
680.509	12.31
680.631	3.31
680.753	9.31
680.875	4.31
680.998	11.31
681.12	9.31
681.242	-1.69
681.364	7.31
681.486	20.31
681.609	11.31
681.731	13.31
681.853	13.31
681.975	-0.69
682.098	16.31
682.22	18.31
682.342	10.31
682.464	6.31
682.587	13.31
682.709	18.31
682.831	-0.69
682.953	8.31
683.076	6.31
683.198	12.31
683.32	16.31
683.442	21.31
683.565	9.31
683.687	1.31
683.809	10.31
683.931	-6.69
684.054	22.31
684.176	9.31
684.298	14.31
684.42	6.31
684.543	20.31
684.665	25.31
684.787	5.31
684.909	8.31
685.032	17.31
685.154	3.31
685.276	8.31
685.398	7.31
685.521	8.31
685.643	15.31
685.765	13.31
685.887	26.31
686.01	29.31
686.132	4.31
686.254	38.31
686.377	31.31
686.499	2.31
686.621	28.31
686.743	10.31
686.866	29.31
686.988	28.31
687.11	33.31
687.232	15.31
687.355	-2.69
687.477	13.31
687.599	9.31
687.722	2.31
687.844	19.31
687.966	11.31
688.088	17.31
688.211	38.31
688.333	-1.69
688.455	-3.69
688.578	16.31
688.7	19.31
688.822	11.31
688.944	-18.69
689.067	47.31
689.189	15.31
689.311	-3.69
689.434	22.31
689.556	17.31
689.678	35.31
689.801	3.31
689.923	21.31
690.045	35.31
690.167	35.31
690.29	30.31
690.412	30.31
690.534	32.31
690.657	15.31
690.779	20.31
690.901	42.31
691.024	25.31
691.146	12.31
691.268	1.31
691.391	9.31
691.513	22.31
691.635	26.31
691.758	24.31
691.88	24.31
692.002	13.31
692.125	38.31
692.247	24.31
692.369	10.31
692.492	6.31
692.614	14.31
692.736	16.31
692.859	17.31
692.981	9.31
693.103	24.31
693.226	24.31
693.348	30.31
693.47	12.31
693.593	18.31
693.715	33.31
693.837	53.31
693.96	26.31
694.082	16.31
694.204	12.31
694.327	16.31
694.449	-6.69
694.571	16.31
694.694	25.31
694.816	19.31
694.938	14.31
695.061	9.31
695.183	1.31
695.305	7.31
695.428	13.31
695.55	13.31
695.672	10.31
695.795	16.31
695.917	19.31
696.04	14.31
696.162	13.31
696.284	26.31
696.407	6.31
696.529	24.31
696.651	21.31
696.774	30.31
696.896	25.31
697.019	15.31
697.141	27.31
697.263	16.31
697.386	14.31
697.508	10.31
697.63	18.31
697.753	31.31
697.875	29.31
697.998	3.31
698.12	14.31
698.242	13.31
698.365	15.31
698.487	32.31
698.61	29.31
698.732	16.31
698.854	26.31
698.977	5.31
699.099	24.31
699.221	19.31
699.344	9.31
699.466	13.31
699.589	1.31
699.711	9.31
699.834	29.31
699.956	25.31
700.078	22.31
700.201	18.31
700.323	24.31
700.446	-0.69
700.568	9.31
700.69	32.31
700.813	27.31
700.935	8.31
701.058	13.31
701.18	17.31
701.302	15.31
701.425	14.31
701.547	20.31
701.67	3.31
701.792	18.31
701.915	9.31
702.037	-3.69
702.159	12.31
702.282	17.31
702.404	4.31
702.527	17.31
702.649	24.31
702.772	28.31
702.894	26.31
703.017	25.31
703.139	28.31
703.261	44.31
703.384	26.31
703.506	-5.69
703.629	7.31
703.751	43.31
703.874	17.31
703.996	9.31
704.119	2.31
704.241	27.31
704.364	19.31
704.486	10.31
704.608	27.31
704.731	25.31
704.853	21.31
704.976	8.31
705.098	32.31
705.221	7.31
705.343	0.31
705.466	21.31
705.588	45.31
705.711	17.31
705.833	25.31
705.956	18.31
706.078	15.31
706.201	16.31
706.323	16.31
706.446	16.31
