Data from LowRes_mercury_15_20_11_07_2024_HR4C61881__13__15-23-33-571.txt Node

Date: Thu Nov 07 15:23:33 EST 2024
User: crc00042
Spectrometer: HR4C6188
Trigger mode: 4
Integration Time (sec): 1.000000E-1
Scans to average: 1
Electric dark correction enabled: true
Nonlinearity correction enabled: false
Boxcar width: 0
XAxis mode: Wavelengths
Number of Pixels in Spectrum: 3648
>>>>>Begin Spectral Data<<<<<
245.66	-69.85
245.797	-69.85
245.934	-69.85
246.071	-70.85
246.208	-6.85
246.344	-12.85
246.481	-4.85
246.618	-0.85
246.755	2.15
246.892	3.15
247.029	2.15
247.165	-4.85
247.302	8.15
247.439	4.15
247.576	7.15
247.713	-22.85
247.849	27.15
247.986	-7.85
248.123	5.15
248.26	-18.85
248.396	0.15
248.533	9.15
248.67	2.15
248.806	-1.85
248.943	-11.85
249.08	-0.85
249.216	20.15
249.353	-9.85
249.49	-6.85
249.626	-0.85
249.763	-3.85
249.9	-4.85
250.036	-5.85
250.173	16.15
250.309	3.15
250.446	-2.85
250.582	9.15
250.719	-6.85
250.856	1.15
250.992	-5.85
251.129	-4.85
251.265	0.15
251.402	2.15
251.538	9.15
251.675	-5.85
251.811	25.15
251.948	22.15
252.084	11.15
252.221	17.15
252.357	1.15
252.493	21.15
252.63	8.15
252.766	22.15
252.903	10.15
253.039	-8.85
253.175	-10.85
253.312	16.15
253.448	-3.85
253.585	-25.85
253.721	27.15
253.857	4.15
253.994	16.15
254.13	-3.85
254.266	15.15
254.403	-8.85
254.539	0.15
254.675	6.15
254.811	1.15
254.948	4.15
255.084	-6.85
255.22	-5.85
255.356	-3.85
255.493	5.15
255.629	7.15
255.765	-15.85
255.901	14.15
256.037	2.15
256.174	8.15
256.31	-2.85
256.446	9.15
256.582	-3.85
256.718	13.15
256.854	19.15
256.991	22.15
257.127	9.15
257.263	12.15
257.399	13.15
257.535	11.15
257.671	3.15
257.807	1.15
257.943	-10.85
258.079	-8.85
258.215	10.15
258.351	8.15
258.487	6.15
258.623	24.15
258.759	8.15
258.895	-9.85
259.031	5.15
259.167	-9.85
259.303	12.15
259.439	6.15
259.575	0.15
259.711	5.15
259.847	-1.85
259.983	11.15
260.119	10.15
260.255	4.15
260.391	26.15
260.527	26.15
260.663	11.15
260.799	7.15
260.934	3.15
261.07	4.15
261.206	-12.85
261.342	-5.85
261.478	27.15
261.614	23.15
261.749	17.15
261.885	6.15
262.021	-5.85
262.157	26.15
262.293	0.15
262.428	-13.85
262.564	-9.85
262.7	15.15
262.836	9.15
262.971	28.15
263.107	18.15
263.243	14.15
263.378	2.15
263.514	-24.85
263.65	-0.85
263.785	-24.85
263.921	-13.85
264.057	-12.85
264.192	4.15
264.328	6.15
264.464	-7.85
264.599	24.15
264.735	16.15
264.871	3.15
265.006	22.15
265.142	1.15
265.277	4.15
265.413	4.15
265.548	9.15
265.684	11.15
265.819	9.15
265.955	-15.85
266.091	-3.85
266.226	3.15
266.362	21.15
266.497	8.15
266.633	6.15
266.768	1.15
266.903	-4.85
267.039	28.15
267.174	23.15
267.31	2.15
267.445	4.15
267.581	-13.85
267.716	22.15
267.851	3.15
267.987	8.15
268.122	13.15
268.258	-12.85
268.393	2.15
268.528	20.15
268.664	-2.85
268.799	-3.85
268.934	17.15
269.07	-16.85
269.205	-3.85
269.34	15.15
269.476	6.15
269.611	-10.85
269.746	14.15
269.881	23.15
270.017	28.15
270.152	13.15
270.287	3.15
270.422	-1.85
270.558	-10.85
270.693	8.15
270.828	11.15
270.963	-3.85
271.098	-8.85
271.234	13.15
271.369	31.15
271.504	-1.85
271.639	0.15
271.774	-25.85
271.909	-2.85
272.045	-4.85
272.18	-5.85
272.315	9.15
272.45	15.15
272.585	-0.85
272.72	12.15
272.855	0.15
272.99	23.15
273.125	4.15
273.26	-19.85
273.395	-11.85
273.53	16.15
273.665	16.15
273.8	-3.85
273.935	16.15
274.07	11.15
274.205	21.15
274.34	-4.85
274.475	-4.85
274.61	35.15
274.745	-7.85
274.88	19.15
275.015	-25.85
275.15	7.15
275.285	-0.85
275.42	10.15
275.555	12.15
275.69	21.15
275.825	2.15
275.959	18.15
276.094	18.15
276.229	15.15
276.364	-23.85
276.499	13.15
276.634	13.15
276.768	9.15
276.903	12.15
277.038	22.15
277.173	22.15
277.308	-13.85
277.442	1.15
277.577	4.15
277.712	2.15
277.847	14.15
277.981	5.15
278.116	3.15
278.251	18.15
278.386	14.15
278.52	6.15
278.655	13.15
278.79	3.15
278.924	19.15
279.059	20.15
279.194	-9.85
279.328	38.15
279.463	14.15
279.598	19.15
279.732	20.15
279.867	8.15
280.001	13.15
280.136	14.15
280.271	9.15
280.405	21.15
280.54	0.15
280.674	7.15
280.809	18.15
280.943	-4.85
281.078	3.15
281.213	1.15
281.347	28.15
281.482	27.15
281.616	14.15
281.751	-8.85
281.885	-7.85
282.02	8.15
282.154	-8.85
282.288	-1.85
282.423	3.15
282.557	-9.85
282.692	8.15
282.826	4.15
282.961	2.15
283.095	-8.85
283.229	-6.85
283.364	-26.85
283.498	-4.85
283.633	15.15
283.767	8.15
283.901	4.15
284.036	2.15
284.17	-1.85
284.304	-3.85
284.439	-0.85
284.573	-0.85
284.707	12.15
284.842	5.15
284.976	-18.85
285.11	-5.85
285.244	7.15
285.379	52.15
285.513	14.15
285.647	8.15
285.781	-1.85
285.916	20.15
286.05	-9.85
286.184	34.15
286.318	17.15
286.453	-16.85
286.587	-17.85
286.721	-6.85
286.855	11.15
286.989	11.15
287.123	8.15
287.258	-9.85
287.392	-4.85
287.526	8.15
287.66	25.15
287.794	11.15
287.928	11.15
288.062	13.15
288.196	20.15
288.33	5.15
288.464	25.15
288.598	14.15
288.733	17.15
288.867	13.15
289.001	-7.85
289.135	12.15
289.269	-16.85
289.403	6.15
289.537	0.15
289.671	15.15
289.805	1.15
289.939	13.15
290.073	-2.85
290.207	12.15
290.34	3.15
290.474	22.15
290.608	12.15
290.742	6.15
290.876	10.15
291.01	1.15
291.144	35.15
291.278	9.15
291.412	19.15
291.546	14.15
291.679	-2.85
291.813	-7.85
291.947	-6.85
292.081	-4.85
292.215	13.15
292.349	28.15
292.482	12.15
292.616	13.15
292.75	4.15
292.884	14.15
293.018	-1.85
293.151	2.15
293.285	-5.85
293.419	-11.85
293.553	11.15
293.686	-1.85
293.82	-1.85
293.954	28.15
294.088	16.15
294.221	-1.85
294.355	-12.85
294.489	4.15
294.622	-13.85
294.756	7.15
294.89	8.15
295.023	3.15
295.157	5.15
295.291	10.15
295.424	25.15
295.558	12.15
295.691	23.15
295.825	15.15
295.959	11.15
296.092	8.15
296.226	10.15
296.359	7.15
296.493	17.15
296.627	-2.85
296.76	-1.85
296.894	-13.85
297.027	-8.85
297.161	-2.85
297.294	-11.85
297.428	5.15
297.561	30.15
297.695	-6.85
297.828	-7.85
297.962	-16.85
298.095	-5.85
298.229	10.15
298.362	-0.85
298.495	1.15
298.629	-3.85
298.762	-6.85
298.896	-10.85
299.029	-6.85
299.162	22.15
299.296	5.15
299.429	-7.85
299.563	19.15
299.696	4.15
299.829	5.15
299.963	28.15
300.096	16.15
300.229	21.15
300.363	5.15
300.496	16.15
300.629	-5.85
300.763	12.15
300.896	5.15
301.029	16.15
301.162	3.15
301.296	-0.85
301.429	4.15
301.562	-9.85
301.695	-19.85
301.829	-3.85
301.962	23.15
302.095	3.15
302.228	-0.85
302.362	17.15
302.495	-2.85
302.628	5.15
302.761	2.15
302.894	11.15
303.027	25.15
303.161	4.15
303.294	0.15
303.427	11.15
303.56	20.15
303.693	-2.85
303.826	-1.85
303.959	1.15
304.092	-11.85
304.225	-1.85
304.359	-15.85
304.492	10.15
304.625	6.15
304.758	-0.85
304.891	-3.85
305.024	18.15
305.157	-0.85
305.29	-18.85
305.423	1.15
305.556	31.15
305.689	14.15
305.822	-6.85
305.955	0.15
306.088	-11.85
306.221	2.15
306.354	2.15
306.487	-10.85
306.62	-5.85
306.752	20.15
306.885	11.15
307.018	11.15
307.151	18.15
307.284	20.15
307.417	0.15
307.55	16.15
307.683	21.15
307.816	15.15
307.948	13.15
308.081	12.15
308.214	10.15
308.347	19.15
308.48	1.15
308.613	-10.85
308.745	12.15
308.878	-10.85
309.011	15.15
309.144	22.15
309.277	4.15
309.409	13.15
309.542	-10.85
309.675	16.15
309.808	8.15
309.94	14.15
310.073	4.15
310.206	6.15
310.339	-1.85
310.471	-22.85
310.604	19.15
310.737	11.15
310.869	18.15
311.002	0.15
311.135	-16.85
311.267	-4.85
311.4	-6.85
311.533	20.15
311.665	10.15
311.798	-6.85
311.93	7.15
312.063	28.15
312.196	34.15
312.328	103.15
312.461	53.15
312.593	51.15
312.726	64.15
312.859	112.15
312.991	172.15
313.124	37.15
313.256	16.15
313.389	27.15
313.521	22.15
313.654	20.15
313.786	0.15
313.919	-6.85
314.051	0.15
314.184	2.15
314.316	15.15
314.449	-9.85
314.581	-1.85
314.714	9.15
314.846	9.15
314.978	2.15
315.111	2.15
315.243	4.15
315.376	20.15
315.508	10.15
315.641	13.15
315.773	15.15
315.905	-5.85
316.038	-4.85
316.17	6.15
316.302	1.15
316.435	-3.85
316.567	16.15
316.699	19.15
316.832	-6.85
316.964	-29.85
317.096	-11.85
317.229	-14.85
317.361	-22.85
317.493	-6.85
317.625	-9.85
317.758	14.15
317.89	5.15
318.022	15.15
318.155	-4.85
318.287	13.15
318.419	-3.85
318.551	11.15
318.683	7.15
318.816	8.15
318.948	6.15
319.08	-14.85
319.212	6.15
319.344	-5.85
319.477	-4.85
319.609	10.15
319.741	19.15
319.873	4.15
320.005	-3.85
320.137	15.15
320.269	15.15
320.401	18.15
320.534	-3.85
320.666	-17.85
320.798	-4.85
320.93	-0.85
321.062	1.15
321.194	2.15
321.326	2.15
321.458	6.15
321.59	-1.85
321.722	-16.85
321.854	6.15
321.986	9.15
322.118	1.15
322.25	-29.85
322.382	-13.85
322.514	1.15
322.646	-1.85
322.778	17.15
322.91	-0.85
323.042	-3.85
323.174	13.15
323.306	-4.85
323.438	-4.85
323.57	11.15
323.702	11.15
323.834	-3.85
323.966	-7.85
324.097	-3.85
324.229	8.15
324.361	7.15
324.493	-0.85
324.625	10.15
324.757	3.15
324.889	15.15
325.021	4.15
325.152	26.15
325.284	11.15
325.416	-0.85
325.548	17.15
325.68	4.15
325.811	27.15
325.943	20.15
326.075	5.15
326.207	10.15
326.339	20.15
326.47	5.15
326.602	10.15
326.734	22.15
326.866	25.15
326.997	-15.85
327.129	8.15
327.261	-0.85
327.392	3.15
327.524	-0.85
327.656	16.15
327.787	16.15
327.919	8.15
328.051	-1.85
328.182	23.15
328.314	23.15
328.446	-2.85
328.577	17.15
328.709	28.15
328.841	-11.85
328.972	-9.85
329.104	-2.85
329.235	7.15
329.367	12.15
329.499	3.15
329.63	5.15
329.762	12.15
329.893	16.15
330.025	14.15
330.156	-12.85
330.288	1.15
330.419	10.15
330.551	14.15
330.683	5.15
330.814	10.15
330.946	15.15
331.077	12.15
331.208	0.15
331.34	-2.85
331.471	0.15
331.603	-10.85
331.734	-4.85
331.866	13.15
331.997	0.15
332.129	10.15
332.26	12.15
332.392	24.15
332.523	3.15
332.654	-20.85
332.786	4.15
332.917	6.15
333.048	22.15
333.18	23.15
333.311	-23.85
333.443	7.15
333.574	21.15
333.705	31.15
333.837	45.15
333.968	141.15
334.099	242.15
334.231	219.15
334.362	54.15
334.493	15.15
334.624	14.15
334.756	12.15
334.887	7.15
335.018	-0.85
335.15	19.15
335.281	6.15
335.412	7.15
335.543	20.15
335.675	13.15
335.806	25.15
335.937	11.15
336.068	0.15
336.199	49.15
336.331	-12.85
336.462	8.15
336.593	9.15
336.724	17.15
336.855	12.15
336.986	32.15
337.118	40.15
337.249	26.15
337.38	19.15
337.511	16.15
337.642	14.15
337.773	-1.85
337.904	13.15
338.035	12.15
338.166	16.15
338.298	29.15
338.429	10.15
338.56	27.15
338.691	18.15
338.822	20.15
338.953	5.15
339.084	27.15
339.215	11.15
339.346	16.15
339.477	23.15
339.608	9.15
339.739	17.15
339.87	6.15
340.001	0.15
340.132	2.15
340.263	2.15
340.394	23.15
340.525	25.15
340.656	-6.85
340.787	-10.85
340.918	29.15
341.049	34.15
341.179	13.15
341.31	7.15
341.441	15.15
341.572	7.15
341.703	3.15
341.834	-11.85
341.965	18.15
342.096	4.15
342.227	0.15
342.357	8.15
342.488	8.15
342.619	21.15
342.75	14.15
342.881	8.15
343.012	39.15
343.142	45.15
343.273	16.15
343.404	22.15
343.535	36.15
343.666	15.15
343.796	23.15
343.927	46.15
344.058	37.15
344.189	43.15
344.319	34.15
344.45	26.15
344.581	24.15
344.712	16.15
344.842	28.15
344.973	23.15
345.104	39.15
345.234	31.15
345.365	15.15
345.496	23.15
345.626	32.15
345.757	46.15
345.888	16.15
346.018	27.15
346.149	35.15
346.28	44.15
346.41	27.15
346.541	34.15
346.672	24.15
346.802	20.15
346.933	33.15
347.063	26.15
347.194	45.15
347.325	38.15
347.455	35.15
347.586	37.15
347.716	24.15
347.847	40.15
347.977	28.15
348.108	51.15
348.238	48.15
348.369	32.15
348.499	40.15
348.63	47.15
348.76	58.15
348.891	42.15
349.021	54.15
349.152	43.15
349.282	49.15
349.413	39.15
349.543	45.15
349.674	28.15
349.804	27.15
349.935	22.15
350.065	32.15
350.196	6.15
350.326	23.15
350.456	23.15
350.587	55.15
350.717	31.15
350.848	35.15
350.978	30.15
351.108	18.15
351.239	35.15
351.369	17.15
351.499	21.15
351.63	28.15
351.76	25.15
351.89	22.15
352.021	16.15
352.151	22.15
352.281	49.15
352.412	39.15
352.542	29.15
352.672	22.15
352.803	29.15
352.933	44.15
353.063	18.15
353.193	22.15
353.324	31.15
353.454	52.15
353.584	50.15
353.714	4.15
353.845	8.15
353.975	0.15
354.105	10.15
354.235	14.15
354.365	10.15
354.496	21.15
354.626	43.15
354.756	31.15
354.886	17.15
355.016	25.15
355.146	14.15
355.277	26.15
355.407	15.15
355.537	27.15
355.667	40.15
355.797	34.15
355.927	21.15
356.057	22.15
356.187	11.15
356.318	26.15
356.448	16.15
356.578	39.15
356.708	41.15
356.838	23.15
356.968	26.15
357.098	36.15
357.228	32.15
357.358	7.15
357.488	19.15
357.618	46.15
357.748	36.15
357.878	41.15
358.008	45.15
358.138	26.15
358.268	16.15
358.398	58.15
358.528	24.15
358.658	32.15
358.788	30.15
358.918	22.15
359.048	52.15
359.178	48.15
359.308	36.15
359.438	43.15
359.568	29.15
359.698	30.15
359.827	39.15
359.957	32.15
360.087	32.15
360.217	8.15
360.347	36.15
360.477	32.15
360.607	20.15
360.737	47.15
360.866	45.15
360.996	23.15
361.126	13.15
361.256	37.15
361.386	46.15
361.516	39.15
361.645	38.15
361.775	51.15
361.905	15.15
362.035	41.15
362.165	45.15
362.294	51.15
362.424	57.15
362.554	28.15
362.684	27.15
362.813	34.15
362.943	62.15
363.073	43.15
363.203	62.15
363.332	64.15
363.462	75.15
363.592	104.15
363.721	126.15
363.851	157.15
363.981	209.15
364.111	262.15
364.24	331.15
364.37	509.15
364.5	916.15
364.629	1814.15
364.759	3954.15
364.888	6366.15
365.018	9522.15
365.148	14884.15
365.277	13146.15
365.407	4876.15
365.537	3176.15
365.666	4136.15
365.796	1857.15
365.925	821.15
366.055	755.15
366.184	1057.15
366.314	1415.15
366.444	2532.15
366.573	2150.15
366.703	673.15
366.832	208.15
366.962	121.15
367.091	85.15
367.221	97.15
367.35	66.15
367.48	86.15
367.609	59.15
367.739	68.15
367.868	48.15
367.998	45.15
368.127	58.15
368.257	50.15
368.386	58.15
368.516	58.15
368.645	41.15
368.775	56.15
368.904	49.15
369.033	29.15
369.163	38.15
369.292	44.15
369.422	37.15
369.551	19.15
369.68	51.15
369.81	28.15
369.939	28.15
370.069	48.15
370.198	31.15
370.327	29.15
370.457	44.15
370.586	44.15
370.715	32.15
370.845	15.15
370.974	44.15
371.103	38.15
371.233	43.15
371.362	50.15
371.491	43.15
371.621	58.15
371.75	49.15
371.879	45.15
372.008	55.15
372.138	48.15
372.267	66.15
372.396	55.15
372.525	32.15
372.655	39.15
372.784	27.15
372.913	29.15
373.042	27.15
373.172	43.15
373.301	21.15
373.43	12.15
373.559	7.15
373.688	26.15
373.818	18.15
373.947	27.15
374.076	34.15
374.205	40.15
374.334	22.15
374.463	13.15
374.593	39.15
374.722	11.15
374.851	31.15
374.98	13.15
375.109	16.15
375.238	40.15
375.367	49.15
375.496	15.15
375.625	-0.85
375.755	26.15
375.884	30.15
376.013	33.15
376.142	-4.85
376.271	17.15
376.4	22.15
376.529	22.15
376.658	26.15
376.787	22.15
376.916	21.15
377.045	22.15
377.174	23.15
377.303	17.15
377.432	44.15
377.561	40.15
377.69	18.15
377.819	32.15
377.948	20.15
378.077	17.15
378.206	15.15
378.335	16.15
378.464	32.15
378.593	42.15
378.722	4.15
378.851	24.15
378.98	30.15
379.108	-3.85
379.237	3.15
379.366	14.15
379.495	31.15
379.624	22.15
379.753	3.15
379.882	20.15
380.011	-1.85
380.14	4.15
380.268	22.15
380.397	9.15
380.526	32.15
380.655	14.15
380.784	-3.85
380.913	12.15
381.041	29.15
381.17	22.15
381.299	12.15
381.428	24.15
381.557	22.15
381.685	17.15
381.814	29.15
381.943	16.15
382.072	7.15
382.2	0.15
382.329	11.15
382.458	16.15
382.587	19.15
382.715	37.15
382.844	36.15
382.973	29.15
383.102	21.15
383.23	25.15
383.359	4.15
383.488	35.15
383.616	20.15
383.745	12.15
383.874	16.15
384.003	19.15
384.131	12.15
384.26	26.15
384.389	23.15
384.517	2.15
384.646	0.15
384.774	19.15
384.903	31.15
385.032	56.15
385.16	32.15
385.289	17.15
385.418	5.15
385.546	24.15
385.675	34.15
385.803	40.15
385.932	37.15
386.06	31.15
386.189	25.15
386.318	31.15
386.446	20.15
386.575	30.15
386.703	26.15
386.832	23.15
386.96	11.15
387.089	38.15
387.217	27.15
387.346	9.15
387.474	19.15
387.603	42.15
387.731	1.15
387.86	30.15
387.988	16.15
388.117	42.15
388.245	23.15
388.374	10.15
388.502	27.15
388.631	11.15
388.759	6.15
388.888	22.15
389.016	20.15
389.144	24.15
389.273	22.15
389.401	22.15
389.53	3.15
389.658	39.15
389.786	27.15
389.915	8.15
390.043	4.15
390.172	23.15
390.3	50.15
390.428	54.15
390.557	20.15
390.685	17.15
390.813	34.15
390.942	43.15
391.07	32.15
391.198	27.15
391.327	31.15
391.455	3.15
391.583	27.15
391.712	16.15
391.84	24.15
391.968	18.15
392.096	-4.85
392.225	26.15
392.353	44.15
392.481	20.15
392.609	43.15
392.738	21.15
392.866	40.15
392.994	32.15
393.122	25.15
393.251	23.15
393.379	17.15
393.507	15.15
393.635	31.15
393.764	38.15
393.892	33.15
394.02	22.15
394.148	19.15
394.276	17.15
394.404	52.15
394.533	34.15
394.661	41.15
394.789	44.15
394.917	49.15
395.045	16.15
395.173	22.15
395.302	25.15
395.43	40.15
395.558	34.15
395.686	47.15
395.814	46.15
395.942	30.15
396.07	32.15
396.198	41.15
396.326	28.15
396.454	46.15
396.582	30.15
396.711	29.15
396.839	33.15
396.967	52.15
397.095	45.15
397.223	22.15
397.351	39.15
397.479	37.15
397.607	26.15
397.735	53.15
397.863	62.15
397.991	45.15
398.119	36.15
398.247	31.15
398.375	42.15
398.503	52.15
398.631	77.15
398.759	71.15
398.887	52.15
399.015	57.15
399.143	72.15
399.271	68.15
399.399	59.15
399.526	92.15
399.654	84.15
399.782	70.15
399.91	93.15
400.038	84.15
400.166	79.15
400.294	86.15
400.422	81.15
400.55	108.15
400.678	107.15
400.805	123.15
400.933	110.15
401.061	122.15
401.189	116.15
401.317	141.15
401.445	111.15
401.573	82.15
401.7	61.15
401.828	28.15
401.956	41.15
402.084	57.15
402.212	44.15
402.34	59.15
402.467	29.15
402.595	43.15
402.723	53.15
402.851	76.15
402.978	54.15
403.106	76.15
403.234	88.15
403.362	120.15
403.489	124.15
403.617	160.15
403.745	193.15
403.873	292.15
404	574.15
404.128	1506.15
404.256	4008.15
404.384	5174.15
404.511	5518.15
404.639	7321.15
404.767	11600.15
404.894	14767.15
405.022	4950.15
405.15	1312.15
405.277	421.15
405.405	262.15
405.533	138.15
405.66	123.15
405.788	52.15
405.916	65.15
406.043	32.15
406.171	75.15
406.299	65.15
406.426	71.15
406.554	53.15
406.681	82.15
406.809	56.15
406.937	78.15
407.064	78.15
407.192	143.15
407.319	299.15
407.447	511.15
407.574	517.15
407.702	651.15
407.83	848.15
407.957	1620.15
408.085	969.15
408.212	281.15
408.34	106.15
408.467	56.15
408.595	53.15
408.722	53.15
408.85	54.15
408.977	34.15
409.105	38.15
409.232	40.15
409.36	31.15
409.487	33.15
409.615	31.15
409.742	40.15
409.87	35.15
409.997	44.15
410.125	40.15
410.252	48.15
410.379	19.15
410.507	32.15
410.634	30.15
410.762	22.15
410.889	13.15
411.017	29.15
411.144	23.15
411.271	27.15
411.399	33.15
411.526	27.15
411.653	15.15
411.781	35.15
411.908	31.15
412.036	13.15
412.163	43.15
412.29	38.15
412.418	19.15
412.545	33.15
412.672	35.15
412.8	59.15
412.927	46.15
413.054	58.15
413.182	38.15
413.309	39.15
413.436	11.15
413.564	23.15
413.691	21.15
413.818	32.15
413.945	26.15
414.073	36.15
414.2	25.15
414.327	28.15
414.454	35.15
414.582	28.15
414.709	18.15
414.836	25.15
414.963	33.15
415.091	38.15
415.218	26.15
415.345	35.15
415.472	38.15
415.6	36.15
415.727	27.15
415.854	47.15
415.981	37.15
416.108	19.15
416.236	39.15
416.363	47.15
416.49	40.15
416.617	45.15
416.744	40.15
416.871	23.15
416.998	29.15
417.126	8.15
417.253	25.15
417.38	41.15
417.507	38.15
417.634	28.15
417.761	35.15
417.888	39.15
418.015	49.15
418.143	40.15
418.27	39.15
418.397	13.15
418.524	28.15
418.651	29.15
418.778	50.15
418.905	55.15
419.032	40.15
419.159	37.15
419.286	49.15
419.413	47.15
419.54	63.15
419.667	36.15
419.794	37.15
419.921	42.15
420.048	55.15
420.175	27.15
420.302	57.15
420.429	50.15
420.556	58.15
420.683	39.15
420.81	57.15
420.937	73.15
421.064	71.15
421.191	63.15
421.318	70.15
421.445	70.15
421.572	74.15
421.699	75.15
421.826	54.15
421.953	40.15
422.08	14.15
422.207	0.15
422.334	-1.85
422.461	21.15
422.588	12.15
422.714	21.15
422.841	30.15
422.968	25.15
423.095	38.15
423.222	2.15
423.349	24.15
423.476	47.15
423.603	10.15
423.729	11.15
423.856	9.15
423.983	42.15
424.11	13.15
424.237	14.15
424.364	16.15
424.491	15.15
424.617	6.15
424.744	11.15
424.871	4.15
424.998	11.15
425.125	11.15
425.251	15.15
425.378	15.15
425.505	26.15
425.632	19.15
425.758	8.15
425.885	43.15
426.012	40.15
426.139	25.15
426.266	14.15
426.392	17.15
426.519	32.15
426.646	20.15
426.772	20.15
426.899	-4.85
427.026	23.15
427.153	26.15
427.279	29.15
427.406	39.15
427.533	44.15
427.659	34.15
427.786	25.15
427.913	32.15
428.039	18.15
428.166	31.15
428.293	25.15
428.419	17.15
428.546	33.15
428.673	-3.85
428.799	6.15
428.926	24.15
429.053	42.15
429.179	21.15
429.306	37.15
429.433	37.15
429.559	23.15
429.686	6.15
429.812	24.15
429.939	20.15
430.066	22.15
430.192	15.15
430.319	33.15
430.445	18.15
430.572	29.15
430.699	21.15
430.825	18.15
430.952	36.15
431.078	48.15
431.205	22.15
431.331	37.15
431.458	38.15
431.584	42.15
431.711	25.15
431.837	41.15
431.964	30.15
432.09	34.15
432.217	13.15
432.343	30.15
432.47	45.15
432.596	29.15
432.723	18.15
432.849	11.15
432.976	38.15
433.102	29.15
433.229	38.15
433.355	61.15
433.482	75.15
433.608	125.15
433.735	109.15
433.861	113.15
433.987	151.15
434.114	189.15
434.24	182.15
434.367	211.15
434.493	219.15
434.62	285.15
434.746	383.15
434.872	627.15
434.999	850.15
435.125	1764.15
435.252	5607.15
435.378	13513.15
435.504	15250.15
435.631	15454.15
435.757	15685.15
435.883	15685.15
436.01	15685.15
436.136	15685.15
436.262	15685.15
436.389	3540.15
436.515	2581.15
436.641	894.15
436.768	681.15
436.894	420.15
437.02	412.15
437.147	327.15
437.273	311.15
437.399	218.15
437.526	235.15
437.652	180.15
437.778	177.15
437.904	155.15
438.031	155.15
438.157	142.15
438.283	176.15
438.409	125.15
438.536	118.15
438.662	121.15
438.788	139.15
438.914	103.15
439.041	129.15
439.167	124.15
439.293	111.15
439.419	95.15
439.546	94.15
439.672	73.15
439.798	104.15
439.924	65.15
440.05	106.15
440.177	81.15
440.303	72.15
440.429	82.15
440.555	76.15
440.681	55.15
440.807	65.15
440.934	51.15
441.06	70.15
441.186	66.15
441.312	75.15
441.438	55.15
441.564	68.15
441.69	63.15
441.816	68.15
441.943	60.15
442.069	39.15
442.195	47.15
442.321	64.15
442.447	15.15
442.573	59.15
442.699	56.15
442.825	33.15
442.951	59.15
443.077	51.15
443.203	54.15
443.33	45.15
443.456	39.15
443.582	55.15
443.708	38.15
443.834	61.15
443.96	38.15
444.086	50.15
444.212	56.15
444.338	54.15
444.464	58.15
444.59	57.15
444.716	52.15
444.842	55.15
444.968	46.15
445.094	46.15
445.22	28.15
445.346	41.15
445.472	51.15
445.598	52.15
445.724	20.15
445.85	34.15
445.976	41.15
446.102	38.15
446.228	47.15
446.354	62.15
446.48	46.15
446.605	43.15
446.731	48.15
446.857	29.15
446.983	25.15
447.109	35.15
447.235	28.15
447.361	23.15
447.487	35.15
447.613	44.15
447.739	38.15
447.865	29.15
447.99	44.15
448.116	22.15
448.242	27.15
448.368	25.15
448.494	30.15
448.62	45.15
448.746	24.15
448.872	34.15
448.997	23.15
449.123	16.15
449.249	42.15
449.375	32.15
449.501	27.15
449.627	30.15
449.752	55.15
449.878	15.15
450.004	36.15
450.13	35.15
450.256	33.15
450.381	35.15
450.507	26.15
450.633	24.15
450.759	26.15
450.884	20.15
451.01	45.15
451.136	24.15
451.262	32.15
451.388	37.15
451.513	16.15
451.639	18.15
451.765	29.15
451.89	34.15
452.016	35.15
452.142	25.15
452.268	23.15
452.393	22.15
452.519	25.15
452.645	25.15
452.771	33.15
452.896	29.15
453.022	6.15
453.148	42.15
453.273	33.15
453.399	39.15
453.525	14.15
453.65	20.15
453.776	40.15
453.902	24.15
454.027	37.15
454.153	43.15
454.279	32.15
454.404	28.15
454.53	61.15
454.656	51.15
454.781	10.15
454.907	27.15
455.032	11.15
455.158	43.15
455.284	39.15
455.409	23.15
455.535	25.15
455.66	33.15
455.786	21.15
455.912	36.15
456.037	22.15
456.163	40.15
456.288	35.15
456.414	8.15
456.539	12.15
456.665	25.15
456.791	34.15
456.916	16.15
457.042	36.15
457.167	2.15
457.293	26.15
457.418	14.15
457.544	24.15
457.669	35.15
457.795	30.15
457.92	20.15
458.046	11.15
458.171	41.15
458.297	36.15
458.422	19.15
458.548	17.15
458.673	31.15
458.799	43.15
458.924	8.15
459.05	29.15
459.175	26.15
459.301	19.15
459.426	47.15
459.552	41.15
459.677	23.15
459.803	57.15
459.928	39.15
460.053	27.15
460.179	26.15
460.304	27.15
460.43	3.15
460.555	36.15
460.681	19.15
460.806	35.15
460.931	36.15
461.057	41.15
461.182	31.15
461.308	26.15
461.433	30.15
461.558	11.15
461.684	42.15
461.809	29.15
461.934	24.15
462.06	36.15
462.185	19.15
462.311	9.15
462.436	30.15
462.561	31.15
462.687	26.15
462.812	34.15
462.937	26.15
463.063	11.15
463.188	23.15
463.313	42.15
463.439	14.15
463.564	6.15
463.689	13.15
463.814	31.15
463.94	24.15
464.065	26.15
464.19	37.15
464.316	16.15
464.441	23.15
464.566	24.15
464.692	29.15
464.817	36.15
464.942	19.15
465.067	35.15
465.193	11.15
465.318	37.15
465.443	25.15
465.568	24.15
465.694	-0.85
465.819	43.15
465.944	26.15
466.069	18.15
466.194	15.15
466.32	28.15
466.445	37.15
466.57	23.15
466.695	2.15
466.82	46.15
466.946	51.15
467.071	38.15
467.196	22.15
467.321	31.15
467.446	30.15
467.572	41.15
467.697	34.15
467.822	45.15
467.947	39.15
468.072	29.15
468.197	21.15
468.323	9.15
468.448	30.15
468.573	34.15
468.698	33.15
468.823	34.15
468.948	35.15
469.073	46.15
469.198	53.15
469.324	54.15
469.449	37.15
469.574	49.15
469.699	55.15
469.824	47.15
469.949	26.15
470.074	33.15
470.199	68.15
470.324	42.15
470.449	46.15
470.574	46.15
470.7	46.15
470.825	37.15
470.95	45.15
471.075	40.15
471.2	37.15
471.325	42.15
471.45	32.15
471.575	27.15
471.7	31.15
471.825	22.15
471.95	28.15
472.075	25.15
472.2	23.15
472.325	34.15
472.45	41.15
472.575	40.15
472.7	41.15
472.825	40.15
472.95	41.15
473.075	31.15
473.2	42.15
473.325	36.15
473.45	36.15
473.575	19.15
473.7	34.15
473.825	30.15
473.95	38.15
474.075	35.15
474.2	23.15
474.325	15.15
474.45	46.15
474.574	34.15
474.699	30.15
474.824	38.15
474.949	15.15
475.074	1.15
475.199	28.15
475.324	26.15
475.449	27.15
475.574	23.15
475.699	18.15
475.824	20.15
475.949	22.15
476.073	25.15
476.198	30.15
476.323	32.15
476.448	22.15
476.573	27.15
476.698	40.15
476.823	42.15
476.947	28.15
477.072	16.15
477.197	26.15
477.322	18.15
477.447	20.15
477.572	32.15
477.697	17.15
477.821	25.15
477.946	34.15
478.071	42.15
478.196	25.15
478.321	18.15
478.445	22.15
478.57	13.15
478.695	20.15
478.82	23.15
478.945	23.15
479.069	17.15
479.194	28.15
479.319	34.15
479.444	33.15
479.569	26.15
479.693	30.15
479.818	16.15
479.943	33.15
480.068	19.15
480.192	27.15
480.317	25.15
480.442	23.15
480.567	15.15
480.691	17.15
480.816	31.15
480.941	15.15
481.066	12.15
481.19	39.15
481.315	36.15
481.44	16.15
481.564	19.15
481.689	36.15
481.814	30.15
481.938	23.15
482.063	11.15
482.188	42.15
482.313	28.15
482.437	4.15
482.562	16.15
482.687	26.15
482.811	22.15
482.936	21.15
483.061	16.15
483.185	-0.85
483.31	29.15
483.435	11.15
483.559	32.15
483.684	47.15
483.808	49.15
483.933	20.15
484.058	18.15
484.182	16.15
484.307	16.15
484.432	29.15
484.556	21.15
484.681	35.15
484.805	21.15
484.93	35.15
485.055	33.15
485.179	49.15
485.304	29.15
485.428	27.15
485.553	18.15
485.678	29.15
485.802	9.15
485.927	45.15
486.051	25.15
486.176	10.15
486.3	15.15
486.425	23.15
486.549	20.15
486.674	35.15
486.799	17.15
486.923	15.15
487.048	37.15
487.172	25.15
487.297	6.15
487.421	16.15
487.546	22.15
487.67	32.15
487.795	26.15
487.919	24.15
488.044	33.15
488.168	20.15
488.293	24.15
488.417	10.15
488.542	18.15
488.666	23.15
488.791	25.15
488.915	24.15
489.04	24.15
489.164	37.15
489.289	31.15
489.413	23.15
489.538	37.15
489.662	24.15
489.786	16.15
489.911	6.15
490.035	-7.85
490.16	-7.85
490.284	7.15
490.409	13.15
490.533	22.15
490.658	46.15
490.782	20.15
490.906	60.15
491.031	107.15
491.155	144.15
491.28	147.15
491.404	178.15
491.528	242.15
491.653	165.15
491.777	57.15
491.902	11.15
492.026	31.15
492.15	43.15
492.275	52.15
492.399	34.15
492.524	24.15
492.648	36.15
492.772	34.15
492.897	24.15
493.021	19.15
493.145	32.15
493.27	27.15
493.394	9.15
493.518	6.15
493.643	21.15
493.767	49.15
493.891	16.15
494.016	13.15
494.14	24.15
494.264	29.15
494.389	23.15
494.513	20.15
494.637	17.15
494.762	29.15
494.886	28.15
495.01	23.15
495.134	22.15
495.259	39.15
495.383	21.15
495.507	34.15
495.632	50.15
495.756	57.15
495.88	46.15
496.004	28.15
496.129	11.15
496.253	37.15
496.377	20.15
496.501	34.15
496.626	-1.85
496.75	6.15
496.874	12.15
496.998	-1.85
497.123	45.15
497.247	19.15
497.371	12.15
497.495	21.15
497.62	36.15
497.744	32.15
497.868	20.15
497.992	46.15
498.116	20.15
498.241	29.15
498.365	33.15
498.489	9.15
498.613	34.15
498.737	41.15
498.862	11.15
498.986	11.15
499.11	21.15
499.234	17.15
499.358	17.15
499.482	13.15
499.607	29.15
499.731	14.15
499.855	39.15
499.979	23.15
500.103	10.15
500.227	15.15
500.351	25.15
500.476	14.15
500.6	9.15
500.724	7.15
500.848	18.15
500.972	41.15
501.096	13.15
501.22	38.15
501.344	13.15
501.469	24.15
501.593	37.15
501.717	24.15
501.841	19.15
501.965	15.15
502.089	2.15
502.213	28.15
502.337	20.15
502.461	25.15
502.585	22.15
502.709	21.15
502.834	7.15
502.958	26.15
503.082	24.15
503.206	24.15
503.33	35.15
503.454	31.15
503.578	27.15
503.702	23.15
503.826	22.15
503.95	31.15
504.074	23.15
504.198	11.15
504.322	8.15
504.446	12.15
504.57	15.15
504.694	6.15
504.818	30.15
504.942	33.15
505.066	12.15
505.19	39.15
505.314	21.15
505.438	11.15
505.562	13.15
505.686	34.15
505.81	33.15
505.934	34.15
506.058	6.15
506.182	28.15
506.306	28.15
506.43	22.15
506.554	22.15
506.678	-5.85
506.802	10.15
506.926	32.15
507.05	32.15
507.174	40.15
507.298	26.15
507.422	14.15
507.546	23.15
507.67	28.15
507.794	18.15
507.918	23.15
508.042	30.15
508.165	25.15
508.289	31.15
508.413	27.15
508.537	26.15
508.661	43.15
508.785	25.15
508.909	27.15
509.033	19.15
509.157	27.15
509.281	31.15
509.405	18.15
509.528	66.15
509.652	48.15
509.776	21.15
509.9	45.15
510.024	33.15
510.148	37.15
510.272	37.15
510.396	49.15
510.519	31.15
510.643	57.15
510.767	27.15
510.891	31.15
511.015	26.15
511.139	53.15
511.263	44.15
511.386	44.15
511.51	32.15
511.634	38.15
511.758	58.15
511.882	30.15
512.006	45.15
512.129	65.15
512.253	86.15
512.377	84.15
512.501	77.15
512.625	88.15
512.748	82.15
512.872	63.15
512.996	44.15
513.12	55.15
513.244	54.15
513.367	79.15
513.491	68.15
513.615	57.15
513.739	79.15
513.862	88.15
513.986	78.15
514.11	95.15
514.234	85.15
514.358	100.15
514.481	120.15
514.605	124.15
514.729	114.15
514.853	130.15
514.976	90.15
515.1	89.15
515.224	107.15
515.348	80.15
515.471	77.15
515.595	92.15
515.719	118.15
515.842	211.15
515.966	296.15
516.09	317.15
516.214	296.15
516.337	325.15
516.461	241.15
516.585	93.15
516.708	44.15
516.832	57.15
516.956	20.15
517.08	24.15
517.203	15.15
517.327	22.15
517.451	31.15
517.574	39.15
517.698	11.15
517.822	7.15
517.945	24.15
518.069	25.15
518.193	32.15
518.316	32.15
518.44	41.15
518.564	11.15
518.687	1.15
518.811	15.15
518.935	36.15
519.058	33.15
519.182	8.15
519.306	10.15
519.429	15.15
519.553	52.15
519.676	36.15
519.8	26.15
519.924	20.15
520.047	20.15
520.171	12.15
520.294	20.15
520.418	14.15
520.542	12.15
520.665	24.15
520.789	23.15
520.913	-1.85
521.036	8.15
521.16	9.15
521.283	10.15
521.407	20.15
521.53	-1.85
521.654	16.15
521.778	46.15
521.901	21.15
522.025	17.15
522.148	12.15
522.272	24.15
522.395	14.15
522.519	31.15
522.643	15.15
522.766	14.15
522.89	22.15
523.013	28.15
523.137	4.15
523.26	-1.85
523.384	28.15
523.507	22.15
523.631	19.15
523.754	9.15
523.878	7.15
524.002	14.15
524.125	16.15
524.249	8.15
524.372	34.15
524.496	32.15
524.619	26.15
524.743	15.15
524.866	12.15
524.99	28.15
525.113	22.15
525.237	17.15
525.36	18.15
525.484	14.15
525.607	-2.85
525.731	-7.85
525.854	21.15
525.978	32.15
526.101	18.15
526.224	27.15
526.348	15.15
526.471	10.15
526.595	15.15
526.718	23.15
526.842	2.15
526.965	12.15
527.089	34.15
527.212	17.15
527.336	14.15
527.459	27.15
527.582	19.15
527.706	26.15
527.829	21.15
527.953	3.15
528.076	14.15
528.2	16.15
528.323	31.15
528.446	39.15
528.57	21.15
528.693	22.15
528.817	7.15
528.94	26.15
529.064	42.15
529.187	19.15
529.31	14.15
529.434	-5.85
529.557	18.15
529.68	23.15
529.804	24.15
529.927	16.15
530.051	10.15
530.174	18.15
530.297	30.15
530.421	24.15
530.544	26.15
530.668	34.15
530.791	16.15
530.914	43.15
531.038	24.15
531.161	9.15
531.284	29.15
531.408	28.15
531.531	23.15
531.654	8.15
531.778	24.15
531.901	8.15
532.024	21.15
532.148	19.15
532.271	17.15
532.394	22.15
532.518	18.15
532.641	22.15
532.764	28.15
532.888	15.15
533.011	15.15
533.134	9.15
533.258	50.15
533.381	14.15
533.504	20.15
533.628	7.15
533.751	35.15
533.874	11.15
533.997	10.15
534.121	28.15
534.244	22.15
534.367	6.15
534.491	13.15
534.614	13.15
534.737	27.15
534.86	17.15
534.984	17.15
535.107	19.15
535.23	7.15
535.354	13.15
535.477	17.15
535.6	18.15
535.723	35.15
535.847	22.15
535.97	7.15
536.093	28.15
536.216	21.15
536.34	10.15
536.463	4.15
536.586	35.15
536.709	31.15
536.833	36.15
536.956	17.15
537.079	15.15
537.202	27.15
537.325	33.15
537.449	9.15
537.572	40.15
537.695	11.15
537.818	21.15
537.941	38.15
538.065	34.15
538.188	26.15
538.311	42.15
538.434	18.15
538.558	16.15
538.681	26.15
538.804	19.15
538.927	21.15
539.05	34.15
539.173	24.15
539.297	11.15
539.42	30.15
539.543	28.15
539.666	53.15
539.789	36.15
539.913	7.15
540.036	28.15
540.159	18.15
540.282	28.15
540.405	0.15
540.528	17.15
540.651	47.15
540.775	18.15
540.898	41.15
541.021	19.15
541.144	31.15
541.267	31.15
541.39	24.15
541.513	20.15
541.637	39.15
541.76	35.15
541.883	23.15
542.006	47.15
542.129	45.15
542.252	29.15
542.375	40.15
542.498	41.15
542.622	41.15
542.745	39.15
542.868	32.15
542.991	59.15
543.114	60.15
543.237	54.15
543.36	66.15
543.483	54.15
543.606	72.15
543.73	63.15
543.853	68.15
543.976	90.15
544.099	135.15
544.222	147.15
544.345	136.15
544.468	158.15
544.591	234.15
544.714	265.15
544.837	364.15
544.96	454.15
545.083	689.15
545.206	1099.15
545.329	2496.15
545.453	11130.15
545.576	15288.15
545.699	15685.15
545.822	15685.15
545.945	15685.15
546.068	15685.15
546.191	15685.15
546.314	15685.15
546.437	15685.15
546.56	15685.15
546.683	15685.15
546.806	15685.15
546.929	15685.15
547.052	15685.15
547.175	15685.15
547.298	15685.15
547.421	15685.15
547.544	15685.15
547.667	4071.15
547.79	4574.15
547.913	1397.15
548.036	973.15
548.159	667.15
548.282	692.15
548.405	514.15
548.528	514.15
548.651	411.15
548.774	423.15
548.897	354.15
549.02	368.15
549.143	324.15
549.266	298.15
549.389	280.15
549.512	271.15
549.635	254.15
549.758	257.15
549.881	215.15
550.004	230.15
550.127	199.15
550.25	185.15
550.373	168.15
550.496	183.15
550.619	177.15
550.742	174.15
550.865	138.15
550.988	164.15
551.111	152.15
551.234	150.15
551.356	115.15
551.479	121.15
551.602	139.15
551.725	139.15
551.848	126.15
551.971	126.15
552.094	119.15
552.217	124.15
552.34	112.15
552.463	112.15
552.586	122.15
552.709	99.15
552.832	112.15
552.955	104.15
553.077	122.15
553.2	114.15
553.323	93.15
553.446	114.15
553.569	93.15
553.692	100.15
553.815	102.15
553.938	116.15
554.061	90.15
554.184	85.15
554.306	80.15
554.429	79.15
554.552	83.15
554.675	74.15
554.798	70.15
554.921	76.15
555.044	74.15
555.167	79.15
555.29	59.15
555.412	65.15
555.535	84.15
555.658	72.15
555.781	81.15
555.904	70.15
556.027	84.15
556.15	80.15
556.272	62.15
556.395	78.15
556.518	63.15
556.641	64.15
556.764	71.15
556.887	70.15
557.01	87.15
557.132	61.15
557.255	71.15
557.378	82.15
557.501	70.15
557.624	81.15
557.747	72.15
557.869	96.15
557.992	97.15
558.115	112.15
558.238	86.15
558.361	99.15
558.483	95.15
558.606	71.15
558.729	46.15
558.852	76.15
558.975	58.15
559.098	70.15
559.22	56.15
559.343	50.15
559.466	46.15
559.589	58.15
559.712	81.15
559.834	64.15
559.957	58.15
560.08	60.15
560.203	64.15
560.325	80.15
560.448	65.15
560.571	48.15
560.694	60.15
560.817	73.15
560.939	73.15
561.062	60.15
561.185	63.15
561.308	74.15
561.43	60.15
561.553	54.15
561.676	35.15
561.799	42.15
561.921	62.15
562.044	67.15
562.167	43.15
562.29	71.15
562.413	61.15
562.535	77.15
562.658	46.15
562.781	70.15
562.903	55.15
563.026	74.15
563.149	122.15
563.272	116.15
563.394	113.15
563.517	115.15
563.64	57.15
563.763	56.15
563.885	61.15
564.008	50.15
564.131	50.15
564.254	34.15
564.376	58.15
564.499	31.15
564.622	29.15
564.744	49.15
564.867	29.15
564.99	28.15
565.113	34.15
565.235	44.15
565.358	35.15
565.481	29.15
565.603	31.15
565.726	38.15
565.849	64.15
565.971	49.15
566.094	43.15
566.217	38.15
566.34	31.15
566.462	47.15
566.585	47.15
566.708	46.15
566.83	35.15
566.953	48.15
567.076	32.15
567.198	32.15
567.321	18.15
567.444	64.15
567.566	55.15
567.689	30.15
567.812	41.15
567.934	36.15
568.057	35.15
568.18	49.15
568.302	41.15
568.425	23.15
568.548	40.15
568.67	47.15
568.793	42.15
568.916	31.15
569.038	20.15
569.161	32.15
569.283	39.15
569.406	27.15
569.529	26.15
569.651	20.15
569.774	18.15
569.897	31.15
570.019	44.15
570.142	60.15
570.265	50.15
570.387	25.15
570.51	51.15
570.632	44.15
570.755	27.15
570.878	34.15
571	50.15
571.123	30.15
571.246	50.15
571.368	28.15
571.491	33.15
571.613	26.15
571.736	23.15
571.859	37.15
571.981	29.15
572.104	33.15
572.226	46.15
572.349	15.15
572.472	30.15
572.594	34.15
572.717	20.15
572.839	28.15
572.962	39.15
573.085	43.15
573.207	41.15
573.33	45.15
573.452	46.15
573.575	30.15
573.697	23.15
573.82	23.15
573.943	4.15
574.065	42.15
574.188	36.15
574.31	62.15
574.433	39.15
574.555	45.15
574.678	26.15
574.801	33.15
574.923	40.15
575.046	45.15
575.168	26.15
575.291	41.15
575.413	54.15
575.536	31.15
575.659	41.15
575.781	55.15
575.904	62.15
576.026	73.15
576.149	87.15
576.271	130.15
576.394	216.15
576.516	543.15
576.639	3681.15
576.761	10333.15
576.884	8935.15
577.007	8836.15
577.129	8061.15
577.252	3772.15
577.374	1319.15
577.497	537.15
577.619	290.15
577.742	190.15
577.864	161.15
577.987	136.15
578.109	134.15
578.232	123.15
578.354	135.15
578.477	198.15
578.599	384.15
578.722	2017.15
578.844	9271.15
578.967	10028.15
579.089	8844.15
579.212	9177.15
579.334	5359.15
579.457	1977.15
579.579	744.15
579.702	327.15
579.824	211.15
579.947	139.15
580.069	104.15
580.192	70.15
580.314	101.15
580.437	75.15
580.559	78.15
580.682	57.15
580.804	60.15
580.927	58.15
581.049	77.15
581.172	58.15
581.294	50.15
581.417	64.15
581.539	46.15
581.662	56.15
581.784	41.15
581.907	53.15
582.029	55.15
582.152	32.15
582.274	33.15
582.396	38.15
582.519	20.15
582.641	42.15
582.764	31.15
582.886	50.15
583.009	49.15
583.131	39.15
583.254	31.15
583.376	43.15
583.499	19.15
583.621	30.15
583.743	23.15
583.866	57.15
583.988	32.15
584.111	45.15
584.233	43.15
584.356	44.15
584.478	42.15
584.601	23.15
584.723	34.15
584.845	38.15
584.968	41.15
585.09	24.15
585.213	40.15
585.335	25.15
585.458	22.15
585.58	17.15
585.702	45.15
585.825	45.15
585.947	39.15
586.07	10.15
586.192	31.15
586.315	42.15
586.437	23.15
586.559	20.15
586.682	20.15
586.804	43.15
586.927	18.15
587.049	23.15
587.171	39.15
587.294	46.15
587.416	38.15
587.539	26.15
587.661	30.15
587.783	24.15
587.906	20.15
588.028	27.15
588.151	37.15
588.273	41.15
588.395	34.15
588.518	20.15
588.64	30.15
588.763	28.15
588.885	31.15
589.007	23.15
589.13	22.15
589.252	16.15
589.375	32.15
589.497	43.15
589.619	50.15
589.742	30.15
589.864	43.15
589.986	34.15
590.109	16.15
590.231	13.15
590.354	34.15
590.476	27.15
590.598	12.15
590.721	29.15
590.843	16.15
590.965	26.15
591.088	27.15
591.21	16.15
591.332	20.15
591.455	38.15
591.577	43.15
591.7	30.15
591.822	36.15
591.944	32.15
592.067	21.15
592.189	34.15
592.311	35.15
592.434	21.15
592.556	34.15
592.678	15.15
592.801	31.15
592.923	18.15
593.045	30.15
593.168	22.15
593.29	40.15
593.412	38.15
593.535	24.15
593.657	14.15
593.779	24.15
593.902	29.15
594.024	32.15
594.146	57.15
594.269	34.15
594.391	30.15
594.513	27.15
594.636	39.15
594.758	19.15
594.88	31.15
595.003	37.15
595.125	24.15
595.247	32.15
595.37	42.15
595.492	18.15
595.614	48.15
595.737	38.15
595.859	24.15
595.981	23.15
596.104	22.15
596.226	14.15
596.348	21.15
596.471	35.15
596.593	33.15
596.715	13.15
596.838	30.15
596.96	26.15
597.082	-3.85
597.204	18.15
597.327	28.15
597.449	32.15
597.571	32.15
597.694	36.15
597.816	36.15
597.938	36.15
598.061	19.15
598.183	17.15
598.305	30.15
598.427	31.15
598.55	26.15
598.672	24.15
598.794	47.15
598.917	41.15
599.039	26.15
599.161	26.15
599.283	26.15
599.406	36.15
599.528	40.15
599.65	34.15
599.773	19.15
599.895	41.15
600.017	27.15
600.139	39.15
600.262	15.15
600.384	16.15
600.506	30.15
600.628	32.15
600.751	56.15
600.873	18.15
600.995	15.15
601.118	23.15
601.24	32.15
601.362	38.15
601.484	30.15
601.607	16.15
601.729	13.15
601.851	18.15
601.973	38.15
602.096	36.15
602.218	39.15
602.34	16.15
602.462	14.15
602.585	32.15
602.707	36.15
602.829	37.15
602.951	18.15
603.074	16.15
603.196	28.15
603.318	10.15
603.44	33.15
603.563	17.15
603.685	6.15
603.807	39.15
603.929	26.15
604.052	38.15
604.174	42.15
604.296	25.15
604.418	29.15
604.541	26.15
604.663	10.15
604.785	18.15
604.907	43.15
605.03	18.15
605.152	55.15
605.274	35.15
605.396	20.15
605.519	23.15
605.641	7.15
605.763	27.15
605.885	22.15
606.008	6.15
606.13	34.15
606.252	31.15
606.374	10.15
606.496	25.15
606.619	18.15
606.741	19.15
606.863	39.15
606.985	27.15
607.108	32.15
607.23	2.15
607.352	11.15
607.474	39.15
607.596	39.15
607.719	27.15
607.841	18.15
607.963	15.15
608.085	10.15
608.207	33.15
608.33	34.15
608.452	8.15
608.574	28.15
608.696	29.15
608.819	37.15
608.941	36.15
609.063	15.15
609.185	24.15
609.307	28.15
609.43	36.15
609.552	32.15
609.674	19.15
609.796	28.15
609.918	36.15
610.041	24.15
610.163	25.15
610.285	19.15
610.407	33.15
610.529	19.15
610.652	13.15
610.774	22.15
610.896	33.15
611.018	49.15
611.14	13.15
611.263	1.15
611.385	17.15
611.507	34.15
611.629	31.15
611.751	34.15
611.873	43.15
611.996	30.15
612.118	31.15
612.24	23.15
612.362	22.15
612.484	42.15
612.607	34.15
612.729	58.15
612.851	48.15
612.973	24.15
613.095	20.15
613.218	8.15
613.34	31.15
613.462	41.15
613.584	38.15
613.706	16.15
613.828	24.15
613.951	14.15
614.073	15.15
614.195	5.15
614.317	19.15
614.439	29.15
614.561	33.15
614.684	22.15
614.806	27.15
614.928	33.15
615.05	28.15
615.172	30.15
615.294	28.15
615.417	21.15
615.539	6.15
615.661	12.15
615.783	52.15
615.905	22.15
616.027	18.15
616.15	26.15
616.272	26.15
616.394	23.15
616.516	21.15
616.638	22.15
616.76	38.15
616.883	28.15
617.005	15.15
617.127	20.15
617.249	10.15
617.371	12.15
617.493	16.15
617.615	32.15
617.738	33.15
617.86	22.15
617.982	24.15
618.104	22.15
618.226	-3.85
618.348	20.15
618.471	34.15
618.593	18.15
618.715	-7.85
618.837	14.15
618.959	23.15
619.081	13.15
619.203	26.15
619.326	27.15
619.448	34.15
619.57	43.15
619.692	35.15
619.814	33.15
619.936	25.15
620.058	23.15
620.181	16.15
620.303	12.15
620.425	16.15
620.547	12.15
620.669	0.15
620.791	19.15
620.913	8.15
621.036	28.15
621.158	26.15
621.28	17.15
621.402	1.15
621.524	10.15
621.646	26.15
621.768	3.15
621.891	2.15
622.013	29.15
622.135	24.15
622.257	8.15
622.379	24.15
622.501	20.15
622.623	20.15
622.745	8.15
622.868	15.15
622.99	28.15
623.112	25.15
623.234	32.15
623.356	36.15
623.478	19.15
623.6	27.15
623.722	28.15
623.845	29.15
623.967	20.15
624.089	33.15
624.211	16.15
624.333	28.15
624.455	26.15
624.577	22.15
624.699	27.15
624.822	29.15
624.944	12.15
625.066	20.15
625.188	3.15
625.31	36.15
625.432	39.15
625.554	21.15
625.676	30.15
625.799	18.15
625.921	26.15
626.043	33.15
626.165	30.15
626.287	-9.85
626.409	21.15
626.531	11.15
626.653	8.15
626.775	17.15
626.898	35.15
627.02	47.15
627.142	58.15
627.264	37.15
627.386	15.15
627.508	27.15
627.63	1.15
627.752	28.15
627.874	11.15
627.997	18.15
628.119	28.15
628.241	28.15
628.363	28.15
628.485	27.15
628.607	23.15
628.729	25.15
628.851	19.15
628.973	30.15
629.096	8.15
629.218	10.15
629.34	29.15
629.462	12.15
629.584	-7.85
629.706	30.15
629.828	23.15
629.95	28.15
630.072	23.15
630.195	14.15
630.317	22.15
630.439	11.15
630.561	11.15
630.683	7.15
630.805	27.15
630.927	25.15
631.049	13.15
631.171	25.15
631.293	26.15
631.416	32.15
631.538	32.15
631.66	12.15
631.782	25.15
631.904	27.15
632.026	-2.85
632.148	18.15
632.27	10.15
632.392	37.15
632.514	27.15
632.637	37.15
632.759	22.15
632.881	9.15
633.003	10.15
633.125	7.15
633.247	12.15
633.369	24.15
633.491	14.15
633.613	22.15
633.735	12.15
633.858	43.15
633.98	15.15
634.102	10.15
634.224	11.15
634.346	10.15
634.468	28.15
634.59	38.15
634.712	20.15
634.834	15.15
634.956	14.15
635.078	10.15
635.201	11.15
635.323	22.15
635.445	12.15
635.567	10.15
635.689	20.15
635.811	25.15
635.933	11.15
636.055	22.15
636.177	10.15
636.299	22.15
636.421	9.15
636.544	1.15
636.666	20.15
636.788	14.15
636.91	18.15
637.032	9.15
637.154	24.15
637.276	46.15
637.398	33.15
637.52	17.15
637.642	25.15
637.764	14.15
637.887	7.15
638.009	6.15
638.131	4.15
638.253	8.15
638.375	18.15
638.497	23.15
638.619	0.15
638.741	14.15
638.863	6.15
638.985	11.15
639.107	23.15
639.23	6.15
639.352	31.15
639.474	12.15
639.596	7.15
639.718	23.15
639.84	18.15
639.962	7.15
640.084	41.15
640.206	16.15
640.328	5.15
640.45	18.15
640.573	13.15
640.695	25.15
640.817	16.15
640.939	25.15
641.061	11.15
641.183	8.15
641.305	10.15
641.427	11.15
641.549	9.15
641.671	27.15
641.793	13.15
641.915	27.15
642.038	21.15
642.16	22.15
642.282	25.15
642.404	22.15
642.526	8.15
642.648	7.15
642.77	2.15
642.892	19.15
643.014	39.15
643.136	32.15
643.258	18.15
643.381	33.15
643.503	32.15
643.625	11.15
643.747	-2.85
643.869	15.15
643.991	9.15
644.113	10.15
644.235	-3.85
644.357	13.15
644.479	19.15
644.601	8.15
644.723	16.15
644.846	28.15
644.968	22.15
645.09	12.15
645.212	17.15
645.334	13.15
645.456	32.15
645.578	21.15
645.7	23.15
645.822	20.15
645.944	11.15
646.066	4.15
646.188	6.15
646.311	34.15
646.433	25.15
646.555	44.15
646.677	23.15
646.799	15.15
646.921	23.15
647.043	30.15
647.165	11.15
647.287	12.15
647.409	9.15
647.531	22.15
647.654	1.15
647.776	16.15
647.898	8.15
648.02	31.15
648.142	20.15
648.264	18.15
648.386	18.15
648.508	9.15
648.63	11.15
648.752	8.15
648.874	8.15
648.997	24.15
649.119	12.15
649.241	9.15
649.363	16.15
649.485	22.15
649.607	7.15
649.729	-0.85
649.851	14.15
649.973	4.15
650.095	35.15
650.217	-2.85
650.34	6.15
650.462	20.15
650.584	26.15
650.706	22.15
650.828	37.15
650.95	19.15
651.072	22.15
651.194	7.15
651.316	12.15
651.438	14.15
651.56	-8.85
651.683	-5.85
651.805	13.15
651.927	6.15
652.049	19.15
652.171	7.15
652.293	10.15
652.415	7.15
652.537	21.15
652.659	-7.85
652.781	11.15
652.903	10.15
653.026	16.15
653.148	-3.85
653.27	31.15
653.392	13.15
653.514	-12.85
653.636	9.15
653.758	-1.85
653.88	4.15
654.002	3.15
654.124	24.15
654.247	-8.85
654.369	27.15
654.491	10.15
654.613	15.15
654.735	13.15
654.857	19.15
654.979	2.15
655.101	20.15
655.223	36.15
655.345	17.15
655.468	16.15
655.59	6.15
655.712	13.15
655.834	11.15
655.956	15.15
656.078	11.15
656.2	6.15
656.322	11.15
656.444	-6.85
656.566	24.15
656.689	15.15
656.811	18.15
656.933	27.15
657.055	-6.85
657.177	10.15
657.299	-5.85
657.421	14.15
657.543	8.15
657.665	-1.85
657.787	3.15
657.91	2.15
658.032	14.15
658.154	14.15
658.276	5.15
658.398	1.15
658.52	6.15
658.642	-2.85
658.764	11.15
658.886	1.15
659.009	-1.85
659.131	19.15
659.253	33.15
659.375	3.15
659.497	6.15
659.619	23.15
659.741	10.15
659.863	7.15
659.985	6.15
660.108	34.15
660.23	-6.85
660.352	15.15
660.474	17.15
660.596	10.15
660.718	18.15
660.84	13.15
660.962	3.15
661.084	0.15
661.207	16.15
661.329	38.15
661.451	25.15
661.573	2.15
661.695	40.15
661.817	37.15
661.939	43.15
662.061	25.15
662.184	10.15
662.306	-0.85
662.428	11.15
662.55	14.15
662.672	2.15
662.794	13.15
662.916	17.15
663.038	20.15
663.161	44.15
663.283	31.15
663.405	29.15
663.527	4.15
663.649	29.15
663.771	2.15
663.893	8.15
664.015	14.15
664.138	12.15
664.26	37.15
664.382	7.15
664.504	7.15
664.626	-9.85
664.748	-7.85
664.87	9.15
664.992	30.15
665.115	12.15
665.237	7.15
665.359	16.15
665.481	21.15
665.603	28.15
665.725	0.15
665.847	-5.85
665.97	10.15
666.092	7.15
666.214	28.15
666.336	3.15
666.458	16.15
666.58	4.15
666.702	3.15
666.825	11.15
666.947	6.15
667.069	9.15
667.191	-0.85
667.313	22.15
667.435	-2.85
667.557	5.15
667.68	14.15
667.802	17.15
667.924	8.15
668.046	8.15
668.168	10.15
668.29	18.15
668.412	10.15
668.535	21.15
668.657	-9.85
668.779	-5.85
668.901	20.15
669.023	22.15
669.145	18.15
669.267	18.15
669.39	10.15
669.512	12.15
669.634	9.15
669.756	-7.85
669.878	23.15
670	17.15
670.123	23.15
670.245	38.15
670.367	41.15
670.489	16.15
670.611	-0.85
670.733	0.15
670.856	14.15
670.978	17.15
671.1	15.15
671.222	11.15
671.344	12.15
671.466	0.15
671.589	-7.85
671.711	12.15
671.833	6.15
671.955	15.15
672.077	7.15
672.199	10.15
672.322	27.15
672.444	20.15
672.566	22.15
672.688	20.15
672.81	25.15
672.932	12.15
673.055	14.15
673.177	-2.85
673.299	11.15
673.421	11.15
673.543	12.15
673.665	27.15
673.788	18.15
673.91	6.15
674.032	-18.85
674.154	11.15
674.276	4.15
674.399	-3.85
674.521	12.15
674.643	11.15
674.765	12.15
674.887	27.15
675.009	28.15
675.132	14.15
675.254	12.15
675.376	8.15
675.498	14.15
675.62	24.15
675.743	18.15
675.865	20.15
675.987	-4.85
676.109	21.15
676.231	6.15
676.354	24.15
676.476	-2.85
676.598	8.15
676.72	10.15
676.842	29.15
676.965	2.15
677.087	7.15
677.209	22.15
677.331	13.15
677.453	3.15
677.576	22.15
677.698	7.15
677.82	1.15
677.942	7.15
678.064	17.15
678.187	20.15
678.309	11.15
678.431	15.15
678.553	20.15
678.675	15.15
678.798	36.15
678.92	22.15
679.042	15.15
679.164	-3.85
679.286	25.15
679.409	22.15
679.531	0.15
679.653	12.15
679.775	7.15
679.898	7.15
680.02	13.15
680.142	4.15
680.264	23.15
680.386	-4.85
680.509	14.15
680.631	7.15
680.753	22.15
680.875	-0.85
680.998	19.15
681.12	0.15
681.242	20.15
681.364	-13.85
681.486	2.15
681.609	12.15
681.731	-2.85
681.853	5.15
681.975	12.15
682.098	15.15
682.22	28.15
682.342	24.15
682.464	32.15
682.587	20.15
682.709	8.15
682.831	13.15
682.953	11.15
683.076	11.15
683.198	1.15
683.32	22.15
683.442	20.15
683.565	18.15
683.687	0.15
683.809	-1.85
683.931	2.15
684.054	9.15
684.176	34.15
684.298	23.15
684.42	-6.85
684.543	3.15
684.665	8.15
684.787	23.15
684.909	11.15
685.032	12.15
685.154	12.15
685.276	3.15
685.398	10.15
685.521	3.15
685.643	12.15
685.765	15.15
685.887	4.15
686.01	6.15
686.132	15.15
686.254	15.15
686.377	30.15
686.499	20.15
686.621	24.15
686.743	7.15
686.866	16.15
686.988	20.15
687.11	17.15
687.232	20.15
687.355	-8.85
687.477	4.15
687.599	22.15
687.722	15.15
687.844	2.15
687.966	7.15
688.088	6.15
688.211	40.15
688.333	25.15
688.455	11.15
688.578	34.15
688.7	28.15
688.822	15.15
688.944	0.15
689.067	35.15
689.189	7.15
689.311	8.15
689.434	16.15
689.556	24.15
689.678	24.15
689.801	0.15
689.923	15.15
690.045	28.15
690.167	33.15
690.29	23.15
690.412	8.15
690.534	15.15
690.657	24.15
690.779	2.15
690.901	19.15
691.024	24.15
691.146	20.15
691.268	7.15
691.391	15.15
691.513	14.15
691.635	13.15
691.758	17.15
691.88	25.15
692.002	16.15
692.125	5.15
692.247	-7.85
692.369	13.15
692.492	1.15
692.614	7.15
692.736	8.15
692.859	10.15
692.981	-11.85
693.103	4.15
693.226	18.15
693.348	27.15
693.47	36.15
693.593	31.15
693.715	33.15
693.837	32.15
693.96	19.15
694.082	3.15
694.204	32.15
694.327	25.15
694.449	-2.85
694.571	1.15
694.694	19.15
694.816	22.15
694.938	17.15
695.061	19.15
695.183	25.15
695.305	14.15
695.428	19.15
695.55	-12.85
695.672	15.15
695.795	22.15
695.917	22.15
696.04	3.15
696.162	7.15
696.284	9.15
696.407	-3.85
696.529	7.15
696.651	22.15
696.774	7.15
696.896	24.15
697.019	13.15
697.141	17.15
697.263	7.15
697.386	12.15
697.508	4.15
697.63	6.15
697.753	3.15
697.875	10.15
697.998	8.15
698.12	2.15
698.242	18.15
698.365	22.15
698.487	9.15
698.61	20.15
698.732	14.15
698.854	38.15
698.977	23.15
699.099	28.15
699.221	13.15
699.344	-3.85
699.466	18.15
699.589	8.15
699.711	15.15
699.834	16.15
699.956	8.15
700.078	17.15
700.201	15.15
700.323	21.15
700.446	9.15
700.568	9.15
700.69	20.15
700.813	20.15
700.935	12.15
701.058	7.15
701.18	12.15
701.302	-1.85
701.425	-8.85
701.547	8.15
701.67	-0.85
701.792	12.15
701.915	6.15
702.037	-7.85
702.159	0.15
702.282	6.15
702.404	7.15
702.527	23.15
702.649	44.15
702.772	15.15
702.894	15.15
703.017	6.15
703.139	37.15
703.261	16.15
703.384	17.15
703.506	2.15
703.629	11.15
703.751	15.15
703.874	9.15
703.996	-5.85
704.119	13.15
704.241	26.15
704.364	20.15
704.486	-4.85
704.608	24.15
704.731	8.15
704.853	28.15
704.976	19.15
705.098	19.15
705.221	2.15
705.343	6.15
705.466	2.15
705.588	32.15
705.711	15.15
705.833	15.15
705.956	9.15
706.078	20.15
706.201	14.15
706.323	23.15
706.446	-1.85
