Data from LowRes_mercury_15_20_11_07_2024_HR4C61881__95__15-23-41-770.txt Node

Date: Thu Nov 07 15:23:41 EST 2024
User: crc00042
Spectrometer: HR4C6188
Trigger mode: 4
Integration Time (sec): 1.000000E-1
Scans to average: 1
Electric dark correction enabled: true
Nonlinearity correction enabled: false
Boxcar width: 0
XAxis mode: Wavelengths
Number of Pixels in Spectrum: 3648
>>>>>Begin Spectral Data<<<<<
245.66	-93.23
245.797	-93.23
245.934	-93.23
246.071	-89.23
246.208	-11.23
246.344	7.77
246.481	4.77
246.618	-1.23
246.755	13.77
246.892	1.77
247.029	-19.23
247.165	-11.23
247.302	7.77
247.439	-6.23
247.576	5.77
247.713	-0.23
247.849	18.77
247.986	-22.23
248.123	9.77
248.26	1.77
248.396	-8.23
248.533	-11.23
248.67	-2.23
248.806	-7.23
248.943	-40.23
249.08	-7.23
249.216	1.77
249.353	-11.23
249.49	4.77
249.626	-9.23
249.763	-14.23
249.9	-0.23
250.036	-10.23
250.173	-3.23
250.309	5.77
250.446	-10.23
250.582	-20.23
250.719	-19.23
250.856	0.77
250.992	-1.23
251.129	0.77
251.265	-3.23
251.402	-8.23
251.538	-7.23
251.675	-13.23
251.811	3.77
251.948	16.77
252.084	-8.23
252.221	-11.23
252.357	-18.23
252.493	9.77
252.63	-9.23
252.766	1.77
252.903	3.77
253.039	7.77
253.175	-19.23
253.312	15.77
253.448	-12.23
253.585	-17.23
253.721	9.77
253.857	-16.23
253.994	5.77
254.13	10.77
254.266	-2.23
254.403	10.77
254.539	8.77
254.675	16.77
254.811	14.77
254.948	-8.23
255.084	-10.23
255.22	-8.23
255.356	-2.23
255.493	16.77
255.629	0.77
255.765	-3.23
255.901	8.77
256.037	6.77
256.174	17.77
256.31	-15.23
256.446	3.77
256.582	-5.23
256.718	8.77
256.854	-13.23
256.991	-19.23
257.127	6.77
257.263	11.77
257.399	12.77
257.535	2.77
257.671	-9.23
257.807	-13.23
257.943	-18.23
258.079	-28.23
258.215	-7.23
258.351	29.77
258.487	0.77
258.623	9.77
258.759	-12.23
258.895	-2.23
259.031	-0.23
259.167	-17.23
259.303	13.77
259.439	8.77
259.575	-10.23
259.711	-29.23
259.847	-2.23
259.983	18.77
260.119	-6.23
260.255	-3.23
260.391	3.77
260.527	-12.23
260.663	23.77
260.799	15.77
260.934	2.77
261.07	8.77
261.206	-23.23
261.342	-13.23
261.478	14.77
261.614	-0.23
261.749	11.77
261.885	-3.23
262.021	1.77
262.157	12.77
262.293	-15.23
262.428	-18.23
262.564	-7.23
262.7	-11.23
262.836	6.77
262.971	0.77
263.107	6.77
263.243	11.77
263.378	10.77
263.514	-3.23
263.65	5.77
263.785	-24.23
263.921	-16.23
264.057	-5.23
264.192	12.77
264.328	20.77
264.464	2.77
264.599	3.77
264.735	7.77
264.871	-0.23
265.006	-4.23
265.142	-15.23
265.277	-6.23
265.413	21.77
265.548	20.77
265.684	17.77
265.819	-4.23
265.955	-26.23
266.091	-9.23
266.226	-3.23
266.362	-4.23
266.497	-6.23
266.633	-7.23
266.768	-24.23
266.903	5.77
267.039	4.77
267.174	13.77
267.31	-19.23
267.445	1.77
267.581	-13.23
267.716	4.77
267.851	-11.23
267.987	8.77
268.122	9.77
268.258	-5.23
268.393	-15.23
268.528	7.77
268.664	-14.23
268.799	-6.23
268.934	-3.23
269.07	0.77
269.205	0.77
269.34	23.77
269.476	8.77
269.611	-7.23
269.746	12.77
269.881	1.77
270.017	11.77
270.152	0.77
270.287	9.77
270.422	-2.23
270.558	-5.23
270.693	-5.23
270.828	-12.23
270.963	-6.23
271.098	-5.23
271.234	-12.23
271.369	17.77
271.504	4.77
271.639	-12.23
271.774	-3.23
271.909	-10.23
272.045	-20.23
272.18	-23.23
272.315	-15.23
272.45	-5.23
272.585	-14.23
272.72	-20.23
272.855	5.77
272.99	3.77
273.125	-12.23
273.26	-5.23
273.395	-3.23
273.53	-22.23
273.665	11.77
273.8	5.77
273.935	-12.23
274.07	-15.23
274.205	0.77
274.34	-4.23
274.475	-2.23
274.61	21.77
274.745	-1.23
274.88	0.77
275.015	-6.23
275.15	-7.23
275.285	10.77
275.42	-4.23
275.555	7.77
275.69	-0.23
275.825	-7.23
275.959	18.77
276.094	4.77
276.229	-8.23
276.364	-8.23
276.499	6.77
276.634	9.77
276.768	-16.23
276.903	-12.23
277.038	-0.23
277.173	-3.23
277.308	-4.23
277.442	-24.23
277.577	1.77
277.712	-14.23
277.847	-20.23
277.981	5.77
278.116	-16.23
278.251	-7.23
278.386	14.77
278.52	5.77
278.655	-24.23
278.79	-5.23
278.924	4.77
279.059	13.77
279.194	-9.23
279.328	24.77
279.463	19.77
279.598	8.77
279.732	20.77
279.867	1.77
280.001	5.77
280.136	0.77
280.271	11.77
280.405	-6.23
280.54	-8.23
280.674	-21.23
280.809	24.77
280.943	-7.23
281.078	-2.23
281.213	13.77
281.347	-8.23
281.482	-10.23
281.616	-5.23
281.751	0.77
281.885	-2.23
282.02	0.77
282.154	-7.23
282.288	-21.23
282.423	-16.23
282.557	-13.23
282.692	0.77
282.826	-4.23
282.961	18.77
283.095	-10.23
283.229	0.77
283.364	-7.23
283.498	-1.23
283.633	-12.23
283.767	3.77
283.901	-11.23
284.036	-16.23
284.17	-8.23
284.304	-5.23
284.439	2.77
284.573	-6.23
284.707	6.77
284.842	0.77
284.976	-13.23
285.11	-25.23
285.244	-10.23
285.379	39.77
285.513	-4.23
285.647	-12.23
285.781	-2.23
285.916	19.77
286.05	3.77
286.184	19.77
286.318	14.77
286.453	-15.23
286.587	-19.23
286.721	-22.23
286.855	8.77
286.989	-25.23
287.123	-2.23
287.258	-12.23
287.392	-9.23
287.526	14.77
287.66	2.77
287.794	-3.23
287.928	-6.23
288.062	-0.23
288.196	4.77
288.33	10.77
288.464	24.77
288.598	6.77
288.733	-7.23
288.867	22.77
289.001	11.77
289.135	7.77
289.269	-3.23
289.403	-10.23
289.537	-8.23
289.671	-4.23
289.805	-8.23
289.939	8.77
290.073	1.77
290.207	1.77
290.34	4.77
290.474	14.77
290.608	12.77
290.742	-12.23
290.876	-7.23
291.01	-16.23
291.144	26.77
291.278	11.77
291.412	10.77
291.546	-16.23
291.679	-12.23
291.813	0.77
291.947	-18.23
292.081	10.77
292.215	3.77
292.349	17.77
292.482	-1.23
292.616	2.77
292.75	3.77
292.884	-2.23
293.018	-13.23
293.151	-23.23
293.285	2.77
293.419	6.77
293.553	12.77
293.686	-17.23
293.82	-12.23
293.954	4.77
294.088	10.77
294.221	-5.23
294.355	-15.23
294.489	-2.23
294.622	2.77
294.756	3.77
294.89	7.77
295.023	-11.23
295.157	7.77
295.291	-3.23
295.424	22.77
295.558	-1.23
295.691	2.77
295.825	0.77
295.959	-9.23
296.092	-6.23
296.226	13.77
296.359	4.77
296.493	-6.23
296.627	-5.23
296.76	4.77
296.894	-12.23
297.027	-12.23
297.161	-10.23
297.294	-18.23
297.428	2.77
297.561	11.77
297.695	-11.23
297.828	-16.23
297.962	0.77
298.095	-5.23
298.229	-14.23
298.362	-25.23
298.495	-20.23
298.629	-18.23
298.762	10.77
298.896	9.77
299.029	-12.23
299.162	11.77
299.296	4.77
299.429	-9.23
299.563	-0.23
299.696	-9.23
299.829	8.77
299.963	20.77
300.096	17.77
300.229	13.77
300.363	11.77
300.496	0.77
300.629	-16.23
300.763	3.77
300.896	2.77
301.029	-5.23
301.162	-11.23
301.296	-18.23
301.429	-4.23
301.562	-14.23
301.695	1.77
301.829	2.77
301.962	24.77
302.095	-7.23
302.228	-22.23
302.362	-5.23
302.495	-19.23
302.628	9.77
302.761	-3.23
302.894	-0.23
303.027	16.77
303.161	1.77
303.294	-17.23
303.427	2.77
303.56	-10.23
303.693	-0.23
303.826	-8.23
303.959	-11.23
304.092	-2.23
304.225	-6.23
304.359	10.77
304.492	6.77
304.625	-13.23
304.758	15.77
304.891	-23.23
305.024	11.77
305.157	-2.23
305.29	-18.23
305.423	-4.23
305.556	7.77
305.689	13.77
305.822	-8.23
305.955	0.77
306.088	-4.23
306.221	-0.23
306.354	4.77
306.487	-8.23
306.62	-18.23
306.752	2.77
306.885	0.77
307.018	3.77
307.151	-2.23
307.284	20.77
307.417	-9.23
307.55	-6.23
307.683	-5.23
307.816	5.77
307.948	7.77
308.081	18.77
308.214	7.77
308.347	11.77
308.48	-7.23
308.613	-13.23
308.745	-3.23
308.878	-0.23
309.011	-11.23
309.144	13.77
309.277	-3.23
309.409	-2.23
309.542	-9.23
309.675	-9.23
309.808	2.77
309.94	3.77
310.073	-23.23
310.206	4.77
310.339	3.77
310.471	-21.23
310.604	4.77
310.737	3.77
310.869	-14.23
311.002	2.77
311.135	-15.23
311.267	-5.23
311.4	-11.23
311.533	15.77
311.665	-23.23
311.798	-11.23
311.93	21.77
312.063	12.77
312.196	31.77
312.328	80.77
312.461	50.77
312.593	18.77
312.726	50.77
312.859	85.77
312.991	146.77
313.124	42.77
313.256	30.77
313.389	2.77
313.521	5.77
313.654	-2.23
313.786	-0.23
313.919	-1.23
314.051	-16.23
314.184	4.77
314.316	16.77
314.449	-29.23
314.581	-9.23
314.714	-7.23
314.846	1.77
314.978	-7.23
315.111	-2.23
315.243	9.77
315.376	-4.23
315.508	11.77
315.641	2.77
315.773	15.77
315.905	-6.23
316.038	-13.23
316.17	-4.23
316.302	11.77
316.435	23.77
316.567	13.77
316.699	6.77
316.832	-9.23
316.964	-2.23
317.096	-8.23
317.229	-1.23
317.361	-25.23
317.493	-13.23
317.625	-17.23
317.758	-11.23
317.89	0.77
318.022	9.77
318.155	0.77
318.287	2.77
318.419	5.77
318.551	7.77
318.683	16.77
318.816	-8.23
318.948	1.77
319.08	1.77
319.212	1.77
319.344	14.77
319.477	6.77
319.609	19.77
319.741	14.77
319.873	2.77
320.005	-4.23
320.137	6.77
320.269	-6.23
320.401	-11.23
320.534	-13.23
320.666	-0.23
320.798	-3.23
320.93	-3.23
321.062	1.77
321.194	-12.23
321.326	-18.23
321.458	2.77
321.59	-14.23
321.722	-16.23
321.854	1.77
321.986	4.77
322.118	-7.23
322.25	-18.23
322.382	3.77
322.514	-16.23
322.646	-4.23
322.778	13.77
322.91	-3.23
323.042	21.77
323.174	-5.23
323.306	-0.23
323.438	-18.23
323.57	-6.23
323.702	14.77
323.834	-11.23
323.966	-8.23
324.097	0.77
324.229	5.77
324.361	-13.23
324.493	0.77
324.625	-7.23
324.757	-5.23
324.889	7.77
325.021	9.77
325.152	-3.23
325.284	6.77
325.416	5.77
325.548	5.77
325.68	-9.23
325.811	14.77
325.943	7.77
326.075	-2.23
326.207	5.77
326.339	-12.23
326.47	-3.23
326.602	22.77
326.734	14.77
326.866	19.77
326.997	-19.23
327.129	-8.23
327.261	-15.23
327.392	-12.23
327.524	0.77
327.656	-0.23
327.787	15.77
327.919	8.77
328.051	-5.23
328.182	27.77
328.314	2.77
328.446	-20.23
328.577	15.77
328.709	17.77
328.841	-8.23
328.972	-19.23
329.104	-2.23
329.235	-5.23
329.367	-3.23
329.499	2.77
329.63	-0.23
329.762	2.77
329.893	11.77
330.025	-2.23
330.156	-23.23
330.288	4.77
330.419	1.77
330.551	20.77
330.683	-3.23
330.814	6.77
330.946	-9.23
331.077	10.77
331.208	-4.23
331.34	1.77
331.471	-14.23
331.603	9.77
331.734	-5.23
331.866	-8.23
331.997	5.77
332.129	19.77
332.26	-5.23
332.392	8.77
332.523	1.77
332.654	-0.23
332.786	10.77
332.917	3.77
333.048	19.77
333.18	22.77
333.311	6.77
333.443	-12.23
333.574	14.77
333.705	38.77
333.837	46.77
333.968	107.77
334.099	226.77
334.231	209.77
334.362	57.77
334.493	32.77
334.624	25.77
334.756	19.77
334.887	8.77
335.018	1.77
335.15	15.77
335.281	10.77
335.412	17.77
335.543	17.77
335.675	8.77
335.806	27.77
335.937	22.77
336.068	7.77
336.199	43.77
336.331	9.77
336.462	-5.23
336.593	9.77
336.724	-21.23
336.855	-7.23
336.986	24.77
337.118	7.77
337.249	7.77
337.38	-2.23
337.511	4.77
337.642	20.77
337.773	17.77
337.904	9.77
338.035	11.77
338.166	7.77
338.298	-0.23
338.429	3.77
338.56	18.77
338.691	25.77
338.822	-0.23
338.953	6.77
339.084	7.77
339.215	19.77
339.346	-2.23
339.477	20.77
339.608	9.77
339.739	-4.23
339.87	-4.23
340.001	20.77
340.132	6.77
340.263	17.77
340.394	4.77
340.525	4.77
340.656	-8.23
340.787	-0.23
340.918	27.77
341.049	15.77
341.179	15.77
341.31	6.77
341.441	20.77
341.572	2.77
341.703	19.77
341.834	9.77
341.965	28.77
342.096	-3.23
342.227	1.77
342.357	5.77
342.488	4.77
342.619	9.77
342.75	9.77
342.881	-2.23
343.012	28.77
343.142	35.77
343.273	-8.23
343.404	16.77
343.535	36.77
343.666	31.77
343.796	38.77
343.927	16.77
344.058	7.77
344.189	24.77
344.319	27.77
344.45	28.77
344.581	22.77
344.712	8.77
344.842	17.77
344.973	6.77
345.104	23.77
345.234	21.77
345.365	1.77
345.496	16.77
345.626	6.77
345.757	31.77
345.888	-0.23
346.018	33.77
346.149	22.77
346.28	47.77
346.41	23.77
346.541	33.77
346.672	19.77
346.802	25.77
346.933	16.77
347.063	1.77
347.194	22.77
347.325	36.77
347.455	36.77
347.586	20.77
347.716	13.77
347.847	15.77
347.977	35.77
348.108	37.77
348.238	47.77
348.369	37.77
348.499	37.77
348.63	25.77
348.76	31.77
348.891	44.77
349.021	40.77
349.152	56.77
349.282	38.77
349.413	24.77
349.543	60.77
349.674	22.77
349.804	35.77
349.935	31.77
350.065	28.77
350.196	20.77
350.326	34.77
350.456	17.77
350.587	27.77
350.717	18.77
350.848	23.77
350.978	8.77
351.108	-5.23
351.239	24.77
351.369	-6.23
351.499	6.77
351.63	35.77
351.76	19.77
351.89	2.77
352.021	5.77
352.151	9.77
352.281	27.77
352.412	41.77
352.542	30.77
352.672	-2.23
352.803	18.77
352.933	27.77
353.063	22.77
353.193	12.77
353.324	12.77
353.454	34.77
353.584	29.77
353.714	22.77
353.845	17.77
353.975	5.77
354.105	17.77
354.235	31.77
354.365	7.77
354.496	11.77
354.626	23.77
354.756	20.77
354.886	19.77
355.016	20.77
355.146	11.77
355.277	22.77
355.407	1.77
355.537	24.77
355.667	12.77
355.797	6.77
355.927	18.77
356.057	32.77
356.187	8.77
356.318	13.77
356.448	26.77
356.578	31.77
356.708	31.77
356.838	23.77
356.968	14.77
357.098	23.77
357.228	54.77
357.358	16.77
357.488	28.77
357.618	50.77
357.748	34.77
357.878	24.77
358.008	19.77
358.138	33.77
358.268	33.77
358.398	42.77
358.528	13.77
358.658	23.77
358.788	7.77
358.918	31.77
359.048	26.77
359.178	38.77
359.308	32.77
359.438	41.77
359.568	40.77
359.698	13.77
359.827	-4.23
359.957	9.77
360.087	20.77
360.217	10.77
360.347	16.77
360.477	38.77
360.607	14.77
360.737	9.77
360.866	12.77
360.996	4.77
361.126	22.77
361.256	37.77
361.386	27.77
361.516	39.77
361.645	12.77
361.775	48.77
361.905	-8.23
362.035	36.77
362.165	32.77
362.294	34.77
362.424	37.77
362.554	37.77
362.684	27.77
362.813	25.77
362.943	43.77
363.073	44.77
363.203	56.77
363.332	72.77
363.462	71.77
363.592	83.77
363.721	118.77
363.851	157.77
363.981	211.77
364.111	252.77
364.24	301.77
364.37	469.77
364.5	828.77
364.629	1760.77
364.759	3780.77
364.888	6203.77
365.018	9328.77
365.148	14756.77
365.277	12822.77
365.407	4655.77
365.537	3062.77
365.666	3967.77
365.796	1789.77
365.925	785.77
366.055	741.77
366.184	990.77
366.314	1387.77
366.444	2457.77
366.573	2085.77
366.703	665.77
366.832	209.77
366.962	136.77
367.091	81.77
367.221	79.77
367.35	46.77
367.48	59.77
367.609	51.77
367.739	39.77
367.868	29.77
367.998	39.77
368.127	36.77
368.257	59.77
368.386	46.77
368.516	64.77
368.645	23.77
368.775	36.77
368.904	39.77
369.033	7.77
369.163	6.77
369.292	41.77
369.422	27.77
369.551	44.77
369.68	39.77
369.81	45.77
369.939	26.77
370.069	31.77
370.198	33.77
370.327	28.77
370.457	35.77
370.586	48.77
370.715	28.77
370.845	37.77
370.974	18.77
371.103	40.77
371.233	33.77
371.362	40.77
371.491	36.77
371.621	53.77
371.75	32.77
371.879	25.77
372.008	49.77
372.138	57.77
372.267	55.77
372.396	34.77
372.525	36.77
372.655	31.77
372.784	5.77
372.913	26.77
373.042	31.77
373.172	33.77
373.301	-7.23
373.43	18.77
373.559	10.77
373.688	27.77
373.818	19.77
373.947	25.77
374.076	20.77
374.205	33.77
374.334	22.77
374.463	11.77
374.593	21.77
374.722	26.77
374.851	28.77
374.98	17.77
375.109	28.77
375.238	46.77
375.367	32.77
375.496	-19.23
375.625	-12.23
375.755	25.77
375.884	38.77
376.013	36.77
376.142	14.77
376.271	10.77
376.4	16.77
376.529	5.77
376.658	29.77
376.787	29.77
376.916	35.77
377.045	27.77
377.174	22.77
377.303	1.77
377.432	30.77
377.561	41.77
377.69	24.77
377.819	44.77
377.948	10.77
378.077	6.77
378.206	9.77
378.335	13.77
378.464	11.77
378.593	44.77
378.722	-6.23
378.851	6.77
378.98	28.77
379.108	8.77
379.237	19.77
379.366	9.77
379.495	4.77
379.624	21.77
379.753	26.77
379.882	14.77
380.011	7.77
380.14	-2.23
380.268	12.77
380.397	-9.23
380.526	29.77
380.655	12.77
380.784	-5.23
380.913	-0.23
381.041	7.77
381.17	-7.23
381.299	9.77
381.428	21.77
381.557	29.77
381.685	9.77
381.814	9.77
381.943	6.77
382.072	0.77
382.2	-3.23
382.329	3.77
382.458	-6.23
382.587	29.77
382.715	33.77
382.844	23.77
382.973	15.77
383.102	10.77
383.23	16.77
383.359	11.77
383.488	20.77
383.616	7.77
383.745	10.77
383.874	23.77
384.003	-0.23
384.131	14.77
384.26	26.77
384.389	21.77
384.517	1.77
384.646	4.77
384.774	16.77
384.903	39.77
385.032	29.77
385.16	19.77
385.289	17.77
385.418	12.77
385.546	28.77
385.675	23.77
385.803	18.77
385.932	20.77
386.06	18.77
386.189	4.77
386.318	11.77
386.446	7.77
386.575	20.77
386.703	29.77
386.832	5.77
386.96	-18.23
387.089	31.77
387.217	25.77
387.346	18.77
387.474	28.77
387.603	22.77
387.731	12.77
387.86	18.77
387.988	33.77
388.117	20.77
388.245	15.77
388.374	-5.23
388.502	18.77
388.631	-8.23
388.759	6.77
388.888	29.77
389.016	12.77
389.144	22.77
389.273	22.77
389.401	9.77
389.53	6.77
389.658	34.77
389.786	13.77
389.915	7.77
390.043	-2.23
390.172	25.77
390.3	56.77
390.428	41.77
390.557	24.77
390.685	39.77
390.813	55.77
390.942	63.77
391.07	37.77
391.198	16.77
391.327	7.77
391.455	11.77
391.583	24.77
391.712	21.77
391.84	28.77
391.968	9.77
392.096	15.77
392.225	11.77
392.353	17.77
392.481	16.77
392.609	56.77
392.738	24.77
392.866	22.77
392.994	19.77
393.122	35.77
393.251	16.77
393.379	31.77
393.507	9.77
393.635	7.77
393.764	19.77
393.892	28.77
394.02	18.77
394.148	16.77
394.276	25.77
394.404	44.77
394.533	19.77
394.661	29.77
394.789	23.77
394.917	34.77
395.045	20.77
395.173	7.77
395.302	14.77
395.43	7.77
395.558	27.77
395.686	28.77
395.814	37.77
395.942	14.77
396.07	35.77
396.198	32.77
396.326	21.77
396.454	56.77
396.582	40.77
396.711	30.77
396.839	38.77
396.967	23.77
397.095	21.77
397.223	43.77
397.351	45.77
397.479	30.77
397.607	24.77
397.735	42.77
397.863	43.77
397.991	58.77
398.119	20.77
398.247	50.77
398.375	55.77
398.503	40.77
398.631	55.77
398.759	70.77
398.887	46.77
399.015	47.77
399.143	47.77
399.271	49.77
399.399	49.77
399.526	71.77
399.654	75.77
399.782	78.77
399.91	131.77
400.038	90.77
400.166	73.77
400.294	82.77
400.422	67.77
400.55	124.77
400.678	112.77
400.805	109.77
400.933	106.77
401.061	108.77
401.189	123.77
401.317	145.77
401.445	103.77
401.573	61.77
401.7	44.77
401.828	41.77
401.956	55.77
402.084	44.77
402.212	10.77
402.34	30.77
402.467	25.77
402.595	53.77
402.723	21.77
402.851	78.77
402.978	51.77
403.106	72.77
403.234	75.77
403.362	117.77
403.489	121.77
403.617	151.77
403.745	191.77
403.873	279.77
404	553.77
404.128	1397.77
404.256	3868.77
404.384	5045.77
404.511	5374.77
404.639	7096.77
404.767	11379.77
404.894	14560.77
405.022	4862.77
405.15	1280.77
405.277	411.77
405.405	243.77
405.533	128.77
405.66	92.77
405.788	51.77
405.916	60.77
406.043	35.77
406.171	41.77
406.299	44.77
406.426	50.77
406.554	52.77
406.681	60.77
406.809	38.77
406.937	54.77
407.064	45.77
407.192	126.77
407.319	279.77
407.447	509.77
407.574	540.77
407.702	620.77
407.83	837.77
407.957	1612.77
408.085	932.77
408.212	274.77
408.34	101.77
408.467	51.77
408.595	47.77
408.722	69.77
408.85	39.77
408.977	29.77
409.105	42.77
409.232	56.77
409.36	30.77
409.487	35.77
409.615	27.77
409.742	32.77
409.87	17.77
409.997	35.77
410.125	28.77
410.252	35.77
410.379	29.77
410.507	35.77
410.634	16.77
410.762	30.77
410.889	43.77
411.017	26.77
411.144	37.77
411.271	8.77
411.399	9.77
411.526	27.77
411.653	41.77
411.781	56.77
411.908	40.77
412.036	11.77
412.163	39.77
412.29	29.77
412.418	22.77
412.545	39.77
412.672	18.77
412.8	37.77
412.927	20.77
413.054	30.77
413.182	33.77
413.309	34.77
413.436	19.77
413.564	27.77
413.691	12.77
413.818	37.77
413.945	4.77
414.073	21.77
414.2	33.77
414.327	23.77
414.454	15.77
414.582	34.77
414.709	11.77
414.836	17.77
414.963	13.77
415.091	44.77
415.218	29.77
415.345	16.77
415.472	42.77
415.6	12.77
415.727	26.77
415.854	18.77
415.981	9.77
416.108	18.77
416.236	-11.23
416.363	24.77
416.49	19.77
416.617	20.77
416.744	32.77
416.871	46.77
416.998	37.77
417.126	12.77
417.253	22.77
417.38	18.77
417.507	30.77
417.634	36.77
417.761	41.77
417.888	51.77
418.015	36.77
418.143	24.77
418.27	64.77
418.397	54.77
418.524	53.77
418.651	24.77
418.778	26.77
418.905	56.77
419.032	41.77
419.159	26.77
419.286	55.77
419.413	31.77
419.54	47.77
419.667	36.77
419.794	18.77
419.921	40.77
420.048	43.77
420.175	58.77
420.302	32.77
420.429	55.77
420.556	56.77
420.683	42.77
420.81	56.77
420.937	71.77
421.064	63.77
421.191	54.77
421.318	54.77
421.445	72.77
421.572	54.77
421.699	58.77
421.826	39.77
421.953	33.77
422.08	16.77
422.207	17.77
422.334	0.77
422.461	32.77
422.588	17.77
422.714	20.77
422.841	32.77
422.968	33.77
423.095	11.77
423.222	-4.23
423.349	26.77
423.476	24.77
423.603	10.77
423.729	7.77
423.856	34.77
423.983	24.77
424.11	8.77
424.237	21.77
424.364	10.77
424.491	26.77
424.617	0.77
424.744	7.77
424.871	25.77
424.998	7.77
425.125	10.77
425.251	19.77
425.378	-0.23
425.505	34.77
425.632	29.77
425.758	1.77
425.885	38.77
426.012	33.77
426.139	41.77
426.266	13.77
426.392	20.77
426.519	21.77
426.646	25.77
426.772	9.77
426.899	15.77
427.026	16.77
427.153	27.77
427.279	42.77
427.406	31.77
427.533	24.77
427.659	24.77
427.786	20.77
427.913	26.77
428.039	29.77
428.166	27.77
428.293	23.77
428.419	30.77
428.546	17.77
428.673	16.77
428.799	12.77
428.926	26.77
429.053	21.77
429.179	20.77
429.306	18.77
429.433	33.77
429.559	20.77
429.686	6.77
429.812	20.77
429.939	24.77
430.066	27.77
430.192	18.77
430.319	31.77
430.445	16.77
430.572	24.77
430.699	7.77
430.825	18.77
430.952	31.77
431.078	36.77
431.205	26.77
431.331	24.77
431.458	31.77
431.584	45.77
431.711	30.77
431.837	24.77
431.964	32.77
432.09	35.77
432.217	11.77
432.343	11.77
432.47	29.77
432.596	15.77
432.723	22.77
432.849	22.77
432.976	39.77
433.102	50.77
433.229	37.77
433.355	43.77
433.482	73.77
433.608	91.77
433.735	83.77
433.861	92.77
433.987	152.77
434.114	211.77
434.24	170.77
434.367	214.77
434.493	221.77
434.62	273.77
434.746	386.77
434.872	635.77
434.999	780.77
435.125	1704.77
435.252	5395.77
435.378	13305.77
435.504	15152.77
435.631	15373.77
435.757	15678.77
435.883	15678.77
436.01	15678.77
436.136	15678.77
436.262	15678.77
436.389	3409.77
436.515	1869.77
436.641	743.77
436.768	611.77
436.894	390.77
437.02	382.77
437.147	287.77
437.273	295.77
437.399	192.77
437.526	251.77
437.652	155.77
437.778	190.77
437.904	134.77
438.031	155.77
438.157	128.77
438.283	151.77
438.409	107.77
438.536	105.77
438.662	114.77
438.788	113.77
438.914	94.77
439.041	124.77
439.167	100.77
439.293	75.77
439.419	74.77
439.546	97.77
439.672	62.77
439.798	88.77
439.924	81.77
440.05	84.77
440.177	84.77
440.303	69.77
440.429	65.77
440.555	71.77
440.681	67.77
440.807	72.77
440.934	35.77
441.06	67.77
441.186	44.77
441.312	56.77
441.438	49.77
441.564	65.77
441.69	52.77
441.816	65.77
441.943	60.77
442.069	46.77
442.195	50.77
442.321	58.77
442.447	36.77
442.573	35.77
442.699	26.77
442.825	49.77
442.951	41.77
443.077	55.77
443.203	34.77
443.33	37.77
443.456	15.77
443.582	38.77
443.708	28.77
443.834	49.77
443.96	54.77
444.086	40.77
444.212	48.77
444.338	37.77
444.464	48.77
444.59	54.77
444.716	50.77
444.842	44.77
444.968	25.77
445.094	31.77
445.22	12.77
445.346	11.77
445.472	19.77
445.598	28.77
445.724	26.77
445.85	41.77
445.976	37.77
446.102	44.77
446.228	46.77
446.354	49.77
446.48	32.77
446.605	36.77
446.731	29.77
446.857	35.77
446.983	31.77
447.109	34.77
447.235	17.77
447.361	32.77
447.487	36.77
447.613	41.77
447.739	15.77
447.865	-1.23
447.99	9.77
448.116	29.77
448.242	23.77
448.368	17.77
448.494	30.77
448.62	40.77
448.746	28.77
448.872	36.77
448.997	16.77
449.123	20.77
449.249	38.77
449.375	41.77
449.501	16.77
449.627	26.77
449.752	29.77
449.878	26.77
450.004	12.77
450.13	35.77
450.256	16.77
450.381	16.77
450.507	45.77
450.633	42.77
450.759	27.77
450.884	14.77
451.01	26.77
451.136	21.77
451.262	24.77
451.388	35.77
451.513	7.77
451.639	36.77
451.765	40.77
451.89	42.77
452.016	16.77
452.142	21.77
452.268	13.77
452.393	30.77
452.519	28.77
452.645	26.77
452.771	15.77
452.896	5.77
453.022	8.77
453.148	41.77
453.273	27.77
453.399	24.77
453.525	-4.23
453.65	25.77
453.776	34.77
453.902	27.77
454.027	27.77
454.153	25.77
454.279	33.77
454.404	19.77
454.53	27.77
454.656	40.77
454.781	25.77
454.907	22.77
455.032	7.77
455.158	20.77
455.284	37.77
455.409	27.77
455.535	15.77
455.66	24.77
455.786	31.77
455.912	27.77
456.037	12.77
456.163	39.77
456.288	17.77
456.414	-2.23
456.539	13.77
456.665	45.77
456.791	27.77
456.916	11.77
457.042	34.77
457.167	5.77
457.293	18.77
457.418	17.77
457.544	17.77
457.669	24.77
457.795	29.77
457.92	17.77
458.046	31.77
458.171	29.77
458.297	21.77
458.422	16.77
458.548	6.77
458.673	16.77
458.799	14.77
458.924	20.77
459.05	25.77
459.175	23.77
459.301	5.77
459.426	31.77
459.552	23.77
459.677	16.77
459.803	38.77
459.928	24.77
460.053	17.77
460.179	17.77
460.304	42.77
460.43	17.77
460.555	22.77
460.681	13.77
460.806	17.77
460.931	29.77
461.057	30.77
461.182	9.77
461.308	36.77
461.433	32.77
461.558	21.77
461.684	37.77
461.809	42.77
461.934	19.77
462.06	21.77
462.185	8.77
462.311	30.77
462.436	39.77
462.561	10.77
462.687	12.77
462.812	18.77
462.937	13.77
463.063	14.77
463.188	13.77
463.313	19.77
463.439	28.77
463.564	3.77
463.689	20.77
463.814	27.77
463.94	23.77
464.065	16.77
464.19	24.77
464.316	-0.23
464.441	1.77
464.566	11.77
464.692	17.77
464.817	13.77
464.942	11.77
465.067	24.77
465.193	1.77
465.318	25.77
465.443	20.77
465.568	20.77
465.694	13.77
465.819	38.77
465.944	12.77
466.069	22.77
466.194	38.77
466.32	31.77
466.445	11.77
466.57	16.77
466.695	19.77
466.82	32.77
466.946	35.77
467.071	12.77
467.196	18.77
467.321	7.77
467.446	35.77
467.572	28.77
467.697	7.77
467.822	39.77
467.947	40.77
468.072	27.77
468.197	8.77
468.323	13.77
468.448	40.77
468.573	1.77
468.698	27.77
468.823	28.77
468.948	35.77
469.073	23.77
469.198	41.77
469.324	38.77
469.449	17.77
469.574	30.77
469.699	37.77
469.824	35.77
469.949	36.77
470.074	39.77
470.199	50.77
470.324	41.77
470.449	30.77
470.574	5.77
470.7	18.77
470.825	34.77
470.95	53.77
471.075	24.77
471.2	38.77
471.325	54.77
471.45	43.77
471.575	19.77
471.7	43.77
471.825	28.77
471.95	21.77
472.075	14.77
472.2	20.77
472.325	45.77
472.45	34.77
472.575	25.77
472.7	23.77
472.825	45.77
472.95	55.77
473.075	20.77
473.2	31.77
473.325	45.77
473.45	43.77
473.575	12.77
473.7	43.77
473.825	33.77
473.95	14.77
474.075	44.77
474.2	17.77
474.325	7.77
474.45	24.77
474.574	24.77
474.699	13.77
474.824	19.77
474.949	20.77
475.074	22.77
475.199	26.77
475.324	24.77
475.449	20.77
475.574	14.77
475.699	15.77
475.824	8.77
475.949	9.77
476.073	4.77
476.198	16.77
476.323	13.77
476.448	12.77
476.573	7.77
476.698	26.77
476.823	16.77
476.947	7.77
477.072	-8.23
477.197	14.77
477.322	5.77
477.447	-4.23
477.572	19.77
477.697	3.77
477.821	20.77
477.946	32.77
478.071	35.77
478.196	36.77
478.321	19.77
478.445	7.77
478.57	2.77
478.695	19.77
478.82	15.77
478.945	29.77
479.069	2.77
479.194	6.77
479.319	26.77
479.444	24.77
479.569	6.77
479.693	12.77
479.818	18.77
479.943	43.77
480.068	27.77
480.192	30.77
480.317	15.77
480.442	14.77
480.567	11.77
480.691	-0.23
480.816	2.77
480.941	4.77
481.066	22.77
481.19	23.77
481.315	13.77
481.44	11.77
481.564	-15.23
481.689	18.77
481.814	13.77
481.938	16.77
482.063	-12.23
482.188	3.77
482.313	29.77
482.437	2.77
482.562	12.77
482.687	18.77
482.811	11.77
482.936	23.77
483.061	1.77
483.185	9.77
483.31	29.77
483.435	23.77
483.559	10.77
483.684	5.77
483.808	28.77
483.933	20.77
484.058	10.77
484.182	6.77
484.307	20.77
484.432	6.77
484.556	10.77
484.681	9.77
484.805	9.77
484.93	36.77
485.055	24.77
485.179	28.77
485.304	41.77
485.428	11.77
485.553	17.77
485.678	6.77
485.802	28.77
485.927	27.77
486.051	30.77
486.176	8.77
486.3	10.77
486.425	21.77
486.549	14.77
486.674	30.77
486.799	17.77
486.923	3.77
487.048	6.77
487.172	-3.23
487.297	9.77
487.421	28.77
487.546	24.77
487.67	32.77
487.795	7.77
487.919	10.77
488.044	9.77
488.168	23.77
488.293	11.77
488.417	-2.23
488.542	21.77
488.666	35.77
488.791	32.77
488.915	9.77
489.04	19.77
489.164	9.77
489.289	31.77
489.413	6.77
489.538	29.77
489.662	41.77
489.786	9.77
489.911	19.77
490.035	22.77
490.16	13.77
490.284	9.77
490.409	3.77
490.533	21.77
490.658	54.77
490.782	8.77
490.906	43.77
491.031	102.77
491.155	137.77
491.28	146.77
491.404	170.77
491.528	255.77
491.653	164.77
491.777	62.77
491.902	24.77
492.026	37.77
492.15	34.77
492.275	35.77
492.399	27.77
492.524	11.77
492.648	23.77
492.772	25.77
492.897	15.77
493.021	17.77
493.145	27.77
493.27	29.77
493.394	28.77
493.518	9.77
493.643	-5.23
493.767	20.77
493.891	6.77
494.016	18.77
494.14	16.77
494.264	16.77
494.389	11.77
494.513	5.77
494.637	3.77
494.762	18.77
494.886	21.77
495.01	35.77
495.134	20.77
495.259	32.77
495.383	19.77
495.507	26.77
495.632	32.77
495.756	40.77
495.88	23.77
496.004	17.77
496.129	-3.23
496.253	23.77
496.377	5.77
496.501	15.77
496.626	13.77
496.75	12.77
496.874	5.77
496.998	-0.23
497.123	24.77
497.247	16.77
497.371	9.77
497.495	-1.23
497.62	27.77
497.744	9.77
497.868	17.77
497.992	13.77
498.116	9.77
498.241	15.77
498.365	14.77
498.489	10.77
498.613	39.77
498.737	16.77
498.862	21.77
498.986	9.77
499.11	26.77
499.234	31.77
499.358	26.77
499.482	16.77
499.607	30.77
499.731	23.77
499.855	31.77
499.979	27.77
500.103	18.77
500.227	21.77
500.351	24.77
500.476	15.77
500.6	23.77
500.724	25.77
500.848	16.77
500.972	36.77
501.096	26.77
501.22	15.77
501.344	18.77
501.469	0.77
501.593	14.77
501.717	20.77
501.841	7.77
501.965	16.77
502.089	21.77
502.213	26.77
502.337	27.77
502.461	26.77
502.585	16.77
502.709	20.77
502.834	7.77
502.958	8.77
503.082	16.77
503.206	28.77
503.33	36.77
503.454	23.77
503.578	12.77
503.702	32.77
503.826	15.77
503.95	46.77
504.074	20.77
504.198	18.77
504.322	2.77
504.446	-0.23
504.57	14.77
504.694	13.77
504.818	21.77
504.942	18.77
505.066	15.77
505.19	24.77
505.314	23.77
505.438	13.77
505.562	42.77
505.686	40.77
505.81	-3.23
505.934	11.77
506.058	13.77
506.182	16.77
506.306	27.77
506.43	19.77
506.554	13.77
506.678	21.77
506.802	19.77
506.926	27.77
507.05	7.77
507.174	29.77
507.298	17.77
507.422	28.77
507.546	32.77
507.67	42.77
507.794	24.77
507.918	19.77
508.042	27.77
508.165	5.77
508.289	2.77
508.413	-0.23
508.537	5.77
508.661	25.77
508.785	24.77
508.909	25.77
509.033	23.77
509.157	8.77
509.281	27.77
509.405	19.77
509.528	40.77
509.652	35.77
509.776	22.77
509.9	42.77
510.024	16.77
510.148	23.77
510.272	35.77
510.396	45.77
510.519	16.77
510.643	52.77
510.767	36.77
510.891	40.77
511.015	36.77
511.139	47.77
511.263	45.77
511.386	34.77
511.51	29.77
511.634	45.77
511.758	30.77
511.882	32.77
512.006	38.77
512.129	63.77
512.253	79.77
512.377	73.77
512.501	77.77
512.625	79.77
512.748	79.77
512.872	73.77
512.996	49.77
513.12	38.77
513.244	39.77
513.367	50.77
513.491	67.77
513.615	75.77
513.739	75.77
513.862	80.77
513.986	88.77
514.11	92.77
514.234	94.77
514.358	91.77
514.481	111.77
514.605	106.77
514.729	106.77
514.853	104.77
514.976	112.77
515.1	116.77
515.224	88.77
515.348	86.77
515.471	74.77
515.595	103.77
515.719	120.77
515.842	211.77
515.966	285.77
516.09	304.77
516.214	287.77
516.337	323.77
516.461	232.77
516.585	95.77
516.708	53.77
516.832	17.77
516.956	20.77
517.08	24.77
517.203	16.77
517.327	12.77
517.451	21.77
517.574	37.77
517.698	17.77
517.822	5.77
517.945	12.77
518.069	8.77
518.193	31.77
518.316	15.77
518.44	22.77
518.564	1.77
518.687	-2.23
518.811	6.77
518.935	33.77
519.058	1.77
519.182	17.77
519.306	34.77
519.429	14.77
519.553	49.77
519.676	24.77
519.8	17.77
519.924	7.77
520.047	26.77
520.171	5.77
520.294	-2.23
520.418	30.77
520.542	17.77
520.665	27.77
520.789	9.77
520.913	2.77
521.036	12.77
521.16	9.77
521.283	21.77
521.407	8.77
521.53	3.77
521.654	3.77
521.778	17.77
521.901	8.77
522.025	7.77
522.148	6.77
522.272	25.77
522.395	8.77
522.519	10.77
522.643	10.77
522.766	28.77
522.89	12.77
523.013	45.77
523.137	-6.23
523.26	9.77
523.384	20.77
523.507	11.77
523.631	10.77
523.754	4.77
523.878	27.77
524.002	0.77
524.125	5.77
524.249	-11.23
524.372	13.77
524.496	-3.23
524.619	7.77
524.743	26.77
524.866	17.77
524.99	20.77
525.113	-5.23
525.237	17.77
525.36	22.77
525.484	9.77
525.607	-7.23
525.731	-11.23
525.854	3.77
525.978	22.77
526.101	4.77
526.224	15.77
526.348	10.77
526.471	11.77
526.595	11.77
526.718	21.77
526.842	5.77
526.965	3.77
527.089	7.77
527.212	30.77
527.336	25.77
527.459	13.77
527.582	10.77
527.706	5.77
527.829	23.77
527.953	31.77
528.076	-2.23
528.2	11.77
528.323	22.77
528.446	32.77
528.57	19.77
528.693	34.77
528.817	9.77
528.94	13.77
529.064	29.77
529.187	12.77
529.31	15.77
529.434	19.77
529.557	17.77
529.68	2.77
529.804	4.77
529.927	14.77
530.051	15.77
530.174	22.77
530.297	15.77
530.421	33.77
530.544	19.77
530.668	11.77
530.791	0.77
530.914	22.77
531.038	15.77
531.161	5.77
531.284	20.77
531.408	23.77
531.531	7.77
531.654	-10.23
531.778	20.77
531.901	14.77
532.024	18.77
532.148	14.77
532.271	13.77
532.394	20.77
532.518	16.77
532.641	5.77
532.764	16.77
532.888	12.77
533.011	2.77
533.134	8.77
533.258	19.77
533.381	3.77
533.504	3.77
533.628	8.77
533.751	30.77
533.874	13.77
533.997	9.77
534.121	5.77
534.244	17.77
534.367	9.77
534.491	9.77
534.614	29.77
534.737	16.77
534.86	19.77
534.984	14.77
535.107	5.77
535.23	36.77
535.354	26.77
535.477	7.77
535.6	11.77
535.723	6.77
535.847	9.77
535.97	-0.23
536.093	13.77
536.216	-2.23
536.34	23.77
536.463	11.77
536.586	8.77
536.709	12.77
536.833	8.77
536.956	5.77
537.079	12.77
537.202	21.77
537.325	15.77
537.449	18.77
537.572	25.77
537.695	24.77
537.818	3.77
537.941	4.77
538.065	13.77
538.188	-0.23
538.311	23.77
538.434	16.77
538.558	21.77
538.681	23.77
538.804	20.77
538.927	31.77
539.05	31.77
539.173	14.77
539.297	24.77
539.42	8.77
539.543	4.77
539.666	27.77
539.789	22.77
539.913	10.77
540.036	21.77
540.159	16.77
540.282	25.77
540.405	-2.23
540.528	17.77
540.651	19.77
540.775	4.77
540.898	24.77
541.021	28.77
541.144	28.77
541.267	36.77
541.39	34.77
541.513	20.77
541.637	11.77
541.76	12.77
541.883	26.77
542.006	27.77
542.129	37.77
542.252	31.77
542.375	33.77
542.498	31.77
542.622	19.77
542.745	41.77
542.868	25.77
542.991	49.77
543.114	50.77
543.237	71.77
543.36	71.77
543.483	59.77
543.606	65.77
543.73	67.77
543.853	67.77
543.976	86.77
544.099	104.77
544.222	120.77
544.345	129.77
544.468	179.77
544.591	197.77
544.714	272.77
544.837	333.77
544.96	437.77
545.083	636.77
545.206	1058.77
545.329	2440.77
545.453	10816.77
545.576	15225.77
545.699	15678.77
545.822	15678.77
545.945	15678.77
546.068	15678.77
546.191	15678.77
546.314	15678.77
546.437	15678.77
546.56	15678.77
546.683	15678.77
546.806	15678.77
546.929	15678.77
547.052	15678.77
547.175	15678.77
547.298	15678.77
547.421	15678.77
547.544	15678.77
547.667	3455.77
547.79	1908.77
547.913	935.77
548.036	824.77
548.159	617.77
548.282	613.77
548.405	481.77
548.528	473.77
548.651	406.77
548.774	392.77
548.897	339.77
549.02	343.77
549.143	305.77
549.266	288.77
549.389	265.77
549.512	243.77
549.635	249.77
549.758	241.77
549.881	211.77
550.004	200.77
550.127	191.77
550.25	178.77
550.373	165.77
550.496	181.77
550.619	153.77
550.742	141.77
550.865	129.77
550.988	142.77
551.111	147.77
551.234	138.77
551.356	133.77
551.479	118.77
551.602	135.77
551.725	139.77
551.848	149.77
551.971	131.77
552.094	140.77
552.217	108.77
552.34	110.77
552.463	88.77
552.586	91.77
552.709	99.77
552.832	96.77
552.955	93.77
553.077	93.77
553.2	96.77
553.323	53.77
553.446	92.77
553.569	86.77
553.692	89.77
553.815	100.77
553.938	105.77
554.061	100.77
554.184	87.77
554.306	79.77
554.429	86.77
554.552	75.77
554.675	61.77
554.798	71.77
554.921	96.77
555.044	75.77
555.167	72.77
555.29	57.77
555.412	70.77
555.535	77.77
555.658	77.77
555.781	81.77
555.904	64.77
556.027	54.77
556.15	65.77
556.272	68.77
556.395	83.77
556.518	69.77
556.641	84.77
556.764	80.77
556.887	70.77
557.01	64.77
557.132	45.77
557.255	56.77
557.378	65.77
557.501	44.77
557.624	57.77
557.747	55.77
557.869	74.77
557.992	80.77
558.115	79.77
558.238	79.77
558.361	85.77
558.483	98.77
558.606	69.77
558.729	63.77
558.852	77.77
558.975	58.77
559.098	51.77
559.22	41.77
559.343	60.77
559.466	61.77
559.589	37.77
559.712	63.77
559.834	59.77
559.957	42.77
560.08	54.77
560.203	67.77
560.325	32.77
560.448	58.77
560.571	49.77
560.694	43.77
560.817	55.77
560.939	55.77
561.062	39.77
561.185	58.77
561.308	51.77
561.43	46.77
561.553	67.77
561.676	61.77
561.799	69.77
561.921	67.77
562.044	67.77
562.167	41.77
562.29	66.77
562.413	64.77
562.535	62.77
562.658	58.77
562.781	47.77
562.903	63.77
563.026	86.77
563.149	131.77
563.272	122.77
563.394	109.77
563.517	97.77
563.64	69.77
563.763	37.77
563.885	52.77
564.008	46.77
564.131	56.77
564.254	24.77
564.376	34.77
564.499	29.77
564.622	29.77
564.744	59.77
564.867	28.77
564.99	20.77
565.113	50.77
565.235	40.77
565.358	24.77
565.481	15.77
565.603	30.77
565.726	36.77
565.849	45.77
565.971	47.77
566.094	25.77
566.217	34.77
566.34	40.77
566.462	33.77
566.585	23.77
566.708	50.77
566.83	37.77
566.953	30.77
567.076	25.77
567.198	35.77
567.321	23.77
567.444	53.77
567.566	33.77
567.689	20.77
567.812	29.77
567.934	35.77
568.057	33.77
568.18	34.77
568.302	28.77
568.425	32.77
568.548	42.77
568.67	34.77
568.793	21.77
568.916	32.77
569.038	21.77
569.161	14.77
569.283	34.77
569.406	33.77
569.529	24.77
569.651	18.77
569.774	20.77
569.897	23.77
570.019	43.77
570.142	55.77
570.265	16.77
570.387	15.77
570.51	42.77
570.632	51.77
570.755	26.77
570.878	31.77
571	28.77
571.123	27.77
571.246	44.77
571.368	24.77
571.491	23.77
571.613	25.77
571.736	19.77
571.859	9.77
571.981	15.77
572.104	20.77
572.226	22.77
572.349	21.77
572.472	14.77
572.594	28.77
572.717	9.77
572.839	27.77
572.962	30.77
573.085	26.77
573.207	28.77
573.33	24.77
573.452	45.77
573.575	47.77
573.697	25.77
573.82	24.77
573.943	10.77
574.065	21.77
574.188	32.77
574.31	52.77
574.433	33.77
574.555	18.77
574.678	21.77
574.801	48.77
574.923	27.77
575.046	47.77
575.168	20.77
575.291	23.77
575.413	35.77
575.536	36.77
575.659	52.77
575.781	46.77
575.904	51.77
576.026	72.77
576.149	66.77
576.271	123.77
576.394	208.77
576.516	518.77
576.639	3594.77
576.761	10038.77
576.884	8647.77
577.007	8683.77
577.129	7922.77
577.252	3667.77
577.374	1273.77
577.497	508.77
577.619	272.77
577.742	159.77
577.864	154.77
577.987	122.77
578.109	127.77
578.232	124.77
578.354	150.77
578.477	180.77
578.599	374.77
578.722	1958.77
578.844	9039.77
578.967	9782.77
579.089	8712.77
579.212	9005.77
579.334	5171.77
579.457	1889.77
579.579	727.77
579.702	314.77
579.824	204.77
579.947	129.77
580.069	99.77
580.192	68.77
580.314	91.77
580.437	58.77
580.559	67.77
580.682	55.77
580.804	56.77
580.927	61.77
581.049	70.77
581.172	48.77
581.294	40.77
581.417	64.77
581.539	39.77
581.662	24.77
581.784	32.77
581.907	48.77
582.029	25.77
582.152	31.77
582.274	45.77
582.396	46.77
582.519	31.77
582.641	25.77
582.764	41.77
582.886	22.77
583.009	41.77
583.131	17.77
583.254	27.77
583.376	45.77
583.499	37.77
583.621	36.77
583.743	41.77
583.866	28.77
583.988	24.77
584.111	44.77
584.233	29.77
584.356	37.77
584.478	23.77
584.601	22.77
584.723	37.77
584.845	50.77
584.968	23.77
585.09	15.77
585.213	25.77
585.335	30.77
585.458	24.77
585.58	28.77
585.702	32.77
585.825	21.77
585.947	19.77
586.07	26.77
586.192	29.77
586.315	40.77
586.437	13.77
586.559	8.77
586.682	11.77
586.804	29.77
586.927	23.77
587.049	15.77
587.171	19.77
587.294	27.77
587.416	41.77
587.539	18.77
587.661	5.77
587.783	10.77
587.906	21.77
588.028	28.77
588.151	13.77
588.273	31.77
588.395	30.77
588.518	32.77
588.64	17.77
588.763	21.77
588.885	11.77
589.007	33.77
589.13	12.77
589.252	9.77
589.375	13.77
589.497	19.77
589.619	33.77
589.742	15.77
589.864	20.77
589.986	31.77
590.109	8.77
590.231	21.77
590.354	30.77
590.476	5.77
590.598	7.77
590.721	2.77
590.843	20.77
590.965	28.77
591.088	29.77
591.21	32.77
591.332	35.77
591.455	8.77
591.577	10.77
591.7	15.77
591.822	25.77
591.944	36.77
592.067	16.77
592.189	24.77
592.311	15.77
592.434	12.77
592.556	23.77
592.678	16.77
592.801	25.77
592.923	16.77
593.045	12.77
593.168	26.77
593.29	27.77
593.412	23.77
593.535	12.77
593.657	12.77
593.779	19.77
593.902	30.77
594.024	34.77
594.146	33.77
594.269	41.77
594.391	10.77
594.513	22.77
594.636	28.77
594.758	16.77
594.88	22.77
595.003	22.77
595.125	7.77
595.247	33.77
595.37	28.77
595.492	19.77
595.614	46.77
595.737	16.77
595.859	29.77
595.981	9.77
596.104	27.77
596.226	1.77
596.348	23.77
596.471	8.77
596.593	23.77
596.715	10.77
596.838	38.77
596.96	11.77
597.082	11.77
597.204	27.77
597.327	14.77
597.449	12.77
597.571	21.77
597.694	20.77
597.816	20.77
597.938	17.77
598.061	19.77
598.183	29.77
598.305	29.77
598.427	20.77
598.55	12.77
598.672	46.77
598.794	23.77
598.917	7.77
599.039	21.77
599.161	32.77
599.283	10.77
599.406	40.77
599.528	53.77
599.65	37.77
599.773	24.77
599.895	43.77
600.017	33.77
600.139	20.77
600.262	14.77
600.384	23.77
600.506	15.77
600.628	27.77
600.751	26.77
600.873	22.77
600.995	24.77
601.118	19.77
601.24	7.77
601.362	34.77
601.484	20.77
601.607	35.77
601.729	33.77
601.851	12.77
601.973	41.77
602.096	20.77
602.218	23.77
602.34	21.77
602.462	40.77
602.585	17.77
602.707	2.77
602.829	13.77
602.951	28.77
603.074	3.77
603.196	14.77
603.318	-0.23
603.44	36.77
603.563	23.77
603.685	17.77
603.807	8.77
603.929	16.77
604.052	21.77
604.174	38.77
604.296	19.77
604.418	19.77
604.541	35.77
604.663	9.77
604.785	15.77
604.907	16.77
605.03	17.77
605.152	35.77
605.274	26.77
605.396	9.77
605.519	1.77
605.641	13.77
605.763	20.77
605.885	20.77
606.008	17.77
606.13	38.77
606.252	49.77
606.374	5.77
606.496	22.77
606.619	23.77
606.741	6.77
606.863	39.77
606.985	44.77
607.108	36.77
607.23	15.77
607.352	13.77
607.474	3.77
607.596	14.77
607.719	3.77
607.841	16.77
607.963	20.77
608.085	18.77
608.207	22.77
608.33	19.77
608.452	5.77
608.574	15.77
608.696	19.77
608.819	5.77
608.941	24.77
609.063	12.77
609.185	29.77
609.307	11.77
609.43	24.77
609.552	19.77
609.674	-3.23
609.796	14.77
609.918	32.77
610.041	11.77
610.163	17.77
610.285	37.77
610.407	25.77
610.529	1.77
610.652	9.77
610.774	23.77
610.896	11.77
611.018	19.77
611.14	1.77
611.263	0.77
611.385	6.77
611.507	26.77
611.629	17.77
611.751	27.77
611.873	47.77
611.996	20.77
612.118	27.77
612.24	10.77
612.362	38.77
612.484	26.77
612.607	20.77
612.729	24.77
612.851	30.77
612.973	11.77
613.095	9.77
613.218	12.77
613.34	28.77
613.462	6.77
613.584	15.77
613.706	21.77
613.828	33.77
613.951	23.77
614.073	16.77
614.195	-18.23
614.317	22.77
614.439	20.77
614.561	16.77
614.684	23.77
614.806	25.77
614.928	5.77
615.05	24.77
615.172	27.77
615.294	27.77
615.417	15.77
615.539	15.77
615.661	22.77
615.783	36.77
615.905	17.77
616.027	10.77
616.15	32.77
616.272	19.77
616.394	7.77
616.516	2.77
616.638	4.77
616.76	18.77
616.883	26.77
617.005	6.77
617.127	-3.23
617.249	17.77
617.371	14.77
617.493	26.77
617.615	27.77
617.738	16.77
617.86	22.77
617.982	23.77
618.104	18.77
618.226	10.77
618.348	3.77
618.471	29.77
618.593	16.77
618.715	14.77
618.837	13.77
618.959	31.77
619.081	21.77
619.203	19.77
619.326	25.77
619.448	26.77
619.57	21.77
619.692	17.77
619.814	17.77
619.936	16.77
620.058	15.77
620.181	23.77
620.303	-3.23
620.425	9.77
620.547	24.77
620.669	7.77
620.791	5.77
620.913	10.77
621.036	-5.23
621.158	15.77
621.28	11.77
621.402	15.77
621.524	12.77
621.646	17.77
621.768	5.77
621.891	5.77
622.013	27.77
622.135	8.77
622.257	-0.23
622.379	11.77
622.501	17.77
622.623	10.77
622.745	19.77
622.868	10.77
622.99	13.77
623.112	13.77
623.234	21.77
623.356	21.77
623.478	-5.23
623.6	23.77
623.722	11.77
623.845	17.77
623.967	25.77
624.089	13.77
624.211	10.77
624.333	15.77
624.455	21.77
624.577	18.77
624.699	4.77
624.822	27.77
624.944	27.77
625.066	10.77
625.188	3.77
625.31	23.77
625.432	34.77
625.554	23.77
625.676	27.77
625.799	13.77
625.921	20.77
626.043	18.77
626.165	18.77
626.287	-22.23
626.409	26.77
626.531	0.77
626.653	5.77
626.775	28.77
626.898	36.77
627.02	32.77
627.142	25.77
627.264	30.77
627.386	24.77
627.508	25.77
627.63	20.77
627.752	31.77
627.874	17.77
627.997	10.77
628.119	17.77
628.241	20.77
628.363	16.77
628.485	6.77
628.607	11.77
628.729	21.77
628.851	-5.23
628.973	12.77
629.096	4.77
629.218	7.77
629.34	10.77
629.462	1.77
629.584	-1.23
629.706	4.77
629.828	25.77
629.95	19.77
630.072	3.77
630.195	8.77
630.317	25.77
630.439	7.77
630.561	16.77
630.683	-14.23
630.805	15.77
630.927	26.77
631.049	9.77
631.171	-8.23
631.293	18.77
631.416	27.77
631.538	13.77
631.66	-0.23
631.782	18.77
631.904	31.77
632.026	15.77
632.148	23.77
632.27	1.77
632.392	15.77
632.514	27.77
632.637	19.77
632.759	15.77
632.881	3.77
633.003	-7.23
633.125	-8.23
633.247	-7.23
633.369	12.77
633.491	-0.23
633.613	30.77
633.735	21.77
633.858	16.77
633.98	15.77
634.102	4.77
634.224	4.77
634.346	-0.23
634.468	5.77
634.59	5.77
634.712	13.77
634.834	-4.23
634.956	8.77
635.078	4.77
635.201	-0.23
635.323	30.77
635.445	19.77
635.567	-12.23
635.689	-2.23
635.811	14.77
635.933	1.77
636.055	0.77
636.177	1.77
636.299	43.77
636.421	26.77
636.544	-6.23
636.666	9.77
636.788	26.77
636.91	24.77
637.032	8.77
637.154	6.77
637.276	33.77
637.398	18.77
637.52	21.77
637.642	13.77
637.764	4.77
637.887	9.77
638.009	16.77
638.131	12.77
638.253	0.77
638.375	18.77
638.497	9.77
638.619	5.77
638.741	9.77
638.863	-7.23
638.985	10.77
639.107	0.77
639.23	-7.23
639.352	23.77
639.474	10.77
639.596	2.77
639.718	7.77
639.84	14.77
639.962	3.77
640.084	15.77
640.206	13.77
640.328	9.77
640.45	23.77
640.573	26.77
640.695	6.77
640.817	12.77
640.939	23.77
641.061	-3.23
641.183	10.77
641.305	-3.23
641.427	10.77
641.549	0.77
641.671	-1.23
641.793	-0.23
641.915	19.77
642.038	25.77
642.16	5.77
642.282	10.77
642.404	3.77
642.526	20.77
642.648	16.77
642.77	7.77
642.892	3.77
643.014	27.77
643.136	18.77
643.258	23.77
643.381	38.77
643.503	31.77
643.625	11.77
643.747	-8.23
643.869	9.77
643.991	28.77
644.113	1.77
644.235	9.77
644.357	12.77
644.479	25.77
644.601	15.77
644.723	13.77
644.846	18.77
644.968	8.77
645.09	8.77
645.212	18.77
645.334	6.77
645.456	15.77
645.578	12.77
645.7	18.77
645.822	15.77
645.944	9.77
646.066	0.77
646.188	5.77
646.311	31.77
646.433	14.77
646.555	33.77
646.677	22.77
646.799	11.77
646.921	25.77
647.043	14.77
647.165	-0.23
647.287	12.77
647.409	8.77
647.531	20.77
647.654	-0.23
647.776	18.77
647.898	21.77
648.02	3.77
648.142	3.77
648.264	-1.23
648.386	5.77
648.508	-7.23
648.63	0.77
648.752	4.77
648.874	15.77
648.997	2.77
649.119	21.77
649.241	-0.23
649.363	24.77
649.485	15.77
649.607	1.77
649.729	7.77
649.851	20.77
649.973	6.77
650.095	9.77
650.217	-2.23
650.34	13.77
650.462	13.77
650.584	10.77
650.706	11.77
650.828	15.77
650.95	7.77
651.072	19.77
651.194	3.77
651.316	-3.23
651.438	-6.23
651.56	-9.23
651.683	8.77
651.805	10.77
651.927	7.77
652.049	12.77
652.171	0.77
652.293	3.77
652.415	10.77
652.537	-20.23
652.659	1.77
652.781	17.77
652.903	5.77
653.026	19.77
653.148	-5.23
653.27	9.77
653.392	24.77
653.514	10.77
653.636	9.77
653.758	13.77
653.88	-10.23
654.002	11.77
654.124	1.77
654.247	-7.23
654.369	21.77
654.491	8.77
654.613	21.77
654.735	-2.23
654.857	14.77
654.979	8.77
655.101	15.77
655.223	34.77
655.345	9.77
655.468	3.77
655.59	-8.23
655.712	12.77
655.834	-0.23
655.956	8.77
656.078	21.77
656.2	11.77
656.322	9.77
656.444	-26.23
656.566	16.77
656.689	9.77
656.811	1.77
656.933	17.77
657.055	-0.23
657.177	8.77
657.299	15.77
657.421	12.77
657.543	16.77
657.665	0.77
657.787	5.77
657.91	10.77
658.032	3.77
658.154	1.77
658.276	8.77
658.398	-10.23
658.52	5.77
658.642	21.77
658.764	13.77
658.886	-16.23
659.009	9.77
659.131	5.77
659.253	12.77
659.375	6.77
659.497	-5.23
659.619	20.77
659.741	16.77
659.863	16.77
659.985	-2.23
660.108	24.77
660.23	-4.23
660.352	16.77
660.474	15.77
660.596	12.77
660.718	12.77
660.84	4.77
660.962	7.77
661.084	-16.23
661.207	10.77
661.329	5.77
661.451	-8.23
661.573	0.77
661.695	17.77
661.817	19.77
661.939	15.77
662.061	27.77
662.184	-1.23
662.306	9.77
662.428	7.77
662.55	23.77
662.672	-5.23
662.794	4.77
662.916	22.77
663.038	15.77
663.161	4.77
663.283	16.77
663.405	21.77
663.527	3.77
663.649	10.77
663.771	-4.23
663.893	-3.23
664.015	15.77
664.138	0.77
664.26	7.77
664.382	9.77
664.504	1.77
664.626	-3.23
664.748	-3.23
664.87	-10.23
664.992	5.77
665.115	15.77
665.237	15.77
665.359	4.77
665.481	15.77
665.603	7.77
665.725	4.77
665.847	-9.23
665.97	3.77
666.092	5.77
666.214	9.77
666.336	15.77
666.458	8.77
666.58	7.77
666.702	-0.23
666.825	0.77
666.947	11.77
667.069	13.77
667.191	23.77
667.313	17.77
667.435	4.77
667.557	8.77
667.68	-14.23
667.802	4.77
667.924	2.77
668.046	14.77
668.168	12.77
668.29	23.77
668.412	23.77
668.535	-4.23
668.657	6.77
668.779	1.77
668.901	-4.23
669.023	20.77
669.145	7.77
669.267	5.77
669.39	11.77
669.512	23.77
669.634	5.77
669.756	-14.23
669.878	-7.23
670	8.77
670.123	-3.23
670.245	21.77
670.367	18.77
670.489	28.77
670.611	0.77
670.733	16.77
670.856	20.77
670.978	12.77
671.1	15.77
671.222	13.77
671.344	10.77
671.466	-8.23
671.589	-3.23
671.711	0.77
671.833	4.77
671.955	17.77
672.077	8.77
672.199	35.77
672.322	7.77
672.444	10.77
672.566	11.77
672.688	3.77
672.81	2.77
672.932	20.77
673.055	8.77
673.177	-2.23
673.299	20.77
673.421	-8.23
673.543	5.77
673.665	5.77
673.788	9.77
673.91	10.77
674.032	-2.23
674.154	-10.23
674.276	13.77
674.399	8.77
674.521	8.77
674.643	-0.23
674.765	5.77
674.887	17.77
675.009	-0.23
675.132	11.77
675.254	1.77
675.376	13.77
675.498	4.77
675.62	20.77
675.743	6.77
675.865	4.77
675.987	-11.23
676.109	9.77
676.231	13.77
676.354	19.77
676.476	-7.23
676.598	8.77
676.72	20.77
676.842	12.77
676.965	6.77
677.087	1.77
677.209	8.77
677.331	17.77
677.453	-0.23
677.576	-1.23
677.698	21.77
677.82	2.77
677.942	-10.23
678.064	-3.23
678.187	4.77
678.309	22.77
678.431	17.77
678.553	-4.23
678.675	15.77
678.798	-0.23
678.92	5.77
679.042	15.77
679.164	-5.23
679.286	23.77
679.409	11.77
679.531	-9.23
679.653	2.77
679.775	3.77
679.898	16.77
680.02	3.77
680.142	-2.23
680.264	20.77
680.386	-20.23
680.509	21.77
680.631	18.77
680.753	-5.23
680.875	4.77
680.998	13.77
681.12	-8.23
681.242	21.77
681.364	-8.23
681.486	-2.23
681.609	-14.23
681.731	-13.23
681.853	-11.23
681.975	-3.23
682.098	1.77
682.22	16.77
682.342	7.77
682.464	19.77
682.587	11.77
682.709	-0.23
682.831	-29.23
682.953	-17.23
683.076	-3.23
683.198	14.77
683.32	9.77
683.442	13.77
683.565	3.77
683.687	9.77
683.809	10.77
683.931	-2.23
684.054	18.77
684.176	18.77
684.298	8.77
684.42	-17.23
684.543	3.77
684.665	-0.23
684.787	-0.23
684.909	-14.23
685.032	-2.23
685.154	-7.23
685.276	-5.23
685.398	12.77
685.521	-3.23
685.643	6.77
685.765	10.77
685.887	24.77
686.01	22.77
686.132	8.77
686.254	-2.23
686.377	3.77
686.499	15.77
686.621	26.77
686.743	11.77
686.866	1.77
686.988	30.77
687.11	23.77
687.232	17.77
687.355	3.77
687.477	16.77
687.599	9.77
687.722	-0.23
687.844	18.77
687.966	-0.23
688.088	13.77
688.211	19.77
688.333	12.77
688.455	12.77
688.578	9.77
688.7	13.77
688.822	2.77
688.944	-11.23
689.067	57.77
689.189	-0.23
689.311	-20.23
689.434	-0.23
689.556	13.77
689.678	24.77
689.801	5.77
689.923	5.77
690.045	18.77
690.167	27.77
690.29	7.77
690.412	5.77
690.534	20.77
690.657	-3.23
690.779	-10.23
690.901	2.77
691.024	18.77
691.146	5.77
691.268	-3.23
691.391	22.77
691.513	24.77
691.635	12.77
691.758	11.77
691.88	-3.23
692.002	-8.23
692.125	7.77
692.247	5.77
692.369	16.77
692.492	-0.23
692.614	-8.23
692.736	-4.23
692.859	4.77
692.981	-8.23
693.103	-8.23
693.226	3.77
693.348	19.77
693.47	13.77
693.593	16.77
693.715	26.77
693.837	40.77
693.96	17.77
694.082	4.77
694.204	27.77
694.327	-6.23
694.449	5.77
694.571	-4.23
694.694	5.77
694.816	13.77
694.938	-6.23
695.061	6.77
695.183	21.77
695.305	12.77
695.428	9.77
695.55	7.77
695.672	-0.23
695.795	25.77
695.917	19.77
696.04	1.77
696.162	-5.23
696.284	-2.23
696.407	7.77
696.529	-9.23
696.651	8.77
696.774	10.77
696.896	20.77
697.019	9.77
697.141	16.77
697.263	-0.23
697.386	-2.23
697.508	16.77
697.63	13.77
697.753	1.77
697.875	-4.23
697.998	-13.23
698.12	16.77
698.242	17.77
698.365	4.77
698.487	0.77
698.61	11.77
698.732	16.77
698.854	-2.23
698.977	3.77
699.099	6.77
699.221	-15.23
699.344	-16.23
699.466	-2.23
699.589	12.77
699.711	-2.23
699.834	17.77
699.956	20.77
700.078	7.77
700.201	-3.23
700.323	14.77
700.446	8.77
700.568	1.77
700.69	25.77
700.813	19.77
700.935	-4.23
701.058	-2.23
701.18	5.77
701.302	7.77
701.425	-6.23
701.547	0.77
701.67	7.77
701.792	11.77
701.915	-8.23
702.037	-11.23
702.159	7.77
702.282	12.77
702.404	3.77
702.527	13.77
702.649	16.77
702.772	8.77
702.894	13.77
703.017	16.77
703.139	13.77
703.261	19.77
703.384	6.77
703.506	0.77
703.629	-2.23
703.751	8.77
703.874	-6.23
703.996	-22.23
704.119	-20.23
704.241	4.77
704.364	-2.23
704.486	12.77
704.608	21.77
704.731	6.77
704.853	15.77
704.976	-6.23
705.098	12.77
705.221	1.77
705.343	8.77
705.466	20.77
705.588	38.77
705.711	20.77
705.833	10.77
705.956	-2.23
706.078	12.77
706.201	4.77
706.323	6.77
706.446	-5.23
