Data from LowRes_mercury_15_20_11_07_2024_HR4C61881__33__15-23-35-571.txt Node

Date: Thu Nov 07 15:23:35 EST 2024
User: crc00042
Spectrometer: HR4C6188
Trigger mode: 4
Integration Time (sec): 1.000000E-1
Scans to average: 1
Electric dark correction enabled: true
Nonlinearity correction enabled: false
Boxcar width: 0
XAxis mode: Wavelengths
Number of Pixels in Spectrum: 3648
>>>>>Begin Spectral Data<<<<<
245.66	-85
245.797	-85
245.934	-85
246.071	-72
246.208	-1
246.344	7
246.481	-2
246.618	-14
246.755	-1
246.892	7
247.029	-15
247.165	-11
247.302	31
247.439	-10
247.576	4
247.713	-17
247.849	27
247.986	-6
248.123	10
248.26	0
248.396	7
248.533	16
248.67	-4
248.806	-3
248.943	-10
249.08	-12
249.216	12
249.353	-27
249.49	-17
249.626	-3
249.763	-4
249.9	-23
250.036	1
250.173	-1
250.309	8
250.446	-6
250.582	-9
250.719	-21
250.856	7
250.992	-14
251.129	-13
251.265	-24
251.402	-5
251.538	-3
251.675	-15
251.811	-11
251.948	19
252.084	22
252.221	-6
252.357	-5
252.493	10
252.63	3
252.766	25
252.903	6
253.039	-2
253.175	3
253.312	10
253.448	-2
253.585	-21
253.721	-9
253.857	1
253.994	-16
254.13	4
254.266	-5
254.403	-23
254.539	-9
254.675	14
254.811	-14
254.948	5
255.084	-7
255.22	7
255.356	-5
255.493	6
255.629	12
255.765	4
255.901	3
256.037	7
256.174	-1
256.31	-22
256.446	-4
256.582	-5
256.718	-5
256.854	11
256.991	8
257.127	20
257.263	-3
257.399	3
257.535	3
257.671	3
257.807	-12
257.943	-11
258.079	-12
258.215	-20
258.351	14
258.487	-12
258.623	6
258.759	-10
258.895	-17
259.031	10
259.167	-14
259.303	17
259.439	-8
259.575	-9
259.711	-8
259.847	-5
259.983	15
260.119	3
260.255	-9
260.391	3
260.527	6
260.663	-2
260.799	12
260.934	-13
261.07	6
261.206	-14
261.342	-4
261.478	18
261.614	7
261.749	-4
261.885	-2
262.021	1
262.157	0
262.293	4
262.428	4
262.564	5
262.7	-14
262.836	-11
262.971	6
263.107	0
263.243	-6
263.378	-5
263.514	-23
263.65	12
263.785	-23
263.921	0
264.057	12
264.192	22
264.328	14
264.464	-7
264.599	-3
264.735	15
264.871	-4
265.006	12
265.142	-7
265.277	-3
265.413	17
265.548	11
265.684	-2
265.819	8
265.955	-6
266.091	-28
266.226	-20
266.362	6
266.497	-8
266.633	-8
266.768	-20
266.903	-3
267.039	-2
267.174	32
267.31	-9
267.445	-2
267.581	-13
267.716	11
267.851	-8
267.987	11
268.122	35
268.258	-21
268.393	-11
268.528	-2
268.664	4
268.799	-12
268.934	-7
269.07	-3
269.205	11
269.34	31
269.476	-4
269.611	-9
269.746	12
269.881	18
270.017	9
270.152	2
270.287	11
270.422	7
270.558	-5
270.693	17
270.828	1
270.963	3
271.098	-5
271.234	-10
271.369	8
271.504	5
271.639	-17
271.774	-4
271.909	4
272.045	-8
272.18	6
272.315	-3
272.45	15
272.585	-11
272.72	0
272.855	8
272.99	8
273.125	-12
273.26	2
273.395	-1
273.53	-12
273.665	18
273.8	9
273.935	11
274.07	5
274.205	8
274.34	12
274.475	-6
274.61	17
274.745	13
274.88	25
275.015	-6
275.15	11
275.285	18
275.42	7
275.555	1
275.69	8
275.825	-11
275.959	13
276.094	7
276.229	4
276.364	-21
276.499	-14
276.634	-24
276.768	-18
276.903	16
277.038	8
277.173	-13
277.308	3
277.442	-18
277.577	-20
277.712	1
277.847	7
277.981	8
278.116	-21
278.251	-2
278.386	-3
278.52	9
278.655	3
278.79	16
278.924	7
279.059	7
279.194	-4
279.328	38
279.463	12
279.598	31
279.732	14
279.867	6
280.001	6
280.136	-2
280.271	20
280.405	22
280.54	12
280.674	-20
280.809	0
280.943	-2
281.078	-4
281.213	24
281.347	31
281.482	0
281.616	3
281.751	3
281.885	4
282.02	4
282.154	-11
282.288	-26
282.423	-9
282.557	-5
282.692	7
282.826	-16
282.961	2
283.095	-13
283.229	-13
283.364	-15
283.498	-5
283.633	13
283.767	1
283.901	10
284.036	8
284.17	-21
284.304	-5
284.439	38
284.573	11
284.707	12
284.842	-4
284.976	3
285.11	-22
285.244	0
285.379	18
285.513	-5
285.647	7
285.781	-17
285.916	19
286.05	6
286.184	36
286.318	23
286.453	-8
286.587	6
286.721	-6
286.855	17
286.989	16
287.123	-6
287.258	-13
287.392	-12
287.526	6
287.66	0
287.794	-4
287.928	-7
288.062	13
288.196	-3
288.33	6
288.464	14
288.598	11
288.733	1
288.867	16
289.001	3
289.135	9
289.269	-22
289.403	6
289.537	-5
289.671	14
289.805	-30
289.939	-10
290.073	-16
290.207	4
290.34	-14
290.474	15
290.608	10
290.742	11
290.876	-2
291.01	0
291.144	20
291.278	10
291.412	3
291.546	-6
291.679	-4
291.813	1
291.947	2
292.081	-2
292.215	-10
292.349	5
292.482	1
292.616	-4
292.75	2
292.884	1
293.018	-12
293.151	-10
293.285	2
293.419	-13
293.553	-11
293.686	-20
293.82	4
293.954	31
294.088	12
294.221	-22
294.355	-9
294.489	3
294.622	-5
294.756	7
294.89	-3
295.023	22
295.157	25
295.291	5
295.424	-7
295.558	6
295.691	5
295.825	-2
295.959	4
296.092	2
296.226	-1
296.359	5
296.493	5
296.627	12
296.76	11
296.894	-16
297.027	2
297.161	3
297.294	-9
297.428	-13
297.561	13
297.695	-14
297.828	-25
297.962	7
298.095	0
298.229	-13
298.362	-5
298.495	-5
298.629	-4
298.762	-3
298.896	13
299.029	-25
299.162	23
299.296	7
299.429	-16
299.563	-3
299.696	6
299.829	14
299.963	10
300.096	6
300.229	6
300.363	-4
300.496	12
300.629	-15
300.763	14
300.896	-10
301.029	-10
301.162	-4
301.296	-5
301.429	1
301.562	-15
301.695	-17
301.829	23
301.962	15
302.095	0
302.228	-23
302.362	12
302.495	-1
302.628	-1
302.761	-2
302.894	-12
303.027	-1
303.161	-11
303.294	-6
303.427	20
303.56	-3
303.693	-9
303.826	21
303.959	18
304.092	1
304.225	-7
304.359	11
304.492	12
304.625	-20
304.758	-9
304.891	-10
305.024	14
305.157	-2
305.29	-11
305.423	0
305.556	3
305.689	22
305.822	15
305.955	4
306.088	-5
306.221	-8
306.354	-10
306.487	-24
306.62	-17
306.752	-1
306.885	4
307.018	-12
307.151	0
307.284	12
307.417	-26
307.55	14
307.683	-16
307.816	-2
307.948	22
308.081	17
308.214	19
308.347	11
308.48	-5
308.613	-6
308.745	23
308.878	0
309.011	8
309.144	11
309.277	10
309.409	12
309.542	-1
309.675	6
309.808	10
309.94	0
310.073	-12
310.206	5
310.339	16
310.471	-11
310.604	22
310.737	11
310.869	9
311.002	14
311.135	-3
311.267	-23
311.4	-10
311.533	20
311.665	-7
311.798	4
311.93	13
312.063	26
312.196	49
312.328	68
312.461	56
312.593	30
312.726	71
312.859	92
312.991	161
313.124	41
313.256	22
313.389	19
313.521	-10
313.654	3
313.786	17
313.919	-5
314.051	26
314.184	25
314.316	23
314.449	-11
314.581	-6
314.714	-10
314.846	7
314.978	-1
315.111	7
315.243	6
315.376	15
315.508	21
315.641	-4
315.773	30
315.905	9
316.038	0
316.17	7
316.302	11
316.435	-7
316.567	-8
316.699	19
316.832	-6
316.964	13
317.096	7
317.229	-12
317.361	-23
317.493	11
317.625	-11
317.758	0
317.89	-1
318.022	-12
318.155	-2
318.287	-9
318.419	-10
318.551	-10
318.683	-17
318.816	-1
318.948	-19
319.08	-6
319.212	-2
319.344	14
319.477	-13
319.609	-4
319.741	6
319.873	4
320.005	3
320.137	7
320.269	10
320.401	6
320.534	-8
320.666	-7
320.798	-13
320.93	4
321.062	-27
321.194	-5
321.326	14
321.458	27
321.59	32
321.722	-1
321.854	-1
321.986	0
322.118	9
322.25	-3
322.382	-16
322.514	9
322.646	4
322.778	11
322.91	12
323.042	23
323.174	10
323.306	-11
323.438	-20
323.57	15
323.702	-16
323.834	-6
323.966	-2
324.097	13
324.229	14
324.361	-4
324.493	5
324.625	15
324.757	4
324.889	-11
325.021	2
325.152	26
325.284	8
325.416	-6
325.548	23
325.68	18
325.811	15
325.943	18
326.075	-6
326.207	18
326.339	-1
326.47	5
326.602	10
326.734	19
326.866	25
326.997	1
327.129	11
327.261	-28
327.392	-5
327.524	7
327.656	-7
327.787	-5
327.919	-14
328.051	-8
328.182	13
328.314	21
328.446	0
328.577	10
328.709	1
328.841	-10
328.972	-13
329.104	2
329.235	7
329.367	11
329.499	4
329.63	10
329.762	9
329.893	23
330.025	6
330.156	4
330.288	32
330.419	23
330.551	27
330.683	16
330.814	10
330.946	13
331.077	-22
331.208	-1
331.34	-5
331.471	-6
331.603	10
331.734	-2
331.866	0
331.997	-12
332.129	-1
332.26	-5
332.392	23
332.523	16
332.654	-2
332.786	9
332.917	1
333.048	11
333.18	9
333.311	0
333.443	-4
333.574	12
333.705	33
333.837	34
333.968	121
334.099	220
334.231	215
334.362	49
334.493	25
334.624	23
334.756	-7
334.887	37
335.018	15
335.15	17
335.281	19
335.412	18
335.543	14
335.675	4
335.806	14
335.937	8
336.068	18
336.199	30
336.331	11
336.462	17
336.593	7
336.724	-2
336.855	11
336.986	20
337.118	21
337.249	21
337.38	17
337.511	10
337.642	11
337.773	18
337.904	7
338.035	16
338.166	7
338.298	21
338.429	-10
338.56	13
338.691	24
338.822	29
338.953	16
339.084	14
339.215	10
339.346	-2
339.477	18
339.608	22
339.739	15
339.87	26
340.001	5
340.132	25
340.263	28
340.394	30
340.525	9
340.656	19
340.787	-6
340.918	18
341.049	21
341.179	17
341.31	17
341.441	17
341.572	12
341.703	12
341.834	-2
341.965	22
342.096	4
342.227	8
342.357	16
342.488	24
342.619	18
342.75	20
342.881	16
343.012	28
343.142	33
343.273	6
343.404	16
343.535	46
343.666	28
343.796	31
343.927	23
344.058	33
344.189	24
344.319	32
344.45	18
344.581	34
344.712	3
344.842	24
344.973	29
345.104	29
345.234	18
345.365	7
345.496	32
345.626	38
345.757	27
345.888	-4
346.018	19
346.149	40
346.28	50
346.41	8
346.541	27
346.672	8
346.802	41
346.933	32
347.063	36
347.194	12
347.325	36
347.455	50
347.586	20
347.716	26
347.847	20
347.977	29
348.108	52
348.238	54
348.369	29
348.499	61
348.63	50
348.76	69
348.891	47
349.021	43
349.152	62
349.282	52
349.413	40
349.543	58
349.674	29
349.804	38
349.935	15
350.065	35
350.196	16
350.326	28
350.456	23
350.587	40
350.717	29
350.848	31
350.978	25
351.108	14
351.239	40
351.369	16
351.499	21
351.63	24
351.76	20
351.89	4
352.021	22
352.151	9
352.281	13
352.412	20
352.542	22
352.672	11
352.803	7
352.933	11
353.063	25
353.193	11
353.324	17
353.454	27
353.584	11
353.714	-6
353.845	13
353.975	11
354.105	13
354.235	11
354.365	30
354.496	19
354.626	29
354.756	9
354.886	18
355.016	34
355.146	36
355.277	21
355.407	19
355.537	9
355.667	35
355.797	24
355.927	10
356.057	12
356.187	28
356.318	4
356.448	19
356.578	35
356.708	44
356.838	24
356.968	46
357.098	28
357.228	49
357.358	36
357.488	30
357.618	46
357.748	37
357.878	23
358.008	35
358.138	30
358.268	21
358.398	24
358.528	8
358.658	25
358.788	26
358.918	28
359.048	16
359.178	22
359.308	25
359.438	30
359.568	25
359.698	31
359.827	16
359.957	24
360.087	14
360.217	22
360.347	37
360.477	8
360.607	1
360.737	30
360.866	16
360.996	20
361.126	9
361.256	46
361.386	52
361.516	48
361.645	12
361.775	40
361.905	8
362.035	18
362.165	27
362.294	26
362.424	52
362.554	52
362.684	38
362.813	31
362.943	64
363.073	34
363.203	55
363.332	72
363.462	68
363.592	101
363.721	116
363.851	164
363.981	194
364.111	248
364.24	305
364.37	474
364.5	861
364.629	1838
364.759	3852
364.888	6273
365.018	9476
365.148	14823
365.277	13067
365.407	4813
365.537	3158
365.666	4087
365.796	1835
365.925	785
366.055	794
366.184	1058
366.314	1385
366.444	2465
366.573	2140
366.703	641
366.832	216
366.962	107
367.091	90
367.221	62
367.35	68
367.48	93
367.609	61
367.739	74
367.868	54
367.998	40
368.127	35
368.257	53
368.386	57
368.516	43
368.645	24
368.775	40
368.904	26
369.033	16
369.163	33
369.292	34
369.422	35
369.551	38
369.68	31
369.81	40
369.939	34
370.069	46
370.198	37
370.327	32
370.457	19
370.586	21
370.715	28
370.845	25
370.974	44
371.103	34
371.233	49
371.362	48
371.491	42
371.621	62
371.75	31
371.879	28
372.008	35
372.138	32
372.267	47
372.396	53
372.525	36
372.655	40
372.784	41
372.913	19
373.042	40
373.172	40
373.301	-5
373.43	9
373.559	7
373.688	23
373.818	17
373.947	19
374.076	6
374.205	16
374.334	13
374.463	4
374.593	28
374.722	22
374.851	49
374.98	7
375.109	18
375.238	25
375.367	55
375.496	3
375.625	7
375.755	20
375.884	32
376.013	19
376.142	6
376.271	31
376.4	11
376.529	14
376.658	24
376.787	20
376.916	27
377.045	18
377.174	16
377.303	13
377.432	26
377.561	34
377.69	22
377.819	39
377.948	22
378.077	0
378.206	-4
378.335	13
378.464	0
378.593	28
378.722	6
378.851	16
378.98	14
379.108	12
379.237	11
379.366	19
379.495	34
379.624	26
379.753	0
379.882	8
380.011	4
380.14	3
380.268	21
380.397	10
380.526	30
380.655	18
380.784	-6
380.913	10
381.041	24
381.17	-6
381.299	24
381.428	16
381.557	24
381.685	28
381.814	20
381.943	-1
382.072	0
382.2	-10
382.329	13
382.458	15
382.587	25
382.715	18
382.844	31
382.973	4
383.102	19
383.23	13
383.359	-8
383.488	13
383.616	-3
383.745	-7
383.874	8
384.003	22
384.131	13
384.26	12
384.389	18
384.517	6
384.646	-6
384.774	-3
384.903	40
385.032	18
385.16	23
385.289	11
385.418	36
385.546	23
385.675	16
385.803	23
385.932	22
386.06	14
386.189	16
386.318	6
386.446	7
386.575	28
386.703	23
386.832	23
386.96	-1
387.089	31
387.217	28
387.346	18
387.474	3
387.603	11
387.731	11
387.86	34
387.988	6
388.117	22
388.245	14
388.374	15
388.502	40
388.631	8
388.759	15
388.888	14
389.016	11
389.144	12
389.273	12
389.401	15
389.53	9
389.658	40
389.786	1
389.915	0
390.043	5
390.172	32
390.3	20
390.428	34
390.557	17
390.685	26
390.813	56
390.942	51
391.07	20
391.198	13
391.327	-2
391.455	-2
391.583	42
391.712	30
391.84	23
391.968	20
392.096	37
392.225	23
392.353	38
392.481	10
392.609	33
392.738	25
392.866	34
392.994	13
393.122	24
393.251	20
393.379	21
393.507	13
393.635	13
393.764	31
393.892	24
394.02	15
394.148	21
394.276	41
394.404	43
394.533	22
394.661	12
394.789	40
394.917	48
395.045	25
395.173	8
395.302	32
395.43	33
395.558	31
395.686	30
395.814	24
395.942	31
396.07	37
396.198	36
396.326	16
396.454	34
396.582	31
396.711	20
396.839	40
396.967	19
397.095	16
397.223	41
397.351	67
397.479	39
397.607	20
397.735	31
397.863	44
397.991	41
398.119	43
398.247	48
398.375	50
398.503	55
398.631	53
398.759	72
398.887	57
399.015	48
399.143	55
399.271	67
399.399	72
399.526	71
399.654	76
399.782	67
399.91	93
400.038	95
400.166	101
400.294	87
400.422	76
400.55	115
400.678	122
400.805	104
400.933	100
401.061	121
401.189	116
401.317	140
401.445	110
401.573	82
401.7	44
401.828	44
401.956	39
402.084	34
402.212	33
402.34	29
402.467	16
402.595	37
402.723	53
402.851	71
402.978	45
403.106	86
403.234	85
403.362	109
403.489	122
403.617	142
403.745	200
403.873	285
404	582
404.128	1517
404.256	3974
404.384	5151
404.511	5510
404.639	7261
404.767	11463
404.894	14649
405.022	4945
405.15	1300
405.277	426
405.405	233
405.533	118
405.66	108
405.788	67
405.916	77
406.043	36
406.171	50
406.299	75
406.426	72
406.554	66
406.681	79
406.809	59
406.937	64
407.064	79
407.192	134
407.319	316
407.447	520
407.574	552
407.702	638
407.83	862
407.957	1605
408.085	947
408.212	274
408.34	98
408.467	69
408.595	51
408.722	50
408.85	48
408.977	20
409.105	46
409.232	32
409.36	41
409.487	36
409.615	9
409.742	25
409.87	20
409.997	48
410.125	34
410.252	22
410.379	21
410.507	39
410.634	39
410.762	21
410.889	44
411.017	14
411.144	40
411.271	22
411.399	15
411.526	30
411.653	42
411.781	47
411.908	33
412.036	11
412.163	29
412.29	23
412.418	24
412.545	43
412.672	18
412.8	48
412.927	48
413.054	59
413.182	38
413.309	18
413.436	-1
413.564	11
413.691	32
413.818	40
413.945	15
414.073	32
414.2	24
414.327	48
414.454	35
414.582	33
414.709	13
414.836	24
414.963	15
415.091	39
415.218	3
415.345	24
415.472	20
415.6	16
415.727	28
415.854	42
415.981	25
416.108	30
416.236	14
416.363	32
416.49	15
416.617	35
416.744	40
416.871	35
416.998	39
417.126	34
417.253	28
417.38	33
417.507	29
417.634	31
417.761	51
417.888	43
418.015	37
418.143	28
418.27	36
418.397	41
418.524	36
418.651	34
418.778	31
418.905	41
419.032	27
419.159	41
419.286	58
419.413	50
419.54	52
419.667	21
419.794	5
419.921	44
420.048	43
420.175	53
420.302	32
420.429	62
420.556	45
420.683	59
420.81	58
420.937	66
421.064	80
421.191	59
421.318	62
421.445	79
421.572	56
421.699	55
421.826	27
421.953	37
422.08	42
422.207	6
422.334	19
422.461	18
422.588	11
422.714	36
422.841	23
422.968	38
423.095	20
423.222	17
423.349	12
423.476	23
423.603	7
423.729	21
423.856	23
423.983	44
424.11	13
424.237	39
424.364	31
424.491	14
424.617	-5
424.744	23
424.871	21
424.998	6
425.125	13
425.251	8
425.378	1
425.505	28
425.632	26
425.758	19
425.885	33
426.012	32
426.139	27
426.266	34
426.392	42
426.519	31
426.646	19
426.772	13
426.899	18
427.026	18
427.153	14
427.279	33
427.406	28
427.533	3
427.659	29
427.786	26
427.913	38
428.039	16
428.166	8
428.293	30
428.419	41
428.546	47
428.673	15
428.799	23
428.926	0
429.053	42
429.179	25
429.306	30
429.433	22
429.559	39
429.686	19
429.812	17
429.939	13
430.066	16
430.192	24
430.319	40
430.445	13
430.572	23
430.699	37
430.825	27
430.952	38
431.078	28
431.205	36
431.331	31
431.458	21
431.584	32
431.711	12
431.837	35
431.964	41
432.09	28
432.217	30
432.343	23
432.47	28
432.596	18
432.723	18
432.849	28
432.976	38
433.102	37
433.229	37
433.355	62
433.482	80
433.608	98
433.735	98
433.861	99
433.987	134
434.114	197
434.24	181
434.367	202
434.493	218
434.62	302
434.746	372
434.872	625
434.999	839
435.125	1784
435.252	5494
435.378	13419
435.504	15219
435.631	15450
435.757	15681
435.883	15681
436.01	15681
436.136	15681
436.262	15681
436.389	3469
436.515	2313
436.641	839
436.768	646
436.894	405
437.02	398
437.147	286
437.273	292
437.399	213
437.526	236
437.652	156
437.778	212
437.904	155
438.031	164
438.157	146
438.283	164
438.409	101
438.536	107
438.662	117
438.788	142
438.914	131
439.041	133
439.167	114
439.293	105
439.419	109
439.546	96
439.672	78
439.798	85
439.924	80
440.05	98
440.177	84
440.303	87
440.429	67
440.555	90
440.681	57
440.807	60
440.934	61
441.06	67
441.186	59
441.312	66
441.438	73
441.564	75
441.69	65
441.816	69
441.943	54
442.069	56
442.195	59
442.321	69
442.447	50
442.573	32
442.699	35
442.825	37
442.951	38
443.077	64
443.203	51
443.33	40
443.456	36
443.582	37
443.708	32
443.834	59
443.96	44
444.086	38
444.212	34
444.338	64
444.464	46
444.59	50
444.716	35
444.842	47
444.968	33
445.094	45
445.22	35
445.346	23
445.472	33
445.598	34
445.724	31
445.85	39
445.976	30
446.102	45
446.228	39
446.354	30
446.48	24
446.605	41
446.731	57
446.857	29
446.983	41
447.109	45
447.235	36
447.361	21
447.487	54
447.613	44
447.739	26
447.865	42
447.99	45
448.116	37
448.242	35
448.368	41
448.494	35
448.62	31
448.746	18
448.872	35
448.997	25
449.123	42
449.249	43
449.375	35
449.501	12
449.627	23
449.752	50
449.878	20
450.004	27
450.13	33
450.256	39
450.381	19
450.507	27
450.633	41
450.759	44
450.884	12
451.01	34
451.136	27
451.262	23
451.388	14
451.513	16
451.639	39
451.765	38
451.89	32
452.016	34
452.142	38
452.268	24
452.393	5
452.519	29
452.645	34
452.771	24
452.896	32
453.022	16
453.148	28
453.273	16
453.399	29
453.525	19
453.65	21
453.776	47
453.902	51
454.027	38
454.153	26
454.279	51
454.404	18
454.53	44
454.656	36
454.781	18
454.907	14
455.032	8
455.158	47
455.284	33
455.409	32
455.535	28
455.66	43
455.786	40
455.912	22
456.037	17
456.163	36
456.288	21
456.414	7
456.539	16
456.665	36
456.791	29
456.916	13
457.042	32
457.167	12
457.293	37
457.418	24
457.544	7
457.669	-1
457.795	13
457.92	24
458.046	25
458.171	43
458.297	20
458.422	8
458.548	3
458.673	39
458.799	32
458.924	27
459.05	22
459.175	20
459.301	26
459.426	41
459.552	6
459.677	36
459.803	44
459.928	33
460.053	21
460.179	27
460.304	36
460.43	-1
460.555	28
460.681	30
460.806	22
460.931	24
461.057	14
461.182	29
461.308	19
461.433	32
461.558	28
461.684	24
461.809	35
461.934	29
462.06	57
462.185	21
462.311	19
462.436	32
462.561	21
462.687	36
462.812	25
462.937	17
463.063	14
463.188	10
463.313	21
463.439	19
463.564	16
463.689	22
463.814	28
463.94	12
464.065	23
464.19	32
464.316	-5
464.441	4
464.566	25
464.692	6
464.817	30
464.942	27
465.067	22
465.193	5
465.318	3
465.443	27
465.568	32
465.694	13
465.819	30
465.944	40
466.069	30
466.194	30
466.32	35
466.445	28
466.57	19
466.695	29
466.82	35
466.946	48
467.071	47
467.196	28
467.321	34
467.446	32
467.572	36
467.697	40
467.822	44
467.947	48
468.072	27
468.197	32
468.323	35
468.448	30
468.573	15
468.698	21
468.823	29
468.948	39
469.073	38
469.198	49
469.324	36
469.449	31
469.574	48
469.699	61
469.824	35
469.949	45
470.074	36
470.199	54
470.324	19
470.449	21
470.574	24
470.7	21
470.825	23
470.95	53
471.075	19
471.2	45
471.325	37
471.45	43
471.575	18
471.7	31
471.825	21
471.95	19
472.075	23
472.2	39
472.325	12
472.45	26
472.575	20
472.7	32
472.825	33
472.95	36
473.075	52
473.2	32
473.325	30
473.45	26
473.575	23
473.7	52
473.825	16
473.95	13
474.075	32
474.2	9
474.325	34
474.45	29
474.574	32
474.699	26
474.824	26
474.949	3
475.074	25
475.199	28
475.324	11
475.449	20
475.574	16
475.699	10
475.824	19
475.949	23
476.073	22
476.198	18
476.323	7
476.448	26
476.573	-2
476.698	39
476.823	20
476.947	18
477.072	33
477.197	38
477.322	22
477.447	15
477.572	24
477.697	20
477.821	20
477.946	15
478.071	0
478.196	27
478.321	11
478.445	16
478.57	10
478.695	6
478.82	24
478.945	31
479.069	8
479.194	0
479.319	40
479.444	21
479.569	32
479.693	17
479.818	21
479.943	31
480.068	37
480.192	23
480.317	16
480.442	18
480.567	13
480.691	30
480.816	10
480.941	28
481.066	26
481.19	42
481.315	26
481.44	7
481.564	19
481.689	42
481.814	36
481.938	18
482.063	0
482.188	19
482.313	30
482.437	32
482.562	8
482.687	23
482.811	16
482.936	32
483.061	12
483.185	11
483.31	35
483.435	16
483.559	25
483.684	13
483.808	46
483.933	21
484.058	22
484.182	26
484.307	4
484.432	18
484.556	21
484.681	19
484.805	14
484.93	26
485.055	32
485.179	39
485.304	34
485.428	22
485.553	13
485.678	27
485.802	9
485.927	29
486.051	31
486.176	35
486.3	6
486.425	11
486.549	8
486.674	31
486.799	20
486.923	9
487.048	6
487.172	25
487.297	2
487.421	15
487.546	5
487.67	36
487.795	26
487.919	36
488.044	28
488.168	34
488.293	20
488.417	20
488.542	35
488.666	30
488.791	18
488.915	21
489.04	24
489.164	32
489.289	12
489.413	-2
489.538	25
489.662	32
489.786	12
489.911	13
490.035	23
490.16	13
490.284	7
490.409	12
490.533	17
490.658	41
490.782	29
490.906	45
491.031	99
491.155	138
491.28	144
491.404	165
491.528	252
491.653	142
491.777	76
491.902	23
492.026	22
492.15	22
492.275	30
492.399	37
492.524	20
492.648	27
492.772	24
492.897	26
493.021	22
493.145	33
493.27	32
493.394	22
493.518	11
493.643	1
493.767	27
493.891	27
494.016	17
494.14	12
494.264	15
494.389	10
494.513	10
494.637	-4
494.762	16
494.886	30
495.01	20
495.134	7
495.259	29
495.383	18
495.507	27
495.632	30
495.756	39
495.88	30
496.004	21
496.129	-5
496.253	16
496.377	28
496.501	40
496.626	10
496.75	24
496.874	18
496.998	10
497.123	37
497.247	20
497.371	11
497.495	22
497.62	21
497.744	18
497.868	15
497.992	-1
498.116	17
498.241	24
498.365	0
498.489	10
498.613	46
498.737	20
498.862	9
498.986	5
499.11	12
499.234	17
499.358	17
499.482	37
499.607	6
499.731	24
499.855	27
499.979	12
500.103	16
500.227	21
500.351	39
500.476	29
500.6	32
500.724	6
500.848	33
500.972	33
501.096	15
501.22	23
501.344	-8
501.469	14
501.593	22
501.717	31
501.841	23
501.965	13
502.089	11
502.213	18
502.337	23
502.461	14
502.585	22
502.709	16
502.834	7
502.958	28
503.082	31
503.206	19
503.33	28
503.454	27
503.578	24
503.702	36
503.826	23
503.95	45
504.074	20
504.198	10
504.322	3
504.446	22
504.57	13
504.694	12
504.818	12
504.942	36
505.066	26
505.19	12
505.314	33
505.438	48
505.562	33
505.686	27
505.81	10
505.934	24
506.058	23
506.182	12
506.306	15
506.43	23
506.554	23
506.678	-4
506.802	30
506.926	31
507.05	28
507.174	13
507.298	21
507.422	47
507.546	25
507.67	24
507.794	6
507.918	29
508.042	20
508.165	10
508.289	10
508.413	2
508.537	14
508.661	33
508.785	23
508.909	25
509.033	45
509.157	33
509.281	17
509.405	34
509.528	58
509.652	31
509.776	21
509.9	39
510.024	30
510.148	36
510.272	21
510.396	40
510.519	39
510.643	42
510.767	26
510.891	26
511.015	18
511.139	36
511.263	40
511.386	38
511.51	24
511.634	54
511.758	46
511.882	29
512.006	29
512.129	51
512.253	99
512.377	78
512.501	72
512.625	89
512.748	98
512.872	72
512.996	55
513.12	59
513.244	47
513.367	73
513.491	78
513.615	70
513.739	72
513.862	80
513.986	84
514.11	101
514.234	82
514.358	120
514.481	109
514.605	114
514.729	112
514.853	110
514.976	90
515.1	91
515.224	94
515.348	72
515.471	61
515.595	102
515.719	110
515.842	216
515.966	270
516.09	287
516.214	287
516.337	318
516.461	214
516.585	88
516.708	40
516.832	23
516.956	26
517.08	11
517.203	12
517.327	26
517.451	17
517.574	21
517.698	15
517.822	24
517.945	30
518.069	32
518.193	51
518.316	10
518.44	39
518.564	15
518.687	11
518.811	17
518.935	38
519.058	8
519.182	19
519.306	29
519.429	-2
519.553	52
519.676	28
519.8	20
519.924	1
520.047	15
520.171	11
520.294	10
520.418	34
520.542	16
520.665	24
520.789	10
520.913	8
521.036	2
521.16	4
521.283	-6
521.407	13
521.53	12
521.654	4
521.778	32
521.901	18
522.025	15
522.148	-2
522.272	17
522.395	11
522.519	14
522.643	14
522.766	0
522.89	-2
523.013	30
523.137	5
523.26	13
523.384	32
523.507	9
523.631	5
523.754	7
523.878	21
524.002	30
524.125	-1
524.249	2
524.372	33
524.496	21
524.619	18
524.743	19
524.866	14
524.99	3
525.113	18
525.237	33
525.36	15
525.484	16
525.607	17
525.731	-2
525.854	22
525.978	32
526.101	8
526.224	20
526.348	16
526.471	23
526.595	18
526.718	6
526.842	-1
526.965	15
527.089	24
527.212	4
527.336	5
527.459	18
527.582	9
527.706	14
527.829	1
527.953	16
528.076	7
528.2	8
528.323	26
528.446	28
528.57	28
528.693	18
528.817	16
528.94	38
529.064	39
529.187	8
529.31	3
529.434	21
529.557	12
529.68	7
529.804	19
529.927	16
530.051	7
530.174	15
530.297	16
530.421	17
530.544	27
530.668	15
530.791	19
530.914	33
531.038	17
531.161	11
531.284	11
531.408	15
531.531	12
531.654	9
531.778	30
531.901	10
532.024	32
532.148	25
532.271	15
532.394	26
532.518	17
532.641	13
532.764	28
532.888	3
533.011	7
533.134	-4
533.258	18
533.381	5
533.504	12
533.628	8
533.751	22
533.874	26
533.997	18
534.121	17
534.244	17
534.367	13
534.491	15
534.614	15
534.737	15
534.86	15
534.984	23
535.107	22
535.23	20
535.354	18
535.477	6
535.6	8
535.723	2
535.847	31
535.97	6
536.093	3
536.216	6
536.34	36
536.463	11
536.586	17
536.709	25
536.833	14
536.956	23
537.079	-7
537.202	16
537.325	-1
537.449	11
537.572	6
537.695	13
537.818	8
537.941	20
538.065	21
538.188	6
538.311	26
538.434	32
538.558	24
538.681	8
538.804	18
538.927	36
539.05	27
539.173	19
539.297	9
539.42	29
539.543	-1
539.666	26
539.789	13
539.913	22
540.036	40
540.159	24
540.282	28
540.405	27
540.528	16
540.651	19
540.775	4
540.898	32
541.021	27
541.144	33
541.267	28
541.39	32
541.513	34
541.637	26
541.76	20
541.883	31
542.006	53
542.129	50
542.252	34
542.375	39
542.498	29
542.622	38
542.745	34
542.868	37
542.991	45
543.114	53
543.237	73
543.36	66
543.483	68
543.606	75
543.73	71
543.853	70
543.976	84
544.099	99
544.222	125
544.345	127
544.468	163
544.591	219
544.714	284
544.837	357
544.96	443
545.083	642
545.206	1067
545.329	2452
545.453	10988
545.576	15266
545.699	15681
545.822	15681
545.945	15681
546.068	15681
546.191	15681
546.314	15681
546.437	15681
546.56	15681
546.683	15681
546.806	15681
546.929	15681
547.052	15681
547.175	15681
547.298	15681
547.421	15681
547.544	15681
547.667	3672
547.79	3435
547.913	1185
548.036	896
548.159	642
548.282	648
548.405	524
548.528	512
548.651	416
548.774	424
548.897	352
549.02	355
549.143	304
549.266	279
549.389	294
549.512	270
549.635	240
549.758	259
549.881	209
550.004	225
550.127	192
550.25	175
550.373	164
550.496	166
550.619	154
550.742	160
550.865	136
550.988	157
551.111	185
551.234	144
551.356	126
551.479	122
551.602	124
551.725	134
551.848	143
551.971	147
552.094	126
552.217	101
552.34	120
552.463	100
552.586	112
552.709	88
552.832	104
552.955	107
553.077	112
553.2	114
553.323	84
553.446	92
553.569	89
553.692	92
553.815	112
553.938	96
554.061	123
554.184	95
554.306	93
554.429	95
554.552	67
554.675	51
554.798	49
554.921	83
555.044	71
555.167	84
555.29	77
555.412	73
555.535	80
555.658	74
555.781	79
555.904	78
556.027	83
556.15	82
556.272	75
556.395	58
556.518	65
556.641	45
556.764	80
556.887	68
557.01	67
557.132	60
557.255	66
557.378	85
557.501	67
557.624	64
557.747	63
557.869	73
557.992	76
558.115	90
558.238	86
558.361	75
558.483	93
558.606	83
558.729	48
558.852	83
558.975	55
559.098	45
559.22	61
559.343	40
559.466	37
559.589	36
559.712	62
559.834	47
559.957	42
560.08	47
560.203	74
560.325	70
560.448	83
560.571	50
560.694	55
560.817	59
560.939	58
561.062	61
561.185	56
561.308	54
561.43	42
561.553	77
561.676	54
561.799	67
561.921	64
562.044	62
562.167	36
562.29	64
562.413	68
562.535	68
562.658	45
562.781	52
562.903	64
563.026	83
563.149	136
563.272	114
563.394	118
563.517	96
563.64	64
563.763	45
563.885	47
564.008	68
564.131	34
564.254	30
564.376	32
564.499	17
564.622	22
564.744	35
564.867	32
564.99	44
565.113	30
565.235	46
565.358	31
565.481	14
565.603	44
565.726	24
565.849	53
565.971	45
566.094	12
566.217	25
566.34	20
566.462	27
566.585	34
566.708	55
566.83	34
566.953	46
567.076	44
567.198	57
567.321	27
567.444	42
567.566	31
567.689	16
567.812	35
567.934	31
568.057	23
568.18	41
568.302	43
568.425	45
568.548	41
568.67	36
568.793	48
568.916	38
569.038	18
569.161	16
569.283	20
569.406	34
569.529	25
569.651	18
569.774	26
569.897	37
570.019	39
570.142	29
570.265	34
570.387	38
570.51	30
570.632	43
570.755	25
570.878	29
571	39
571.123	30
571.246	30
571.368	29
571.491	32
571.613	38
571.736	3
571.859	9
571.981	19
572.104	18
572.226	22
572.349	18
572.472	29
572.594	43
572.717	46
572.839	25
572.962	35
573.085	43
573.207	39
573.33	41
573.452	56
573.575	44
573.697	46
573.82	42
573.943	13
574.065	32
574.188	19
574.31	58
574.433	35
574.555	57
574.678	41
574.801	50
574.923	26
575.046	33
575.168	26
575.291	36
575.413	42
575.536	36
575.659	50
575.781	46
575.904	62
576.026	75
576.149	66
576.271	143
576.394	204
576.516	543
576.639	3686
576.761	10254
576.884	8880
577.007	8803
577.129	8042
577.252	3791
577.374	1334
577.497	516
577.619	284
577.742	161
577.864	152
577.987	127
578.109	127
578.232	134
578.354	159
578.477	188
578.599	414
578.722	2008
578.844	9150
578.967	9875
579.089	8846
579.212	9159
579.334	5319
579.457	1935
579.579	719
579.702	330
579.824	219
579.947	146
580.069	95
580.192	85
580.314	79
580.437	62
580.559	102
580.682	71
580.804	69
580.927	84
581.049	64
581.172	44
581.294	56
581.417	60
581.539	38
581.662	48
581.784	42
581.907	48
582.029	38
582.152	25
582.274	36
582.396	51
582.519	50
582.641	28
582.764	33
582.886	41
583.009	46
583.131	28
583.254	19
583.376	37
583.499	38
583.621	38
583.743	42
583.866	33
583.988	42
584.111	45
584.233	33
584.356	32
584.478	49
584.601	33
584.723	30
584.845	43
584.968	14
585.09	28
585.213	32
585.335	22
585.458	16
585.58	25
585.702	25
585.825	41
585.947	39
586.07	28
586.192	26
586.315	36
586.437	22
586.559	35
586.682	16
586.804	28
586.927	15
587.049	11
587.171	27
587.294	40
587.416	50
587.539	24
587.661	24
587.783	19
587.906	8
588.028	35
588.151	24
588.273	54
588.395	37
588.518	13
588.64	26
588.763	36
588.885	26
589.007	35
589.13	3
589.252	19
589.375	29
589.497	34
589.619	25
589.742	17
589.864	35
589.986	22
590.109	3
590.231	21
590.354	30
590.476	7
590.598	21
590.721	23
590.843	28
590.965	20
591.088	29
591.21	30
591.332	22
591.455	7
591.577	16
591.7	23
591.822	9
591.944	30
592.067	47
592.189	25
592.311	30
592.434	17
592.556	27
592.678	20
592.801	27
592.923	14
593.045	14
593.168	28
593.29	16
593.412	26
593.535	18
593.657	14
593.779	19
593.902	40
594.024	38
594.146	36
594.269	29
594.391	10
594.513	28
594.636	32
594.758	28
594.88	28
595.003	23
595.125	18
595.247	19
595.37	20
595.492	9
595.614	38
595.737	16
595.859	23
595.981	24
596.104	18
596.226	7
596.348	13
596.471	11
596.593	23
596.715	18
596.838	12
596.96	-2
597.082	16
597.204	19
597.327	12
597.449	-2
597.571	17
597.694	35
597.816	26
597.938	33
598.061	11
598.183	31
598.305	41
598.427	24
598.55	32
598.672	28
598.794	64
598.917	12
599.039	31
599.161	26
599.283	23
599.406	27
599.528	36
599.65	45
599.773	28
599.895	42
600.017	29
600.139	26
600.262	9
600.384	43
600.506	32
600.628	31
600.751	30
600.873	14
600.995	18
601.118	30
601.24	44
601.362	38
601.484	22
601.607	24
601.729	28
601.851	14
601.973	22
602.096	18
602.218	16
602.34	22
602.462	36
602.585	16
602.707	13
602.829	27
602.951	41
603.074	8
603.196	2
603.318	-8
603.44	34
603.563	33
603.685	18
603.807	27
603.929	13
604.052	42
604.174	40
604.296	32
604.418	37
604.541	28
604.663	18
604.785	14
604.907	27
605.03	2
605.152	53
605.274	19
605.396	6
605.519	3
605.641	14
605.763	15
605.885	17
606.008	22
606.13	39
606.252	33
606.374	-12
606.496	7
606.619	22
606.741	11
606.863	53
606.985	28
607.108	33
607.23	22
607.352	16
607.474	11
607.596	14
607.719	19
607.841	12
607.963	13
608.085	7
608.207	22
608.33	14
608.452	10
608.574	12
608.696	17
608.819	3
608.941	27
609.063	13
609.185	21
609.307	10
609.43	40
609.552	31
609.674	14
609.796	25
609.918	25
610.041	24
610.163	23
610.285	19
610.407	19
610.529	3
610.652	16
610.774	34
610.896	27
611.018	37
611.14	3
611.263	15
611.385	23
611.507	29
611.629	20
611.751	28
611.873	20
611.996	18
612.118	20
612.24	27
612.362	30
612.484	38
612.607	46
612.729	41
612.851	38
612.973	15
613.095	23
613.218	6
613.34	25
613.462	7
613.584	19
613.706	27
613.828	40
613.951	13
614.073	12
614.195	12
614.317	35
614.439	21
614.561	12
614.684	32
614.806	13
614.928	18
615.05	14
615.172	27
615.294	20
615.417	-5
615.539	19
615.661	8
615.783	22
615.905	10
616.027	6
616.15	29
616.272	3
616.394	7
616.516	13
616.638	14
616.76	8
616.883	23
617.005	26
617.127	21
617.249	20
617.371	11
617.493	17
617.615	36
617.738	31
617.86	33
617.982	31
618.104	10
618.226	5
618.348	3
618.471	18
618.593	28
618.715	11
618.837	9
618.959	11
619.081	25
619.203	23
619.326	22
619.448	31
619.57	40
619.692	25
619.814	22
619.936	11
620.058	24
620.181	29
620.303	22
620.425	33
620.547	5
620.669	5
620.791	10
620.913	-4
621.036	7
621.158	34
621.28	18
621.402	-2
621.524	15
621.646	20
621.768	10
621.891	8
622.013	20
622.135	14
622.257	2
622.379	12
622.501	10
622.623	24
622.745	18
622.868	18
622.99	15
623.112	20
623.234	18
623.356	20
623.478	19
623.6	13
623.722	13
623.845	25
623.967	-3
624.089	33
624.211	21
624.333	28
624.455	13
624.577	19
624.699	25
624.822	29
624.944	8
625.066	8
625.188	-3
625.31	14
625.432	14
625.554	27
625.676	46
625.799	37
625.921	24
626.043	10
626.165	16
626.287	3
626.409	26
626.531	-1
626.653	10
626.775	30
626.898	24
627.02	36
627.142	51
627.264	20
627.386	8
627.508	20
627.63	10
627.752	15
627.874	18
627.997	20
628.119	11
628.241	15
628.363	25
628.485	24
628.607	3
628.729	10
628.851	15
628.973	9
629.096	-13
629.218	14
629.34	35
629.462	10
629.584	17
629.706	14
629.828	24
629.95	19
630.072	4
630.195	14
630.317	31
630.439	1
630.561	29
630.683	16
630.805	20
630.927	26
631.049	26
631.171	5
631.293	17
631.416	10
631.538	8
631.66	14
631.782	20
631.904	23
632.026	12
632.148	5
632.27	2
632.392	10
632.514	3
632.637	27
632.759	14
632.881	0
633.003	4
633.125	10
633.247	-1
633.369	12
633.491	27
633.613	29
633.735	13
633.858	32
633.98	38
634.102	-1
634.224	-10
634.346	11
634.468	16
634.59	28
634.712	19
634.834	23
634.956	-22
635.078	6
635.201	5
635.323	22
635.445	24
635.567	8
635.689	35
635.811	14
635.933	14
636.055	18
636.177	8
636.299	19
636.421	31
636.544	18
636.666	15
636.788	16
636.91	7
637.032	-6
637.154	26
637.276	38
637.398	27
637.52	28
637.642	12
637.764	11
637.887	18
638.009	9
638.131	14
638.253	10
638.375	14
638.497	29
638.619	-1
638.741	11
638.863	2
638.985	6
639.107	15
639.23	14
639.352	10
639.474	-3
639.596	0
639.718	7
639.84	17
639.962	13
640.084	30
640.206	18
640.328	10
640.45	12
640.573	7
640.695	17
640.817	27
640.939	22
641.061	2
641.183	14
641.305	11
641.427	6
641.549	6
641.671	7
641.793	6
641.915	24
642.038	27
642.16	28
642.282	19
642.404	6
642.526	16
642.648	2
642.77	10
642.892	2
643.014	13
643.136	22
643.258	6
643.381	15
643.503	26
643.625	10
643.747	3
643.869	7
643.991	32
644.113	10
644.235	11
644.357	12
644.479	15
644.601	5
644.723	26
644.846	5
644.968	8
645.09	15
645.212	13
645.334	24
645.456	36
645.578	31
645.7	32
645.822	22
645.944	21
646.066	19
646.188	13
646.311	42
646.433	2
646.555	32
646.677	12
646.799	29
646.921	1
647.043	23
647.165	3
647.287	-2
647.409	26
647.531	19
647.654	1
647.776	17
647.898	15
648.02	19
648.142	9
648.264	18
648.386	11
648.508	11
648.63	20
648.752	18
648.874	15
648.997	16
649.119	13
649.241	0
649.363	34
649.485	35
649.607	8
649.729	-10
649.851	15
649.973	16
650.095	27
650.217	14
650.34	5
650.462	13
650.584	3
650.706	20
650.828	24
650.95	10
651.072	7
651.194	-8
651.316	2
651.438	16
651.56	10
651.683	-1
651.805	10
651.927	2
652.049	-3
652.171	11
652.293	-1
652.415	4
652.537	-11
652.659	24
652.781	15
652.903	14
653.026	35
653.148	20
653.27	-4
653.392	8
653.514	18
653.636	13
653.758	22
653.88	-6
654.002	-2
654.124	-4
654.247	0
654.369	14
654.491	8
654.613	9
654.735	-6
654.857	15
654.979	5
655.101	3
655.223	30
655.345	18
655.468	31
655.59	18
655.712	31
655.834	23
655.956	10
656.078	4
656.2	3
656.322	15
656.444	4
656.566	10
656.689	-2
656.811	-6
656.933	17
657.055	-11
657.177	16
657.299	18
657.421	-4
657.543	17
657.665	8
657.787	14
657.91	14
658.032	8
658.154	-19
658.276	2
658.398	-5
658.52	24
658.642	10
658.764	2
658.886	-23
659.009	5
659.131	29
659.253	20
659.375	28
659.497	10
659.619	21
659.741	3
659.863	2
659.985	-9
660.108	13
660.23	2
660.352	23
660.474	21
660.596	16
660.718	24
660.84	11
660.962	10
661.084	-17
661.207	-3
661.329	13
661.451	-1
661.573	6
661.695	25
661.817	20
661.939	22
662.061	23
662.184	10
662.306	2
662.428	7
662.55	12
662.672	0
662.794	12
662.916	3
663.038	-7
663.161	2
663.283	3
663.405	16
663.527	9
663.649	22
663.771	3
663.893	3
664.015	7
664.138	-4
664.26	14
664.382	8
664.504	3
664.626	0
664.748	4
664.87	2
664.992	5
665.115	19
665.237	8
665.359	-14
665.481	16
665.603	11
665.725	-11
665.847	-6
665.97	14
666.092	26
666.214	8
666.336	16
666.458	16
666.58	11
666.702	-4
666.825	6
666.947	-1
667.069	18
667.191	-5
667.313	18
667.435	-9
667.557	-10
667.68	5
667.802	6
667.924	7
668.046	28
668.168	8
668.29	24
668.412	-6
668.535	-4
668.657	-2
668.779	9
668.901	16
669.023	28
669.145	20
669.267	28
669.39	2
669.512	11
669.634	17
669.756	-3
669.878	3
670	12
670.123	6
670.245	25
670.367	19
670.489	8
670.611	8
670.733	-1
670.856	7
670.978	-4
671.1	4
671.222	2
671.344	15
671.466	6
671.589	-12
671.711	6
671.833	9
671.955	3
672.077	3
672.199	19
672.322	30
672.444	12
672.566	19
672.688	-8
672.81	19
672.932	16
673.055	2
673.177	-1
673.299	20
673.421	-14
673.543	5
673.665	30
673.788	16
673.91	-19
674.032	-14
674.154	-3
674.276	23
674.399	8
674.521	-3
674.643	11
674.765	4
674.887	-12
675.009	0
675.132	-1
675.254	-6
675.376	14
675.498	11
675.62	10
675.743	-1
675.865	20
675.987	18
676.109	4
676.231	18
676.354	40
676.476	16
676.598	30
676.72	19
676.842	26
676.965	24
677.087	11
677.209	4
677.331	12
677.453	21
677.576	-2
677.698	24
677.82	20
677.942	3
678.064	2
678.187	6
678.309	7
678.431	3
678.553	5
678.675	14
678.798	30
678.92	-1
679.042	3
679.164	3
679.286	11
679.409	3
679.531	-17
679.653	-6
679.775	3
679.898	-4
680.02	5
680.142	5
680.264	5
680.386	-10
680.509	24
680.631	11
680.753	2
680.875	17
680.998	29
681.12	8
681.242	3
681.364	-11
681.486	-10
681.609	0
681.731	4
681.853	1
681.975	-2
682.098	5
682.22	15
682.342	16
682.464	31
682.587	10
682.709	8
682.831	-17
682.953	2
683.076	0
683.198	12
683.32	22
683.442	14
683.565	18
683.687	-10
683.809	18
683.931	4
684.054	13
684.176	26
684.298	10
684.42	20
684.543	-4
684.665	17
684.787	2
684.909	-3
685.032	14
685.154	-6
685.276	20
685.398	-1
685.521	-5
685.643	13
685.765	3
685.887	8
686.01	3
686.132	11
686.254	30
686.377	2
686.499	-5
686.621	22
686.743	1
686.866	11
686.988	14
687.11	8
687.232	1
687.355	-10
687.477	15
687.599	13
687.722	-8
687.844	3
687.966	4
688.088	2
688.211	28
688.333	30
688.455	18
688.578	24
688.7	7
688.822	-2
688.944	-7
689.067	36
689.189	15
689.311	-16
689.434	-17
689.556	0
689.678	11
689.801	16
689.923	7
690.045	28
690.167	26
690.29	30
690.412	16
690.534	20
690.657	5
690.779	-4
690.901	24
691.024	10
691.146	-1
691.268	-8
691.391	22
691.513	34
691.635	15
691.758	32
691.88	18
692.002	3
692.125	15
692.247	-2
692.369	-5
692.492	-1
692.614	9
692.736	3
692.859	2
692.981	-2
693.103	22
693.226	2
693.348	29
693.47	22
693.593	32
693.715	32
693.837	31
693.96	14
694.082	3
694.204	8
694.327	7
694.449	2
694.571	7
694.694	12
694.816	2
694.938	14
695.061	7
695.183	24
695.305	18
695.428	29
695.55	-9
695.672	11
695.795	17
695.917	6
696.04	3
696.162	8
696.284	11
696.407	6
696.529	14
696.651	16
696.774	2
696.896	20
697.019	9
697.141	7
697.263	-1
697.386	12
697.508	18
697.63	0
697.753	13
697.875	19
697.998	-8
698.12	6
698.242	2
698.365	12
698.487	13
698.61	8
698.732	18
698.854	15
698.977	6
699.099	12
699.221	11
699.344	3
699.466	0
699.589	9
699.711	11
699.834	0
699.956	-2
700.078	2
700.201	-2
700.323	29
700.446	-2
700.568	6
700.69	9
700.813	15
700.935	12
701.058	11
701.18	9
701.302	10
701.425	2
701.547	12
701.67	22
701.792	7
701.915	-10
702.037	7
702.159	24
702.282	13
702.404	4
702.527	4
702.649	30
702.772	18
702.894	13
703.017	10
703.139	4
703.261	28
703.384	15
703.506	-5
703.629	1
703.751	19
703.874	24
703.996	-4
704.119	-14
704.241	18
704.364	-9
704.486	15
704.608	11
704.731	-1
704.853	20
704.976	7
705.098	32
705.221	2
705.343	6
705.466	18
705.588	30
705.711	21
705.833	29
705.956	9
706.078	6
706.201	12
706.323	13
706.446	16
