Data from LowRes_mercury_15_20_11_07_2024_HR4C61881__89__15-23-41-170.txt Node

Date: Thu Nov 07 15:23:41 EST 2024
User: crc00042
Spectrometer: HR4C6188
Trigger mode: 4
Integration Time (sec): 1.000000E-1
Scans to average: 1
Electric dark correction enabled: true
Nonlinearity correction enabled: false
Boxcar width: 0
XAxis mode: Wavelengths
Number of Pixels in Spectrum: 3648
>>>>>Begin Spectral Data<<<<<
245.66	-76.77
245.797	-76.77
245.934	-76.77
246.071	-78.77
246.208	9.23
246.344	-3.77
246.481	-26.77
246.618	-17.77
246.755	19.23
246.892	9.23
247.029	-18.77
247.165	-6.77
247.302	5.23
247.439	16.23
247.576	8.23
247.713	-6.77
247.849	28.23
247.986	-5.77
248.123	7.23
248.26	-9.77
248.396	-1.77
248.533	-2.77
248.67	-15.77
248.806	-10.77
248.943	-17.77
249.08	-0.77
249.216	3.23
249.353	-14.77
249.49	1.23
249.626	-0.77
249.763	-7.77
249.9	3.23
250.036	-3.77
250.173	7.23
250.309	-8.77
250.446	2.23
250.582	-24.77
250.719	-12.77
250.856	-10.77
250.992	-20.77
251.129	-33.77
251.265	-11.77
251.402	-14.77
251.538	-18.77
251.675	-1.77
251.811	28.23
251.948	2.23
252.084	-1.77
252.221	-1.77
252.357	-24.77
252.493	2.23
252.63	-0.77
252.766	9.23
252.903	-18.77
253.039	-12.77
253.175	-1.77
253.312	3.23
253.448	-5.77
253.585	-16.77
253.721	-9.77
253.857	-27.77
253.994	10.23
254.13	0.23
254.266	9.23
254.403	7.23
254.539	0.23
254.675	14.23
254.811	4.23
254.948	0.23
255.084	-6.77
255.22	-10.77
255.356	-0.77
255.493	-7.77
255.629	-3.77
255.765	4.23
255.901	6.23
256.037	19.23
256.174	5.23
256.31	-25.77
256.446	-11.77
256.582	-4.77
256.718	14.23
256.854	16.23
256.991	13.23
257.127	28.23
257.263	-1.77
257.399	-2.77
257.535	-8.77
257.671	-15.77
257.807	-22.77
257.943	-22.77
258.079	-10.77
258.215	-5.77
258.351	2.23
258.487	-4.77
258.623	5.23
258.759	0.23
258.895	-1.77
259.031	-14.77
259.167	-28.77
259.303	17.23
259.439	-8.77
259.575	-15.77
259.711	12.23
259.847	-15.77
259.983	14.23
260.119	-25.77
260.255	-6.77
260.391	21.23
260.527	12.23
260.663	16.23
260.799	-4.77
260.934	4.23
261.07	-11.77
261.206	-5.77
261.342	-9.77
261.478	12.23
261.614	19.23
261.749	17.23
261.885	6.23
262.021	3.23
262.157	27.23
262.293	-7.77
262.428	-6.77
262.564	-3.77
262.7	2.23
262.836	-10.77
262.971	11.23
263.107	12.23
263.243	18.23
263.378	1.23
263.514	-15.77
263.65	-6.77
263.785	-2.77
263.921	-2.77
264.057	0.23
264.192	3.23
264.328	-9.77
264.464	-15.77
264.599	3.23
264.735	-1.77
264.871	-8.77
265.006	13.23
265.142	-4.77
265.277	3.23
265.413	17.23
265.548	16.23
265.684	25.23
265.819	2.23
265.955	-8.77
266.091	-18.77
266.226	-15.77
266.362	-6.77
266.497	-12.77
266.633	-13.77
266.768	9.23
266.903	9.23
267.039	18.23
267.174	13.23
267.31	5.23
267.445	-24.77
267.581	-9.77
267.716	-5.77
267.851	-1.77
267.987	2.23
268.122	19.23
268.258	2.23
268.393	-4.77
268.528	3.23
268.664	-13.77
268.799	-13.77
268.934	-10.77
269.07	-20.77
269.205	2.23
269.34	18.23
269.476	3.23
269.611	-22.77
269.746	16.23
269.881	-5.77
270.017	8.23
270.152	0.23
270.287	21.23
270.422	0.23
270.558	6.23
270.693	8.23
270.828	-13.77
270.963	-2.77
271.098	2.23
271.234	-6.77
271.369	5.23
271.504	-7.77
271.639	-1.77
271.774	-1.77
271.909	-11.77
272.045	-16.77
272.18	-15.77
272.315	1.23
272.45	16.23
272.585	-19.77
272.72	-15.77
272.855	4.23
272.99	14.23
273.125	-21.77
273.26	-13.77
273.395	1.23
273.53	2.23
273.665	6.23
273.8	10.23
273.935	-4.77
274.07	1.23
274.205	-9.77
274.34	-6.77
274.475	-26.77
274.61	0.23
274.745	4.23
274.88	25.23
275.015	0.23
275.15	-8.77
275.285	7.23
275.42	0.23
275.555	25.23
275.69	11.23
275.825	-17.77
275.959	3.23
276.094	-9.77
276.229	1.23
276.364	-2.77
276.499	-10.77
276.634	4.23
276.768	-4.77
276.903	3.23
277.038	33.23
277.173	16.23
277.308	1.23
277.442	-14.77
277.577	-2.77
277.712	-20.77
277.847	-18.77
277.981	2.23
278.116	-21.77
278.251	-2.77
278.386	6.23
278.52	4.23
278.655	-14.77
278.79	13.23
278.924	18.23
279.059	16.23
279.194	-18.77
279.328	38.23
279.463	3.23
279.598	-2.77
279.732	18.23
279.867	-5.77
280.001	31.23
280.136	12.23
280.271	-4.77
280.405	4.23
280.54	5.23
280.674	-5.77
280.809	22.23
280.943	11.23
281.078	17.23
281.213	20.23
281.347	10.23
281.482	8.23
281.616	-1.77
281.751	0.23
281.885	-10.77
282.02	1.23
282.154	2.23
282.288	-18.77
282.423	-20.77
282.557	-7.77
282.692	12.23
282.826	4.23
282.961	12.23
283.095	-14.77
283.229	-2.77
283.364	-20.77
283.498	1.23
283.633	-1.77
283.767	-4.77
283.901	-7.77
284.036	-2.77
284.17	-1.77
284.304	-6.77
284.439	9.23
284.573	-11.77
284.707	22.23
284.842	-11.77
284.976	-4.77
285.11	-6.77
285.244	-2.77
285.379	39.23
285.513	-6.77
285.647	4.23
285.781	-17.77
285.916	6.23
286.05	-9.77
286.184	27.23
286.318	29.23
286.453	8.23
286.587	-12.77
286.721	1.23
286.855	-4.77
286.989	4.23
287.123	0.23
287.258	-6.77
287.392	12.23
287.526	-8.77
287.66	8.23
287.794	1.23
287.928	7.23
288.062	-6.77
288.196	-8.77
288.33	-7.77
288.464	10.23
288.598	9.23
288.733	2.23
288.867	14.23
289.001	10.23
289.135	-7.77
289.269	-8.77
289.403	-8.77
289.537	10.23
289.671	22.23
289.805	-17.77
289.939	4.23
290.073	4.23
290.207	12.23
290.34	-6.77
290.474	18.23
290.608	22.23
290.742	-3.77
290.876	-7.77
291.01	-16.77
291.144	35.23
291.278	16.23
291.412	5.23
291.546	14.23
291.679	-2.77
291.813	-6.77
291.947	-0.77
292.081	2.23
292.215	-15.77
292.349	12.23
292.482	-2.77
292.616	-5.77
292.75	-0.77
292.884	18.23
293.018	-13.77
293.151	-3.77
293.285	3.23
293.419	-11.77
293.553	1.23
293.686	-7.77
293.82	3.23
293.954	12.23
294.088	36.23
294.221	18.23
294.355	7.23
294.489	-6.77
294.622	-27.77
294.756	9.23
294.89	10.23
295.023	1.23
295.157	2.23
295.291	2.23
295.424	25.23
295.558	18.23
295.691	12.23
295.825	1.23
295.959	-3.77
296.092	-2.77
296.226	-7.77
296.359	10.23
296.493	14.23
296.627	-1.77
296.76	-5.77
296.894	-16.77
297.027	8.23
297.161	-2.77
297.294	-4.77
297.428	0.23
297.561	9.23
297.695	-5.77
297.828	9.23
297.962	-10.77
298.095	-2.77
298.229	-0.77
298.362	-8.77
298.495	1.23
298.629	-14.77
298.762	2.23
298.896	27.23
299.029	-11.77
299.162	0.23
299.296	10.23
299.429	7.23
299.563	9.23
299.696	-6.77
299.829	-11.77
299.963	12.23
300.096	17.23
300.229	13.23
300.363	-3.77
300.496	19.23
300.629	-17.77
300.763	6.23
300.896	4.23
301.029	7.23
301.162	1.23
301.296	-9.77
301.429	5.23
301.562	-23.77
301.695	2.23
301.829	1.23
301.962	17.23
302.095	-3.77
302.228	-18.77
302.362	-7.77
302.495	-3.77
302.628	12.23
302.761	-2.77
302.894	10.23
303.027	9.23
303.161	5.23
303.294	-1.77
303.427	10.23
303.56	7.23
303.693	-13.77
303.826	2.23
303.959	-17.77
304.092	-12.77
304.225	-10.77
304.359	5.23
304.492	1.23
304.625	1.23
304.758	18.23
304.891	8.23
305.024	10.23
305.157	-10.77
305.29	-7.77
305.423	-13.77
305.556	19.23
305.689	13.23
305.822	4.23
305.955	7.23
306.088	5.23
306.221	14.23
306.354	-10.77
306.487	-5.77
306.62	-7.77
306.752	-9.77
306.885	-3.77
307.018	2.23
307.151	-2.77
307.284	1.23
307.417	2.23
307.55	14.23
307.683	4.23
307.816	7.23
307.948	7.23
308.081	9.23
308.214	4.23
308.347	6.23
308.48	-21.77
308.613	-24.77
308.745	1.23
308.878	-11.77
309.011	-0.77
309.144	1.23
309.277	-9.77
309.409	1.23
309.542	4.23
309.675	28.23
309.808	12.23
309.94	15.23
310.073	-16.77
310.206	9.23
310.339	4.23
310.471	-3.77
310.604	-1.77
310.737	-13.77
310.869	-7.77
311.002	13.23
311.135	-6.77
311.267	-18.77
311.4	2.23
311.533	12.23
311.665	-5.77
311.798	-8.77
311.93	20.23
312.063	35.23
312.196	55.23
312.328	72.23
312.461	45.23
312.593	33.23
312.726	52.23
312.859	95.23
312.991	153.23
313.124	32.23
313.256	20.23
313.389	9.23
313.521	-1.77
313.654	-10.77
313.786	-12.77
313.919	-5.77
314.051	-10.77
314.184	1.23
314.316	9.23
314.449	-5.77
314.581	-17.77
314.714	-20.77
314.846	-9.77
314.978	-13.77
315.111	-2.77
315.243	4.23
315.376	2.23
315.508	-5.77
315.641	1.23
315.773	4.23
315.905	4.23
316.038	9.23
316.17	1.23
316.302	10.23
316.435	-6.77
316.567	9.23
316.699	14.23
316.832	-5.77
316.964	11.23
317.096	4.23
317.229	-8.77
317.361	-12.77
317.493	-3.77
317.625	-14.77
317.758	0.23
317.89	19.23
318.022	-1.77
318.155	-6.77
318.287	1.23
318.419	-10.77
318.551	-5.77
318.683	-12.77
318.816	-6.77
318.948	-10.77
319.08	-1.77
319.212	6.23
319.344	8.23
319.477	0.23
319.609	-5.77
319.741	3.23
319.873	-8.77
320.005	-0.77
320.137	-2.77
320.269	1.23
320.401	-7.77
320.534	-14.77
320.666	-11.77
320.798	-18.77
320.93	-6.77
321.062	-22.77
321.194	-2.77
321.326	3.23
321.458	-2.77
321.59	11.23
321.722	9.23
321.854	0.23
321.986	-3.77
322.118	17.23
322.25	-23.77
322.382	-18.77
322.514	-18.77
322.646	0.23
322.778	14.23
322.91	-6.77
323.042	8.23
323.174	-5.77
323.306	-13.77
323.438	-33.77
323.57	10.23
323.702	-2.77
323.834	7.23
323.966	-30.77
324.097	-2.77
324.229	14.23
324.361	5.23
324.493	9.23
324.625	-9.77
324.757	3.23
324.889	14.23
325.021	-11.77
325.152	15.23
325.284	20.23
325.416	-11.77
325.548	4.23
325.68	-3.77
325.811	19.23
325.943	12.23
326.075	4.23
326.207	4.23
326.339	5.23
326.47	14.23
326.602	10.23
326.734	11.23
326.866	13.23
326.997	-2.77
327.129	-15.77
327.261	-21.77
327.392	0.23
327.524	1.23
327.656	3.23
327.787	21.23
327.919	-0.77
328.051	1.23
328.182	6.23
328.314	38.23
328.446	22.23
328.577	7.23
328.709	21.23
328.841	1.23
328.972	-4.77
329.104	-4.77
329.235	-5.77
329.367	-9.77
329.499	4.23
329.63	6.23
329.762	5.23
329.893	25.23
330.025	-0.77
330.156	-12.77
330.288	-4.77
330.419	23.23
330.551	-4.77
330.683	2.23
330.814	-6.77
330.946	4.23
331.077	10.23
331.208	6.23
331.34	11.23
331.471	-6.77
331.603	-3.77
331.734	-14.77
331.866	4.23
331.997	-4.77
332.129	-6.77
332.26	-0.77
332.392	4.23
332.523	-7.77
332.654	-9.77
332.786	-0.77
332.917	-2.77
333.048	24.23
333.18	28.23
333.311	-0.77
333.443	9.23
333.574	0.23
333.705	23.23
333.837	25.23
333.968	120.23
334.099	238.23
334.231	210.23
334.362	48.23
334.493	21.23
334.624	29.23
334.756	15.23
334.887	3.23
335.018	14.23
335.15	9.23
335.281	11.23
335.412	11.23
335.543	4.23
335.675	8.23
335.806	17.23
335.937	7.23
336.068	13.23
336.199	42.23
336.331	0.23
336.462	7.23
336.593	18.23
336.724	1.23
336.855	-4.77
336.986	19.23
337.118	25.23
337.249	22.23
337.38	10.23
337.511	10.23
337.642	7.23
337.773	-3.77
337.904	-4.77
338.035	12.23
338.166	10.23
338.298	-4.77
338.429	-6.77
338.56	1.23
338.691	33.23
338.822	23.23
338.953	11.23
339.084	29.23
339.215	16.23
339.346	6.23
339.477	9.23
339.608	-4.77
339.739	4.23
339.87	10.23
340.001	9.23
340.132	15.23
340.263	-5.77
340.394	18.23
340.525	32.23
340.656	7.23
340.787	-18.77
340.918	28.23
341.049	16.23
341.179	12.23
341.31	27.23
341.441	6.23
341.572	22.23
341.703	8.23
341.834	-1.77
341.965	4.23
342.096	17.23
342.227	24.23
342.357	15.23
342.488	27.23
342.619	23.23
342.75	16.23
342.881	9.23
343.012	21.23
343.142	26.23
343.273	5.23
343.404	19.23
343.535	40.23
343.666	14.23
343.796	24.23
343.927	25.23
344.058	34.23
344.189	33.23
344.319	10.23
344.45	7.23
344.581	10.23
344.712	3.23
344.842	9.23
344.973	3.23
345.104	10.23
345.234	-2.77
345.365	5.23
345.496	13.23
345.626	29.23
345.757	34.23
345.888	4.23
346.018	35.23
346.149	26.23
346.28	55.23
346.41	9.23
346.541	18.23
346.672	20.23
346.802	36.23
346.933	19.23
347.063	19.23
347.194	25.23
347.325	44.23
347.455	43.23
347.586	12.23
347.716	28.23
347.847	45.23
347.977	42.23
348.108	48.23
348.238	54.23
348.369	26.23
348.499	37.23
348.63	46.23
348.76	43.23
348.891	54.23
349.021	43.23
349.152	38.23
349.282	49.23
349.413	56.23
349.543	56.23
349.674	33.23
349.804	44.23
349.935	15.23
350.065	30.23
350.196	28.23
350.326	18.23
350.456	12.23
350.587	29.23
350.717	12.23
350.848	29.23
350.978	42.23
351.108	-4.77
351.239	37.23
351.369	19.23
351.499	5.23
351.63	11.23
351.76	27.23
351.89	13.23
352.021	11.23
352.151	1.23
352.281	32.23
352.412	8.23
352.542	34.23
352.672	11.23
352.803	15.23
352.933	9.23
353.063	35.23
353.193	18.23
353.324	13.23
353.454	23.23
353.584	28.23
353.714	8.23
353.845	26.23
353.975	7.23
354.105	13.23
354.235	14.23
354.365	15.23
354.496	17.23
354.626	24.23
354.756	25.23
354.886	14.23
355.016	23.23
355.146	22.23
355.277	19.23
355.407	12.23
355.537	34.23
355.667	25.23
355.797	10.23
355.927	12.23
356.057	25.23
356.187	12.23
356.318	1.23
356.448	26.23
356.578	31.23
356.708	25.23
356.838	18.23
356.968	24.23
357.098	10.23
357.228	29.23
357.358	21.23
357.488	27.23
357.618	49.23
357.748	32.23
357.878	26.23
358.008	24.23
358.138	24.23
358.268	20.23
358.398	28.23
358.528	-4.77
358.658	22.23
358.788	37.23
358.918	29.23
359.048	16.23
359.178	42.23
359.308	34.23
359.438	41.23
359.568	14.23
359.698	34.23
359.827	27.23
359.957	19.23
360.087	35.23
360.217	33.23
360.347	43.23
360.477	28.23
360.607	10.23
360.737	32.23
360.866	20.23
360.996	16.23
361.126	19.23
361.256	56.23
361.386	26.23
361.516	19.23
361.645	1.23
361.775	26.23
361.905	10.23
362.035	25.23
362.165	37.23
362.294	24.23
362.424	35.23
362.554	42.23
362.684	24.23
362.813	27.23
362.943	65.23
363.073	65.23
363.203	64.23
363.332	69.23
363.462	71.23
363.592	86.23
363.721	126.23
363.851	155.23
363.981	201.23
364.111	247.23
364.24	311.23
364.37	477.23
364.5	873.23
364.629	1803.23
364.759	3799.23
364.888	6194.23
365.018	9300.23
365.148	14781.23
365.277	12890.23
365.407	4708.23
365.537	3046.23
365.666	3956.23
365.796	1764.23
365.925	778.23
366.055	735.23
366.184	1039.23
366.314	1352.23
366.444	2438.23
366.573	2115.23
366.703	653.23
366.832	205.23
366.962	111.23
367.091	83.23
367.221	74.23
367.35	38.23
367.48	81.23
367.609	52.23
367.739	47.23
367.868	12.23
367.998	47.23
368.127	50.23
368.257	60.23
368.386	47.23
368.516	40.23
368.645	38.23
368.775	50.23
368.904	30.23
369.033	16.23
369.163	6.23
369.292	44.23
369.422	50.23
369.551	46.23
369.68	25.23
369.81	48.23
369.939	40.23
370.069	62.23
370.198	37.23
370.327	21.23
370.457	27.23
370.586	42.23
370.715	43.23
370.845	25.23
370.974	50.23
371.103	44.23
371.233	49.23
371.362	48.23
371.491	21.23
371.621	48.23
371.75	38.23
371.879	42.23
372.008	49.23
372.138	55.23
372.267	50.23
372.396	57.23
372.525	46.23
372.655	35.23
372.784	12.23
372.913	17.23
373.042	-0.77
373.172	20.23
373.301	1.23
373.43	11.23
373.559	14.23
373.688	31.23
373.818	40.23
373.947	25.23
374.076	8.23
374.205	38.23
374.334	12.23
374.463	11.23
374.593	-4.77
374.722	3.23
374.851	28.23
374.98	19.23
375.109	19.23
375.238	29.23
375.367	45.23
375.496	10.23
375.625	-6.77
375.755	13.23
375.884	42.23
376.013	40.23
376.142	16.23
376.271	3.23
376.4	20.23
376.529	21.23
376.658	30.23
376.787	14.23
376.916	14.23
377.045	17.23
377.174	5.23
377.303	11.23
377.432	35.23
377.561	22.23
377.69	6.23
377.819	33.23
377.948	15.23
378.077	5.23
378.206	1.23
378.335	17.23
378.464	6.23
378.593	26.23
378.722	8.23
378.851	14.23
378.98	10.23
379.108	5.23
379.237	-18.77
379.366	13.23
379.495	37.23
379.624	20.23
379.753	6.23
379.882	9.23
380.011	14.23
380.14	-4.77
380.268	16.23
380.397	3.23
380.526	23.23
380.655	-0.77
380.784	4.23
380.913	29.23
381.041	13.23
381.17	4.23
381.299	12.23
381.428	26.23
381.557	7.23
381.685	18.23
381.814	25.23
381.943	9.23
382.072	-3.77
382.2	-3.77
382.329	27.23
382.458	28.23
382.587	27.23
382.715	26.23
382.844	19.23
382.973	16.23
383.102	5.23
383.23	4.23
383.359	-1.77
383.488	27.23
383.616	20.23
383.745	1.23
383.874	9.23
384.003	17.23
384.131	12.23
384.26	11.23
384.389	32.23
384.517	11.23
384.646	14.23
384.774	23.23
384.903	39.23
385.032	24.23
385.16	20.23
385.289	9.23
385.418	9.23
385.546	30.23
385.675	18.23
385.803	16.23
385.932	23.23
386.06	23.23
386.189	11.23
386.318	-4.77
386.446	22.23
386.575	32.23
386.703	21.23
386.832	6.23
386.96	-8.77
387.089	24.23
387.217	35.23
387.346	14.23
387.474	32.23
387.603	22.23
387.731	20.23
387.86	25.23
387.988	1.23
388.117	38.23
388.245	19.23
388.374	7.23
388.502	20.23
388.631	9.23
388.759	0.23
388.888	36.23
389.016	13.23
389.144	13.23
389.273	13.23
389.401	23.23
389.53	6.23
389.658	24.23
389.786	-8.77
389.915	-7.77
390.043	0.23
390.172	24.23
390.3	26.23
390.428	30.23
390.557	34.23
390.685	36.23
390.813	41.23
390.942	42.23
391.07	11.23
391.198	17.23
391.327	13.23
391.455	-2.77
391.583	23.23
391.712	26.23
391.84	42.23
391.968	20.23
392.096	18.23
392.225	5.23
392.353	14.23
392.481	9.23
392.609	23.23
392.738	30.23
392.866	40.23
392.994	36.23
393.122	36.23
393.251	-3.77
393.379	11.23
393.507	3.23
393.635	19.23
393.764	41.23
393.892	20.23
394.02	12.23
394.148	10.23
394.276	24.23
394.404	35.23
394.533	34.23
394.661	30.23
394.789	36.23
394.917	38.23
395.045	23.23
395.173	5.23
395.302	16.23
395.43	39.23
395.558	34.23
395.686	43.23
395.814	52.23
395.942	23.23
396.07	22.23
396.198	29.23
396.326	32.23
396.454	53.23
396.582	42.23
396.711	29.23
396.839	36.23
396.967	30.23
397.095	33.23
397.223	24.23
397.351	69.23
397.479	47.23
397.607	21.23
397.735	36.23
397.863	40.23
397.991	42.23
398.119	33.23
398.247	34.23
398.375	52.23
398.503	42.23
398.631	37.23
398.759	43.23
398.887	65.23
399.015	60.23
399.143	54.23
399.271	74.23
399.399	55.23
399.526	54.23
399.654	88.23
399.782	62.23
399.91	102.23
400.038	92.23
400.166	58.23
400.294	75.23
400.422	73.23
400.55	117.23
400.678	109.23
400.805	109.23
400.933	117.23
401.061	117.23
401.189	125.23
401.317	143.23
401.445	108.23
401.573	71.23
401.7	47.23
401.828	48.23
401.956	64.23
402.084	49.23
402.212	36.23
402.34	24.23
402.467	50.23
402.595	45.23
402.723	26.23
402.851	51.23
402.978	41.23
403.106	78.23
403.234	87.23
403.362	118.23
403.489	130.23
403.617	133.23
403.745	183.23
403.873	262.23
404	550.23
404.128	1451.23
404.256	3900.23
404.384	5097.23
404.511	5434.23
404.639	7174.23
404.767	11351.23
404.894	14592.23
405.022	4870.23
405.15	1265.23
405.277	401.23
405.405	233.23
405.533	145.23
405.66	101.23
405.788	65.23
405.916	78.23
406.043	48.23
406.171	62.23
406.299	59.23
406.426	54.23
406.554	52.23
406.681	69.23
406.809	45.23
406.937	62.23
407.064	56.23
407.192	131.23
407.319	293.23
407.447	547.23
407.574	554.23
407.702	625.23
407.83	815.23
407.957	1600.23
408.085	899.23
408.212	252.23
408.34	61.23
408.467	37.23
408.595	34.23
408.722	33.23
408.85	39.23
408.977	39.23
409.105	38.23
409.232	24.23
409.36	23.23
409.487	10.23
409.615	19.23
409.742	19.23
409.87	40.23
409.997	34.23
410.125	32.23
410.252	40.23
410.379	26.23
410.507	44.23
410.634	30.23
410.762	22.23
410.889	38.23
411.017	13.23
411.144	31.23
411.271	27.23
411.399	26.23
411.526	20.23
411.653	13.23
411.781	30.23
411.908	38.23
412.036	23.23
412.163	37.23
412.29	17.23
412.418	25.23
412.545	44.23
412.672	12.23
412.8	41.23
412.927	38.23
413.054	52.23
413.182	27.23
413.309	28.23
413.436	20.23
413.564	21.23
413.691	23.23
413.818	24.23
413.945	-9.77
414.073	9.23
414.2	24.23
414.327	41.23
414.454	38.23
414.582	22.23
414.709	5.23
414.836	29.23
414.963	29.23
415.091	15.23
415.218	41.23
415.345	29.23
415.472	50.23
415.6	36.23
415.727	19.23
415.854	40.23
415.981	26.23
416.108	26.23
416.236	22.23
416.363	37.23
416.49	23.23
416.617	25.23
416.744	6.23
416.871	45.23
416.998	26.23
417.126	24.23
417.253	7.23
417.38	31.23
417.507	14.23
417.634	38.23
417.761	30.23
417.888	29.23
418.015	14.23
418.143	24.23
418.27	48.23
418.397	18.23
418.524	40.23
418.651	43.23
418.778	40.23
418.905	37.23
419.032	32.23
419.159	49.23
419.286	61.23
419.413	45.23
419.54	51.23
419.667	20.23
419.794	37.23
419.921	44.23
420.048	40.23
420.175	47.23
420.302	46.23
420.429	57.23
420.556	43.23
420.683	51.23
420.81	46.23
420.937	69.23
421.064	72.23
421.191	53.23
421.318	63.23
421.445	87.23
421.572	45.23
421.699	59.23
421.826	38.23
421.953	34.23
422.08	21.23
422.207	10.23
422.334	12.23
422.461	22.23
422.588	23.23
422.714	22.23
422.841	30.23
422.968	41.23
423.095	30.23
423.222	9.23
423.349	13.23
423.476	26.23
423.603	10.23
423.729	6.23
423.856	21.23
423.983	14.23
424.11	16.23
424.237	24.23
424.364	22.23
424.491	24.23
424.617	2.23
424.744	14.23
424.871	36.23
424.998	24.23
425.125	11.23
425.251	21.23
425.378	8.23
425.505	19.23
425.632	17.23
425.758	13.23
425.885	24.23
426.012	13.23
426.139	45.23
426.266	24.23
426.392	14.23
426.519	19.23
426.646	-2.77
426.772	35.23
426.899	7.23
427.026	24.23
427.153	24.23
427.279	22.23
427.406	26.23
427.533	24.23
427.659	11.23
427.786	15.23
427.913	29.23
428.039	5.23
428.166	6.23
428.293	9.23
428.419	21.23
428.546	17.23
428.673	7.23
428.799	9.23
428.926	16.23
429.053	45.23
429.179	25.23
429.306	34.23
429.433	44.23
429.559	35.23
429.686	20.23
429.812	21.23
429.939	23.23
430.066	4.23
430.192	27.23
430.319	27.23
430.445	1.23
430.572	17.23
430.699	24.23
430.825	1.23
430.952	34.23
431.078	23.23
431.205	31.23
431.331	37.23
431.458	40.23
431.584	41.23
431.711	11.23
431.837	11.23
431.964	32.23
432.09	8.23
432.217	4.23
432.343	36.23
432.47	36.23
432.596	35.23
432.723	25.23
432.849	10.23
432.976	26.23
433.102	21.23
433.229	20.23
433.355	23.23
433.482	70.23
433.608	97.23
433.735	92.23
433.861	113.23
433.987	152.23
434.114	179.23
434.24	157.23
434.367	201.23
434.493	199.23
434.62	277.23
434.746	402.23
434.872	608.23
434.999	802.23
435.125	1669.23
435.252	5464.23
435.378	13305.23
435.504	15143.23
435.631	15375.23
435.757	15679.23
435.883	15679.23
436.01	15679.23
436.136	15679.23
436.262	15679.23
436.389	3448.23
436.515	1987.23
436.641	755.23
436.768	612.23
436.894	395.23
437.02	389.23
437.147	290.23
437.273	291.23
437.399	211.23
437.526	226.23
437.652	188.23
437.778	190.23
437.904	138.23
438.031	152.23
438.157	120.23
438.283	159.23
438.409	113.23
438.536	110.23
438.662	117.23
438.788	128.23
438.914	87.23
439.041	125.23
439.167	112.23
439.293	85.23
439.419	80.23
439.546	92.23
439.672	85.23
439.798	87.23
439.924	70.23
440.05	90.23
440.177	70.23
440.303	74.23
440.429	58.23
440.555	70.23
440.681	76.23
440.807	77.23
440.934	46.23
441.06	56.23
441.186	47.23
441.312	71.23
441.438	54.23
441.564	81.23
441.69	62.23
441.816	53.23
441.943	30.23
442.069	57.23
442.195	53.23
442.321	56.23
442.447	28.23
442.573	24.23
442.699	36.23
442.825	37.23
442.951	38.23
443.077	43.23
443.203	57.23
443.33	32.23
443.456	19.23
443.582	49.23
443.708	29.23
443.834	31.23
443.96	44.23
444.086	49.23
444.212	42.23
444.338	56.23
444.464	48.23
444.59	40.23
444.716	46.23
444.842	48.23
444.968	17.23
445.094	21.23
445.22	24.23
445.346	14.23
445.472	32.23
445.598	50.23
445.724	22.23
445.85	38.23
445.976	39.23
446.102	38.23
446.228	39.23
446.354	43.23
446.48	17.23
446.605	27.23
446.731	32.23
446.857	39.23
446.983	30.23
447.109	20.23
447.235	29.23
447.361	10.23
447.487	39.23
447.613	54.23
447.739	25.23
447.865	28.23
447.99	12.23
448.116	25.23
448.242	35.23
448.368	30.23
448.494	41.23
448.62	53.23
448.746	25.23
448.872	21.23
448.997	6.23
449.123	24.23
449.249	50.23
449.375	41.23
449.501	16.23
449.627	18.23
449.752	50.23
449.878	16.23
450.004	8.23
450.13	29.23
450.256	30.23
450.381	27.23
450.507	32.23
450.633	34.23
450.759	44.23
450.884	22.23
451.01	43.23
451.136	32.23
451.262	25.23
451.388	19.23
451.513	22.23
451.639	21.23
451.765	16.23
451.89	41.23
452.016	11.23
452.142	42.23
452.268	28.23
452.393	32.23
452.519	13.23
452.645	25.23
452.771	32.23
452.896	16.23
453.022	10.23
453.148	33.23
453.273	17.23
453.399	20.23
453.525	12.23
453.65	11.23
453.776	23.23
453.902	36.23
454.027	36.23
454.153	28.23
454.279	29.23
454.404	22.23
454.53	30.23
454.656	54.23
454.781	31.23
454.907	17.23
455.032	26.23
455.158	56.23
455.284	47.23
455.409	25.23
455.535	22.23
455.66	13.23
455.786	31.23
455.912	19.23
456.037	9.23
456.163	13.23
456.288	31.23
456.414	1.23
456.539	13.23
456.665	37.23
456.791	17.23
456.916	30.23
457.042	32.23
457.167	12.23
457.293	31.23
457.418	13.23
457.544	19.23
457.669	21.23
457.795	18.23
457.92	22.23
458.046	19.23
458.171	32.23
458.297	18.23
458.422	23.23
458.548	17.23
458.673	18.23
458.799	27.23
458.924	17.23
459.05	33.23
459.175	9.23
459.301	23.23
459.426	33.23
459.552	16.23
459.677	9.23
459.803	48.23
459.928	27.23
460.053	24.23
460.179	34.23
460.304	33.23
460.43	21.23
460.555	-11.77
460.681	8.23
460.806	17.23
460.931	39.23
461.057	5.23
461.182	16.23
461.308	13.23
461.433	32.23
461.558	27.23
461.684	45.23
461.809	26.23
461.934	22.23
462.06	22.23
462.185	-4.77
462.311	11.23
462.436	26.23
462.561	33.23
462.687	21.23
462.812	26.23
462.937	12.23
463.063	20.23
463.188	11.23
463.313	19.23
463.439	9.23
463.564	5.23
463.689	17.23
463.814	19.23
463.94	6.23
464.065	26.23
464.19	38.23
464.316	3.23
464.441	10.23
464.566	2.23
464.692	4.23
464.817	22.23
464.942	-3.77
465.067	0.23
465.193	2.23
465.318	13.23
465.443	28.23
465.568	11.23
465.694	12.23
465.819	24.23
465.944	40.23
466.069	16.23
466.194	28.23
466.32	43.23
466.445	31.23
466.57	17.23
466.695	17.23
466.82	35.23
466.946	47.23
467.071	32.23
467.196	22.23
467.321	25.23
467.446	21.23
467.572	46.23
467.697	14.23
467.822	34.23
467.947	43.23
468.072	25.23
468.197	23.23
468.323	9.23
468.448	19.23
468.573	42.23
468.698	30.23
468.823	38.23
468.948	40.23
469.073	44.23
469.198	56.23
469.324	42.23
469.449	30.23
469.574	45.23
469.699	40.23
469.824	52.23
469.949	19.23
470.074	53.23
470.199	53.23
470.324	44.23
470.449	45.23
470.574	26.23
470.7	24.23
470.825	60.23
470.95	44.23
471.075	45.23
471.2	40.23
471.325	56.23
471.45	32.23
471.575	24.23
471.7	14.23
471.825	17.23
471.95	11.23
472.075	25.23
472.2	20.23
472.325	20.23
472.45	30.23
472.575	25.23
472.7	17.23
472.825	20.23
472.95	28.23
473.075	31.23
473.2	28.23
473.325	46.23
473.45	35.23
473.575	42.23
473.7	46.23
473.825	22.23
473.95	19.23
474.075	46.23
474.2	6.23
474.325	5.23
474.45	42.23
474.574	17.23
474.699	12.23
474.824	17.23
474.949	11.23
475.074	21.23
475.199	27.23
475.324	20.23
475.449	24.23
475.574	22.23
475.699	36.23
475.824	12.23
475.949	13.23
476.073	-5.77
476.198	20.23
476.323	29.23
476.448	12.23
476.573	16.23
476.698	12.23
476.823	13.23
476.947	35.23
477.072	13.23
477.197	16.23
477.322	16.23
477.447	5.23
477.572	18.23
477.697	4.23
477.821	13.23
477.946	29.23
478.071	28.23
478.196	25.23
478.321	14.23
478.445	15.23
478.57	0.23
478.695	11.23
478.82	17.23
478.945	16.23
479.069	16.23
479.194	14.23
479.319	32.23
479.444	24.23
479.569	21.23
479.693	20.23
479.818	13.23
479.943	28.23
480.068	24.23
480.192	18.23
480.317	19.23
480.442	23.23
480.567	13.23
480.691	4.23
480.816	9.23
480.941	14.23
481.066	20.23
481.19	23.23
481.315	23.23
481.44	-1.77
481.564	11.23
481.689	36.23
481.814	24.23
481.938	10.23
482.063	8.23
482.188	14.23
482.313	20.23
482.437	6.23
482.562	12.23
482.687	29.23
482.811	22.23
482.936	8.23
483.061	22.23
483.185	22.23
483.31	19.23
483.435	19.23
483.559	16.23
483.684	14.23
483.808	27.23
483.933	33.23
484.058	12.23
484.182	19.23
484.307	18.23
484.432	21.23
484.556	22.23
484.681	15.23
484.805	34.23
484.93	22.23
485.055	15.23
485.179	60.23
485.304	25.23
485.428	12.23
485.553	4.23
485.678	15.23
485.802	4.23
485.927	13.23
486.051	8.23
486.176	11.23
486.3	1.23
486.425	11.23
486.549	17.23
486.674	6.23
486.799	16.23
486.923	11.23
487.048	18.23
487.172	4.23
487.297	8.23
487.421	16.23
487.546	31.23
487.67	30.23
487.795	8.23
487.919	4.23
488.044	18.23
488.168	15.23
488.293	29.23
488.417	6.23
488.542	16.23
488.666	17.23
488.791	25.23
488.915	26.23
489.04	14.23
489.164	29.23
489.289	10.23
489.413	10.23
489.538	29.23
489.662	33.23
489.786	7.23
489.911	24.23
490.035	22.23
490.16	27.23
490.284	2.23
490.409	-1.77
490.533	24.23
490.658	46.23
490.782	25.23
490.906	44.23
491.031	105.23
491.155	143.23
491.28	157.23
491.404	162.23
491.528	242.23
491.653	144.23
491.777	71.23
491.902	32.23
492.026	31.23
492.15	33.23
492.275	54.23
492.399	28.23
492.524	9.23
492.648	22.23
492.772	19.23
492.897	23.23
493.021	22.23
493.145	8.23
493.27	17.23
493.394	-3.77
493.518	2.23
493.643	25.23
493.767	42.23
493.891	1.23
494.016	29.23
494.14	7.23
494.264	24.23
494.389	20.23
494.513	10.23
494.637	12.23
494.762	19.23
494.886	31.23
495.01	22.23
495.134	11.23
495.259	20.23
495.383	26.23
495.507	33.23
495.632	37.23
495.756	60.23
495.88	21.23
496.004	29.23
496.129	8.23
496.253	23.23
496.377	24.23
496.501	26.23
496.626	5.23
496.75	8.23
496.874	13.23
496.998	16.23
497.123	26.23
497.247	10.23
497.371	-3.77
497.495	13.23
497.62	30.23
497.744	14.23
497.868	3.23
497.992	10.23
498.116	12.23
498.241	17.23
498.365	10.23
498.489	11.23
498.613	55.23
498.737	13.23
498.862	14.23
498.986	9.23
499.11	26.23
499.234	7.23
499.358	4.23
499.482	12.23
499.607	19.23
499.731	15.23
499.855	30.23
499.979	26.23
500.103	10.23
500.227	27.23
500.351	19.23
500.476	4.23
500.6	12.23
500.724	24.23
500.848	24.23
500.972	39.23
501.096	27.23
501.22	36.23
501.344	4.23
501.469	12.23
501.593	22.23
501.717	21.23
501.841	13.23
501.965	20.23
502.089	17.23
502.213	24.23
502.337	17.23
502.461	19.23
502.585	33.23
502.709	16.23
502.834	30.23
502.958	0.23
503.082	7.23
503.206	20.23
503.33	36.23
503.454	24.23
503.578	16.23
503.702	12.23
503.826	24.23
503.95	24.23
504.074	-2.77
504.198	20.23
504.322	18.23
504.446	13.23
504.57	27.23
504.694	13.23
504.818	17.23
504.942	16.23
505.066	21.23
505.19	16.23
505.314	25.23
505.438	25.23
505.562	27.23
505.686	22.23
505.81	9.23
505.934	23.23
506.058	24.23
506.182	27.23
506.306	42.23
506.43	-2.77
506.554	13.23
506.678	11.23
506.802	21.23
506.926	40.23
507.05	16.23
507.174	30.23
507.298	15.23
507.422	27.23
507.546	16.23
507.67	22.23
507.794	13.23
507.918	28.23
508.042	39.23
508.165	11.23
508.289	20.23
508.413	15.23
508.537	5.23
508.661	28.23
508.785	22.23
508.909	29.23
509.033	22.23
509.157	23.23
509.281	35.23
509.405	30.23
509.528	45.23
509.652	36.23
509.776	34.23
509.9	28.23
510.024	26.23
510.148	33.23
510.272	45.23
510.396	41.23
510.519	24.23
510.643	39.23
510.767	38.23
510.891	49.23
511.015	32.23
511.139	35.23
511.263	52.23
511.386	38.23
511.51	22.23
511.634	17.23
511.758	37.23
511.882	32.23
512.006	53.23
512.129	67.23
512.253	98.23
512.377	82.23
512.501	84.23
512.625	90.23
512.748	82.23
512.872	58.23
512.996	46.23
513.12	51.23
513.244	52.23
513.367	72.23
513.491	80.23
513.615	71.23
513.739	90.23
513.862	95.23
513.986	78.23
514.11	90.23
514.234	84.23
514.358	92.23
514.481	121.23
514.605	115.23
514.729	113.23
514.853	121.23
514.976	113.23
515.1	105.23
515.224	108.23
515.348	77.23
515.471	67.23
515.595	104.23
515.719	126.23
515.842	213.23
515.966	285.23
516.09	290.23
516.214	305.23
516.337	326.23
516.461	234.23
516.585	84.23
516.708	33.23
516.832	29.23
516.956	9.23
517.08	11.23
517.203	10.23
517.327	22.23
517.451	17.23
517.574	36.23
517.698	17.23
517.822	23.23
517.945	27.23
518.069	12.23
518.193	24.23
518.316	41.23
518.44	35.23
518.564	11.23
518.687	14.23
518.811	9.23
518.935	19.23
519.058	18.23
519.182	9.23
519.306	14.23
519.429	14.23
519.553	44.23
519.676	30.23
519.8	21.23
519.924	18.23
520.047	34.23
520.171	24.23
520.294	31.23
520.418	13.23
520.542	13.23
520.665	24.23
520.789	7.23
520.913	-5.77
521.036	1.23
521.16	14.23
521.283	14.23
521.407	6.23
521.53	-1.77
521.654	9.23
521.778	37.23
521.901	18.23
522.025	13.23
522.148	16.23
522.272	19.23
522.395	18.23
522.519	21.23
522.643	0.23
522.766	12.23
522.89	11.23
523.013	36.23
523.137	-2.77
523.26	1.23
523.384	0.23
523.507	11.23
523.631	15.23
523.754	10.23
523.878	24.23
524.002	26.23
524.125	9.23
524.249	6.23
524.372	20.23
524.496	24.23
524.619	20.23
524.743	18.23
524.866	16.23
524.99	6.23
525.113	-2.77
525.237	31.23
525.36	15.23
525.484	33.23
525.607	2.23
525.731	6.23
525.854	12.23
525.978	34.23
526.101	14.23
526.224	29.23
526.348	14.23
526.471	16.23
526.595	14.23
526.718	5.23
526.842	1.23
526.965	24.23
527.089	23.23
527.212	18.23
527.336	18.23
527.459	34.23
527.582	20.23
527.706	6.23
527.829	10.23
527.953	21.23
528.076	-3.77
528.2	11.23
528.323	22.23
528.446	17.23
528.57	15.23
528.693	28.23
528.817	-0.77
528.94	30.23
529.064	31.23
529.187	18.23
529.31	11.23
529.434	20.23
529.557	-1.77
529.68	9.23
529.804	-0.77
529.927	11.23
530.051	23.23
530.174	8.23
530.297	18.23
530.421	25.23
530.544	18.23
530.668	9.23
530.791	0.23
530.914	24.23
531.038	15.23
531.161	17.23
531.284	18.23
531.408	25.23
531.531	10.23
531.654	15.23
531.778	28.23
531.901	-7.77
532.024	1.23
532.148	9.23
532.271	8.23
532.394	9.23
532.518	18.23
532.641	18.23
532.764	31.23
532.888	26.23
533.011	-0.77
533.134	-1.77
533.258	27.23
533.381	12.23
533.504	3.23
533.628	-3.77
533.751	32.23
533.874	11.23
533.997	19.23
534.121	8.23
534.244	9.23
534.367	3.23
534.491	20.23
534.614	13.23
534.737	27.23
534.86	28.23
534.984	22.23
535.107	19.23
535.23	12.23
535.354	6.23
535.477	11.23
535.6	31.23
535.723	18.23
535.847	22.23
535.97	9.23
536.093	32.23
536.216	11.23
536.34	20.23
536.463	20.23
536.586	23.23
536.709	30.23
536.833	29.23
536.956	6.23
537.079	9.23
537.202	28.23
537.325	9.23
537.449	9.23
537.572	15.23
537.695	19.23
537.818	1.23
537.941	5.23
538.065	24.23
538.188	4.23
538.311	36.23
538.434	26.23
538.558	34.23
538.681	35.23
538.804	32.23
538.927	44.23
539.05	10.23
539.173	13.23
539.297	-9.77
539.42	14.23
539.543	9.23
539.666	17.23
539.789	30.23
539.913	42.23
540.036	11.23
540.159	8.23
540.282	6.23
540.405	14.23
540.528	10.23
540.651	13.23
540.775	29.23
540.898	43.23
541.021	24.23
541.144	34.23
541.267	37.23
541.39	23.23
541.513	24.23
541.637	34.23
541.76	13.23
541.883	21.23
542.006	40.23
542.129	39.23
542.252	24.23
542.375	28.23
542.498	29.23
542.622	56.23
542.745	45.23
542.868	34.23
542.991	58.23
543.114	65.23
543.237	66.23
543.36	74.23
543.483	63.23
543.606	61.23
543.73	72.23
543.853	69.23
543.976	90.23
544.099	106.23
544.222	113.23
544.345	147.23
544.468	178.23
544.591	239.23
544.714	271.23
544.837	342.23
544.96	439.23
545.083	662.23
545.206	1070.23
545.329	2432.23
545.453	10872.23
545.576	15238.23
545.699	15679.23
545.822	15679.23
545.945	15679.23
546.068	15679.23
546.191	15679.23
546.314	15679.23
546.437	15679.23
546.56	15679.23
546.683	15679.23
546.806	15679.23
546.929	15679.23
547.052	15679.23
547.175	15679.23
547.298	15679.23
547.421	15679.23
547.544	15679.23
547.667	3482.23
547.79	2127.23
547.913	969.23
548.036	850.23
548.159	620.23
548.282	633.23
548.405	481.23
548.528	455.23
548.651	378.23
548.774	381.23
548.897	365.23
549.02	363.23
549.143	309.23
549.266	291.23
549.389	254.23
549.512	254.23
549.635	249.23
549.758	246.23
549.881	204.23
550.004	198.23
550.127	193.23
550.25	191.23
550.373	159.23
550.496	166.23
550.619	154.23
550.742	150.23
550.865	130.23
550.988	140.23
551.111	140.23
551.234	149.23
551.356	137.23
551.479	129.23
551.602	151.23
551.725	121.23
551.848	133.23
551.971	136.23
552.094	116.23
552.217	100.23
552.34	100.23
552.463	79.23
552.586	101.23
552.709	100.23
552.832	107.23
552.955	96.23
553.077	112.23
553.2	92.23
553.323	74.23
553.446	93.23
553.569	94.23
553.692	92.23
553.815	81.23
553.938	101.23
554.061	86.23
554.184	102.23
554.306	93.23
554.429	85.23
554.552	80.23
554.675	66.23
554.798	79.23
554.921	82.23
555.044	71.23
555.167	74.23
555.29	52.23
555.412	70.23
555.535	79.23
555.658	85.23
555.781	75.23
555.904	55.23
556.027	65.23
556.15	71.23
556.272	78.23
556.395	76.23
556.518	54.23
556.641	69.23
556.764	82.23
556.887	68.23
557.01	53.23
557.132	34.23
557.255	51.23
557.378	73.23
557.501	65.23
557.624	66.23
557.747	77.23
557.869	76.23
557.992	86.23
558.115	93.23
558.238	88.23
558.361	110.23
558.483	89.23
558.606	62.23
558.729	57.23
558.852	74.23
558.975	67.23
559.098	56.23
559.22	54.23
559.343	45.23
559.466	58.23
559.589	42.23
559.712	43.23
559.834	55.23
559.957	34.23
560.08	42.23
560.203	60.23
560.325	62.23
560.448	74.23
560.571	64.23
560.694	40.23
560.817	66.23
560.939	56.23
561.062	48.23
561.185	53.23
561.308	69.23
561.43	62.23
561.553	59.23
561.676	56.23
561.799	72.23
561.921	64.23
562.044	49.23
562.167	53.23
562.29	67.23
562.413	59.23
562.535	59.23
562.658	30.23
562.781	52.23
562.903	55.23
563.026	83.23
563.149	143.23
563.272	125.23
563.394	110.23
563.517	86.23
563.64	58.23
563.763	54.23
563.885	45.23
564.008	54.23
564.131	69.23
564.254	37.23
564.376	30.23
564.499	18.23
564.622	26.23
564.744	44.23
564.867	39.23
564.99	33.23
565.113	36.23
565.235	43.23
565.358	17.23
565.481	27.23
565.603	23.23
565.726	11.23
565.849	37.23
565.971	27.23
566.094	19.23
566.217	41.23
566.34	37.23
566.462	28.23
566.585	42.23
566.708	50.23
566.83	40.23
566.953	37.23
567.076	26.23
567.198	37.23
567.321	14.23
567.444	40.23
567.566	25.23
567.689	22.23
567.812	40.23
567.934	17.23
568.057	12.23
568.18	35.23
568.302	45.23
568.425	20.23
568.548	18.23
568.67	25.23
568.793	39.23
568.916	32.23
569.038	19.23
569.161	18.23
569.283	54.23
569.406	36.23
569.529	21.23
569.651	20.23
569.774	10.23
569.897	25.23
570.019	51.23
570.142	48.23
570.265	40.23
570.387	40.23
570.51	23.23
570.632	21.23
570.755	26.23
570.878	28.23
571	47.23
571.123	35.23
571.246	46.23
571.368	27.23
571.491	14.23
571.613	12.23
571.736	5.23
571.859	30.23
571.981	15.23
572.104	16.23
572.226	33.23
572.349	6.23
572.472	16.23
572.594	34.23
572.717	35.23
572.839	20.23
572.962	33.23
573.085	42.23
573.207	35.23
573.33	24.23
573.452	36.23
573.575	45.23
573.697	37.23
573.82	25.23
573.943	12.23
574.065	27.23
574.188	9.23
574.31	47.23
574.433	38.23
574.555	43.23
574.678	37.23
574.801	44.23
574.923	30.23
575.046	29.23
575.168	35.23
575.291	30.23
575.413	36.23
575.536	30.23
575.659	38.23
575.781	41.23
575.904	50.23
576.026	81.23
576.149	79.23
576.271	122.23
576.394	184.23
576.516	531.23
576.639	3608.23
576.761	10060.23
576.884	8700.23
577.007	8650.23
577.129	7861.23
577.252	3693.23
577.374	1283.23
577.497	513.23
577.619	277.23
577.742	163.23
577.864	158.23
577.987	118.23
578.109	117.23
578.232	105.23
578.354	157.23
578.477	193.23
578.599	380.23
578.722	1931.23
578.844	9062.23
578.967	9736.23
579.089	8770.23
579.212	8999.23
579.334	5226.23
579.457	1929.23
579.579	724.23
579.702	338.23
579.824	200.23
579.947	133.23
580.069	93.23
580.192	79.23
580.314	89.23
580.437	70.23
580.559	97.23
580.682	60.23
580.804	53.23
580.927	50.23
581.049	62.23
581.172	38.23
581.294	44.23
581.417	48.23
581.539	41.23
581.662	40.23
581.784	41.23
581.907	42.23
582.029	45.23
582.152	26.23
582.274	38.23
582.396	36.23
582.519	58.23
582.641	33.23
582.764	12.23
582.886	36.23
583.009	32.23
583.131	37.23
583.254	32.23
583.376	50.23
583.499	33.23
583.621	43.23
583.743	55.23
583.866	37.23
583.988	27.23
584.111	28.23
584.233	33.23
584.356	34.23
584.478	19.23
584.601	10.23
584.723	25.23
584.845	41.23
584.968	14.23
585.09	10.23
585.213	22.23
585.335	7.23
585.458	7.23
585.58	17.23
585.702	37.23
585.825	41.23
585.947	15.23
586.07	32.23
586.192	22.23
586.315	43.23
586.437	7.23
586.559	8.23
586.682	16.23
586.804	29.23
586.927	12.23
587.049	24.23
587.171	41.23
587.294	33.23
587.416	37.23
587.539	27.23
587.661	12.23
587.783	41.23
587.906	36.23
588.028	43.23
588.151	7.23
588.273	46.23
588.395	24.23
588.518	20.23
588.64	36.23
588.763	48.23
588.885	37.23
589.007	18.23
589.13	7.23
589.252	14.23
589.375	27.23
589.497	37.23
589.619	26.23
589.742	20.23
589.864	37.23
589.986	29.23
590.109	-3.77
590.231	17.23
590.354	13.23
590.476	7.23
590.598	19.23
590.721	-0.77
590.843	29.23
590.965	26.23
591.088	18.23
591.21	34.23
591.332	27.23
591.455	4.23
591.577	16.23
591.7	31.23
591.822	8.23
591.944	21.23
592.067	21.23
592.189	9.23
592.311	21.23
592.434	30.23
592.556	49.23
592.678	30.23
592.801	35.23
592.923	36.23
593.045	12.23
593.168	25.23
593.29	12.23
593.412	31.23
593.535	16.23
593.657	8.23
593.779	14.23
593.902	30.23
594.024	19.23
594.146	20.23
594.269	24.23
594.391	4.23
594.513	17.23
594.636	12.23
594.758	17.23
594.88	36.23
595.003	19.23
595.125	39.23
595.247	32.23
595.37	31.23
595.492	14.23
595.614	34.23
595.737	17.23
595.859	22.23
595.981	13.23
596.104	18.23
596.226	11.23
596.348	16.23
596.471	24.23
596.593	12.23
596.715	9.23
596.838	13.23
596.96	6.23
597.082	29.23
597.204	15.23
597.327	17.23
597.449	20.23
597.571	38.23
597.694	22.23
597.816	21.23
597.938	30.23
598.061	5.23
598.183	4.23
598.305	39.23
598.427	13.23
598.55	13.23
598.672	29.23
598.794	41.23
598.917	14.23
599.039	16.23
599.161	16.23
599.283	17.23
599.406	25.23
599.528	32.23
599.65	44.23
599.773	21.23
599.895	30.23
600.017	32.23
600.139	20.23
600.262	22.23
600.384	23.23
600.506	29.23
600.628	50.23
600.751	35.23
600.873	25.23
600.995	19.23
601.118	42.23
601.24	24.23
601.362	43.23
601.484	40.23
601.607	20.23
601.729	22.23
601.851	14.23
601.973	11.23
602.096	14.23
602.218	8.23
602.34	23.23
602.462	16.23
602.585	21.23
602.707	4.23
602.829	24.23
602.951	17.23
603.074	6.23
603.196	22.23
603.318	15.23
603.44	29.23
603.563	21.23
603.685	6.23
603.807	33.23
603.929	22.23
604.052	38.23
604.174	37.23
604.296	24.23
604.418	22.23
604.541	27.23
604.663	24.23
604.785	12.23
604.907	26.23
605.03	11.23
605.152	52.23
605.274	36.23
605.396	14.23
605.519	6.23
605.641	14.23
605.763	10.23
605.885	32.23
606.008	26.23
606.13	26.23
606.252	32.23
606.374	19.23
606.496	23.23
606.619	9.23
606.741	11.23
606.863	37.23
606.985	33.23
607.108	12.23
607.23	0.23
607.352	20.23
607.474	14.23
607.596	16.23
607.719	-0.77
607.841	20.23
607.963	16.23
608.085	19.23
608.207	42.23
608.33	29.23
608.452	6.23
608.574	6.23
608.696	26.23
608.819	18.23
608.941	25.23
609.063	17.23
609.185	22.23
609.307	18.23
609.43	24.23
609.552	25.23
609.674	10.23
609.796	3.23
609.918	23.23
610.041	1.23
610.163	26.23
610.285	34.23
610.407	5.23
610.529	23.23
610.652	17.23
610.774	27.23
610.896	23.23
611.018	5.23
611.14	6.23
611.263	10.23
611.385	23.23
611.507	25.23
611.629	17.23
611.751	18.23
611.873	44.23
611.996	36.23
612.118	20.23
612.24	15.23
612.362	14.23
612.484	35.23
612.607	30.23
612.729	37.23
612.851	36.23
612.973	28.23
613.095	27.23
613.218	12.23
613.34	9.23
613.462	18.23
613.584	31.23
613.706	28.23
613.828	25.23
613.951	14.23
614.073	12.23
614.195	13.23
614.317	26.23
614.439	20.23
614.561	26.23
614.684	25.23
614.806	28.23
614.928	17.23
615.05	35.23
615.172	32.23
615.294	35.23
615.417	16.23
615.539	14.23
615.661	11.23
615.783	47.23
615.905	12.23
616.027	19.23
616.15	31.23
616.272	25.23
616.394	1.23
616.516	26.23
616.638	16.23
616.76	4.23
616.883	19.23
617.005	14.23
617.127	3.23
617.249	29.23
617.371	18.23
617.493	9.23
617.615	22.23
617.738	31.23
617.86	12.23
617.982	7.23
618.104	24.23
618.226	0.23
618.348	0.23
618.471	8.23
618.593	34.23
618.715	11.23
618.837	13.23
618.959	24.23
619.081	29.23
619.203	16.23
619.326	11.23
619.448	15.23
619.57	28.23
619.692	23.23
619.814	16.23
619.936	30.23
620.058	21.23
620.181	13.23
620.303	5.23
620.425	12.23
620.547	11.23
620.669	12.23
620.791	16.23
620.913	6.23
621.036	14.23
621.158	14.23
621.28	15.23
621.402	1.23
621.524	10.23
621.646	9.23
621.768	-6.77
621.891	-6.77
622.013	14.23
622.135	10.23
622.257	13.23
622.379	10.23
622.501	36.23
622.623	9.23
622.745	9.23
622.868	9.23
622.99	26.23
623.112	15.23
623.234	6.23
623.356	20.23
623.478	9.23
623.6	25.23
623.722	16.23
623.845	28.23
623.967	9.23
624.089	17.23
624.211	13.23
624.333	18.23
624.455	26.23
624.577	21.23
624.699	25.23
624.822	23.23
624.944	8.23
625.066	9.23
625.188	8.23
625.31	19.23
625.432	33.23
625.554	11.23
625.676	30.23
625.799	7.23
625.921	16.23
626.043	4.23
626.165	11.23
626.287	4.23
626.409	14.23
626.531	7.23
626.653	6.23
626.775	22.23
626.898	36.23
627.02	31.23
627.142	37.23
627.264	31.23
627.386	5.23
627.508	10.23
627.63	9.23
627.752	13.23
627.874	17.23
627.997	7.23
628.119	7.23
628.241	24.23
628.363	27.23
628.485	19.23
628.607	21.23
628.729	13.23
628.851	7.23
628.973	10.23
629.096	6.23
629.218	4.23
629.34	10.23
629.462	5.23
629.584	17.23
629.706	16.23
629.828	11.23
629.95	12.23
630.072	-7.77
630.195	13.23
630.317	27.23
630.439	3.23
630.561	13.23
630.683	3.23
630.805	13.23
630.927	17.23
631.049	4.23
631.171	0.23
631.293	21.23
631.416	20.23
631.538	13.23
631.66	11.23
631.782	24.23
631.904	29.23
632.026	6.23
632.148	18.23
632.27	-6.77
632.392	17.23
632.514	25.23
632.637	13.23
632.759	-1.77
632.881	7.23
633.003	-2.77
633.125	11.23
633.247	5.23
633.369	13.23
633.491	29.23
633.613	29.23
633.735	1.23
633.858	9.23
633.98	16.23
634.102	14.23
634.224	1.23
634.346	20.23
634.468	12.23
634.59	21.23
634.712	16.23
634.834	13.23
634.956	10.23
635.078	-2.77
635.201	6.23
635.323	18.23
635.445	18.23
635.567	-1.77
635.689	21.23
635.811	9.23
635.933	15.23
636.055	34.23
636.177	14.23
636.299	33.23
636.421	10.23
636.544	17.23
636.666	25.23
636.788	16.23
636.91	31.23
637.032	6.23
637.154	24.23
637.276	23.23
637.398	6.23
637.52	12.23
637.642	7.23
637.764	22.23
637.887	8.23
638.009	13.23
638.131	24.23
638.253	5.23
638.375	29.23
638.497	11.23
638.619	-3.77
638.741	10.23
638.863	-6.77
638.985	-9.77
639.107	20.23
639.23	8.23
639.352	13.23
639.474	4.23
639.596	6.23
639.718	21.23
639.84	32.23
639.962	16.23
640.084	32.23
640.206	30.23
640.328	2.23
640.45	9.23
640.573	17.23
640.695	22.23
640.817	14.23
640.939	2.23
641.061	11.23
641.183	14.23
641.305	-4.77
641.427	-3.77
641.549	-5.77
641.671	8.23
641.793	-2.77
641.915	13.23
642.038	11.23
642.16	8.23
642.282	6.23
642.404	0.23
642.526	9.23
642.648	13.23
642.77	8.23
642.892	14.23
643.014	31.23
643.136	13.23
643.258	16.23
643.381	23.23
643.503	27.23
643.625	11.23
643.747	-8.77
643.869	0.23
643.991	12.23
644.113	23.23
644.235	16.23
644.357	2.23
644.479	18.23
644.601	-2.77
644.723	-6.77
644.846	3.23
644.968	16.23
645.09	15.23
645.212	19.23
645.334	10.23
645.456	11.23
645.578	20.23
645.7	9.23
645.822	18.23
645.944	12.23
646.066	17.23
646.188	-5.77
646.311	21.23
646.433	18.23
646.555	31.23
646.677	32.23
646.799	6.23
646.921	39.23
647.043	44.23
647.165	8.23
647.287	21.23
647.409	2.23
647.531	22.23
647.654	-3.77
647.776	29.23
647.898	27.23
648.02	10.23
648.142	22.23
648.264	2.23
648.386	6.23
648.508	6.23
648.63	20.23
648.752	18.23
648.874	19.23
648.997	5.23
649.119	21.23
649.241	-9.77
649.363	35.23
649.485	16.23
649.607	-1.77
649.729	5.23
649.851	16.23
649.973	6.23
650.095	9.23
650.217	6.23
650.34	4.23
650.462	11.23
650.584	19.23
650.706	5.23
650.828	16.23
650.95	6.23
651.072	9.23
651.194	9.23
651.316	18.23
651.438	17.23
651.56	-3.77
651.683	-7.77
651.805	18.23
651.927	16.23
652.049	-10.77
652.171	13.23
652.293	13.23
652.415	-15.77
652.537	-6.77
652.659	2.23
652.781	14.23
652.903	14.23
653.026	33.23
653.148	1.23
653.27	8.23
653.392	20.23
653.514	2.23
653.636	-3.77
653.758	5.23
653.88	5.23
654.002	5.23
654.124	0.23
654.247	2.23
654.369	19.23
654.491	0.23
654.613	5.23
654.735	2.23
654.857	19.23
654.979	10.23
655.101	5.23
655.223	20.23
655.345	3.23
655.468	7.23
655.59	12.23
655.712	9.23
655.834	-0.77
655.956	18.23
656.078	5.23
656.2	16.23
656.322	9.23
656.444	-14.77
656.566	13.23
656.689	8.23
656.811	9.23
656.933	12.23
657.055	-6.77
657.177	5.23
657.299	0.23
657.421	-7.77
657.543	5.23
657.665	16.23
657.787	16.23
657.91	7.23
658.032	1.23
658.154	-7.77
658.276	5.23
658.398	-16.77
658.52	12.23
658.642	12.23
658.764	-1.77
658.886	-11.77
659.009	10.23
659.131	7.23
659.253	3.23
659.375	7.23
659.497	22.23
659.619	9.23
659.741	16.23
659.863	4.23
659.985	-7.77
660.108	16.23
660.23	1.23
660.352	-1.77
660.474	0.23
660.596	13.23
660.718	12.23
660.84	10.23
660.962	14.23
661.084	-1.77
661.207	6.23
661.329	21.23
661.451	6.23
661.573	12.23
661.695	27.23
661.817	16.23
661.939	44.23
662.061	29.23
662.184	10.23
662.306	7.23
662.428	12.23
662.55	20.23
662.672	16.23
662.794	1.23
662.916	-2.77
663.038	-2.77
663.161	15.23
663.283	13.23
663.405	19.23
663.527	1.23
663.649	6.23
663.771	2.23
663.893	11.23
664.015	8.23
664.138	-4.77
664.26	1.23
664.382	1.23
664.504	5.23
664.626	-0.77
664.748	-4.77
664.87	0.23
664.992	33.23
665.115	12.23
665.237	6.23
665.359	-2.77
665.481	0.23
665.603	0.23
665.725	-2.77
665.847	-3.77
665.97	16.23
666.092	22.23
666.214	18.23
666.336	-0.77
666.458	24.23
666.58	9.23
666.702	-11.77
666.825	6.23
666.947	-2.77
667.069	6.23
667.191	18.23
667.313	29.23
667.435	14.23
667.557	-0.77
667.68	4.23
667.802	-7.77
667.924	-2.77
668.046	16.23
668.168	24.23
668.29	22.23
668.412	-6.77
668.535	8.23
668.657	10.23
668.779	4.23
668.901	0.23
669.023	21.23
669.145	-2.77
669.267	17.23
669.39	2.23
669.512	7.23
669.634	25.23
669.756	4.23
669.878	2.23
670	10.23
670.123	18.23
670.245	27.23
670.367	16.23
670.489	19.23
670.611	4.23
670.733	-6.77
670.856	-8.77
670.978	5.23
671.1	20.23
671.222	4.23
671.344	14.23
671.466	-7.77
671.589	-6.77
671.711	-1.77
671.833	3.23
671.955	8.23
672.077	5.23
672.199	21.23
672.322	27.23
672.444	17.23
672.566	28.23
672.688	6.23
672.81	0.23
672.932	25.23
673.055	-2.77
673.177	0.23
673.299	3.23
673.421	-5.77
673.543	9.23
673.665	9.23
673.788	14.23
673.91	14.23
674.032	-12.77
674.154	5.23
674.276	17.23
674.399	-10.77
674.521	12.23
674.643	11.23
674.765	0.23
674.887	26.23
675.009	1.23
675.132	6.23
675.254	-2.77
675.376	5.23
675.498	-6.77
675.62	14.23
675.743	8.23
675.865	21.23
675.987	-25.77
676.109	7.23
676.231	16.23
676.354	36.23
676.476	7.23
676.598	17.23
676.72	17.23
676.842	9.23
676.965	6.23
677.087	22.23
677.209	15.23
677.331	6.23
677.453	9.23
677.576	-0.77
677.698	10.23
677.82	19.23
677.942	0.23
678.064	4.23
678.187	0.23
678.309	4.23
678.431	1.23
678.553	4.23
678.675	20.23
678.798	23.23
678.92	7.23
679.042	19.23
679.164	1.23
679.286	24.23
679.409	4.23
679.531	-7.77
679.653	0.23
679.775	9.23
679.898	7.23
680.02	16.23
680.142	12.23
680.264	6.23
680.386	-10.77
680.509	10.23
680.631	12.23
680.753	10.23
680.875	-6.77
680.998	5.23
681.12	1.23
681.242	0.23
681.364	-17.77
681.486	17.23
681.609	5.23
681.731	-8.77
681.853	7.23
681.975	4.23
682.098	22.23
682.22	3.23
682.342	2.23
682.464	25.23
682.587	8.23
682.709	-1.77
682.831	5.23
682.953	3.23
683.076	10.23
683.198	16.23
683.32	1.23
683.442	17.23
683.565	4.23
683.687	7.23
683.809	2.23
683.931	-5.77
684.054	8.23
684.176	6.23
684.298	2.23
684.42	-2.77
684.543	8.23
684.665	6.23
684.787	-2.77
684.909	-9.77
685.032	2.23
685.154	-4.77
685.276	2.23
685.398	-0.77
685.521	0.23
685.643	20.23
685.765	17.23
685.887	23.23
686.01	18.23
686.132	18.23
686.254	9.23
686.377	8.23
686.499	2.23
686.621	26.23
686.743	20.23
686.866	-10.77
686.988	36.23
687.11	33.23
687.232	-2.77
687.355	-2.77
687.477	10.23
687.599	10.23
687.722	4.23
687.844	16.23
687.966	23.23
688.088	12.23
688.211	31.23
688.333	25.23
688.455	17.23
688.578	12.23
688.7	24.23
688.822	8.23
688.944	0.23
689.067	17.23
689.189	8.23
689.311	-12.77
689.434	-3.77
689.556	11.23
689.678	14.23
689.801	-2.77
689.923	19.23
690.045	25.23
690.167	13.23
690.29	9.23
690.412	-5.77
690.534	11.23
690.657	-9.77
690.779	-13.77
690.901	18.23
691.024	14.23
691.146	13.23
691.268	4.23
691.391	18.23
691.513	22.23
691.635	12.23
691.758	22.23
691.88	6.23
692.002	3.23
692.125	-4.77
692.247	-2.77
692.369	-2.77
692.492	-1.77
692.614	6.23
692.736	10.23
692.859	2.23
692.981	4.23
693.103	9.23
693.226	7.23
693.348	27.23
693.47	3.23
693.593	21.23
693.715	34.23
693.837	28.23
693.96	20.23
694.082	13.23
694.204	16.23
694.327	4.23
694.449	-17.77
694.571	10.23
694.694	21.23
694.816	13.23
694.938	-7.77
695.061	6.23
695.183	10.23
695.305	20.23
695.428	-1.77
695.55	1.23
695.672	0.23
695.795	29.23
695.917	37.23
696.04	14.23
696.162	1.23
696.284	-1.77
696.407	2.23
696.529	8.23
696.651	25.23
696.774	4.23
696.896	20.23
697.019	-2.77
697.141	3.23
697.263	0.23
697.386	3.23
697.508	13.23
697.63	12.23
697.753	-5.77
697.875	2.23
697.998	-3.77
698.12	0.23
698.242	-1.77
698.365	13.23
698.487	5.23
698.61	13.23
698.732	28.23
698.854	8.23
698.977	-2.77
699.099	2.23
699.221	0.23
699.344	-1.77
699.466	5.23
699.589	7.23
699.711	-13.77
699.834	1.23
699.956	20.23
700.078	15.23
700.201	14.23
700.323	19.23
700.446	12.23
700.568	4.23
700.69	0.23
700.813	23.23
700.935	11.23
701.058	-3.77
701.18	9.23
701.302	0.23
701.425	11.23
701.547	0.23
701.67	0.23
701.792	17.23
701.915	8.23
702.037	-2.77
702.159	-4.77
702.282	9.23
702.404	32.23
702.527	21.23
702.649	30.23
702.772	15.23
702.894	12.23
703.017	9.23
703.139	7.23
703.261	20.23
703.384	1.23
703.506	-10.77
703.629	1.23
703.751	18.23
703.874	-5.77
703.996	-19.77
704.119	0.23
704.241	17.23
704.364	1.23
704.486	16.23
704.608	12.23
704.731	5.23
704.853	9.23
704.976	5.23
705.098	12.23
705.221	1.23
705.343	0.23
705.466	10.23
705.588	2.23
705.711	9.23
705.833	11.23
705.956	4.23
706.078	9.23
706.201	9.23
706.323	17.23
706.446	13.23
