Data from LowRes_mercury_15_20_11_07_2024_HR4C61881__10__15-23-33-271.txt Node

Date: Thu Nov 07 15:23:33 EST 2024
User: crc00042
Spectrometer: HR4C6188
Trigger mode: 4
Integration Time (sec): 1.000000E-1
Scans to average: 1
Electric dark correction enabled: true
Nonlinearity correction enabled: false
Boxcar width: 0
XAxis mode: Wavelengths
Number of Pixels in Spectrum: 3648
>>>>>Begin Spectral Data<<<<<
245.66	-63.23
245.797	-63.23
245.934	-63.23
246.071	-60.23
246.208	20.77
246.344	12.77
246.481	-12.23
246.618	-39.23
246.755	17.77
246.892	-3.23
247.029	-1.23
247.165	-22.23
247.302	11.77
247.439	6.77
247.576	12.77
247.713	3.77
247.849	17.77
247.986	-5.23
248.123	5.77
248.26	5.77
248.396	19.77
248.533	18.77
248.67	13.77
248.806	20.77
248.943	-17.23
249.08	16.77
249.216	25.77
249.353	-2.23
249.49	-12.23
249.626	-10.23
249.763	13.77
249.9	-0.23
250.036	20.77
250.173	13.77
250.309	19.77
250.446	-5.23
250.582	-8.23
250.719	-9.23
250.856	-4.23
250.992	-5.23
251.129	-8.23
251.265	-5.23
251.402	17.77
251.538	17.77
251.675	21.77
251.811	25.77
251.948	32.77
252.084	5.77
252.221	-4.23
252.357	2.77
252.493	28.77
252.63	-0.23
252.766	23.77
252.903	4.77
253.039	6.77
253.175	9.77
253.312	9.77
253.448	4.77
253.585	-13.23
253.721	25.77
253.857	19.77
253.994	4.77
254.13	0.77
254.266	10.77
254.403	19.77
254.539	22.77
254.675	7.77
254.811	14.77
254.948	-2.23
255.084	-10.23
255.22	-16.23
255.356	-1.23
255.493	12.77
255.629	12.77
255.765	0.77
255.901	12.77
256.037	23.77
256.174	12.77
256.31	3.77
256.446	-4.23
256.582	11.77
256.718	12.77
256.854	29.77
256.991	11.77
257.127	7.77
257.263	-6.23
257.399	17.77
257.535	7.77
257.671	-13.23
257.807	2.77
257.943	4.77
258.079	-4.23
258.215	8.77
258.351	17.77
258.487	28.77
258.623	11.77
258.759	7.77
258.895	9.77
259.031	12.77
259.167	8.77
259.303	31.77
259.439	5.77
259.575	-2.23
259.711	4.77
259.847	3.77
259.983	6.77
260.119	7.77
260.255	-5.23
260.391	36.77
260.527	31.77
260.663	14.77
260.799	16.77
260.934	16.77
261.07	15.77
261.206	-18.23
261.342	-7.23
261.478	26.77
261.614	26.77
261.749	14.77
261.885	-9.23
262.021	-12.23
262.157	21.77
262.293	3.77
262.428	-1.23
262.564	-2.23
262.7	8.77
262.836	1.77
262.971	20.77
263.107	26.77
263.243	20.77
263.378	-0.23
263.514	5.77
263.65	-3.23
263.785	-33.23
263.921	-12.23
264.057	11.77
264.192	-2.23
264.328	3.77
264.464	5.77
264.599	0.77
264.735	15.77
264.871	17.77
265.006	12.77
265.142	7.77
265.277	5.77
265.413	22.77
265.548	-0.23
265.684	22.77
265.819	22.77
265.955	9.77
266.091	4.77
266.226	2.77
266.362	1.77
266.497	17.77
266.633	-12.23
266.768	1.77
266.903	33.77
267.039	17.77
267.174	15.77
267.31	-8.23
267.445	1.77
267.581	9.77
267.716	5.77
267.851	17.77
267.987	24.77
268.122	24.77
268.258	-2.23
268.393	5.77
268.528	17.77
268.664	4.77
268.799	-13.23
268.934	11.77
269.07	-9.23
269.205	5.77
269.34	25.77
269.476	13.77
269.611	-6.23
269.746	29.77
269.881	9.77
270.017	26.77
270.152	6.77
270.287	16.77
270.422	21.77
270.558	-6.23
270.693	24.77
270.828	-20.23
270.963	10.77
271.098	1.77
271.234	-6.23
271.369	15.77
271.504	4.77
271.639	19.77
271.774	-1.23
271.909	-1.23
272.045	-12.23
272.18	-15.23
272.315	13.77
272.45	21.77
272.585	-0.23
272.72	-3.23
272.855	13.77
272.99	21.77
273.125	3.77
273.26	-18.23
273.395	-8.23
273.53	-4.23
273.665	20.77
273.8	8.77
273.935	19.77
274.07	-4.23
274.205	0.77
274.34	18.77
274.475	-8.23
274.61	14.77
274.745	-12.23
274.88	22.77
275.015	-5.23
275.15	14.77
275.285	29.77
275.42	-1.23
275.555	-4.23
275.69	7.77
275.825	16.77
275.959	27.77
276.094	17.77
276.229	5.77
276.364	-20.23
276.499	1.77
276.634	5.77
276.768	5.77
276.903	12.77
277.038	1.77
277.173	14.77
277.308	8.77
277.442	11.77
277.577	-25.23
277.712	-4.23
277.847	20.77
277.981	32.77
278.116	-0.23
278.251	14.77
278.386	4.77
278.52	13.77
278.655	-1.23
278.79	17.77
278.924	10.77
279.059	12.77
279.194	-9.23
279.328	32.77
279.463	14.77
279.598	14.77
279.732	21.77
279.867	17.77
280.001	16.77
280.136	13.77
280.271	23.77
280.405	16.77
280.54	7.77
280.674	-3.23
280.809	11.77
280.943	17.77
281.078	-3.23
281.213	10.77
281.347	34.77
281.482	0.77
281.616	13.77
281.751	5.77
281.885	-6.23
282.02	-15.23
282.154	-5.23
282.288	-14.23
282.423	-1.23
282.557	-4.23
282.692	6.77
282.826	2.77
282.961	21.77
283.095	2.77
283.229	14.77
283.364	-13.23
283.498	5.77
283.633	1.77
283.767	18.77
283.901	14.77
284.036	14.77
284.17	5.77
284.304	0.77
284.439	13.77
284.573	15.77
284.707	22.77
284.842	-1.23
284.976	-2.23
285.11	5.77
285.244	15.77
285.379	31.77
285.513	-1.23
285.647	18.77
285.781	23.77
285.916	20.77
286.05	-0.23
286.184	27.77
286.318	14.77
286.453	2.77
286.587	-8.23
286.721	7.77
286.855	-0.23
286.989	25.77
287.123	-3.23
287.258	13.77
287.392	-1.23
287.526	18.77
287.66	-6.23
287.794	-7.23
287.928	14.77
288.062	5.77
288.196	6.77
288.33	3.77
288.464	23.77
288.598	17.77
288.733	17.77
288.867	15.77
289.001	6.77
289.135	22.77
289.269	7.77
289.403	-17.23
289.537	5.77
289.671	6.77
289.805	6.77
289.939	6.77
290.073	6.77
290.207	6.77
290.34	5.77
290.474	21.77
290.608	7.77
290.742	17.77
290.876	7.77
291.01	6.77
291.144	16.77
291.278	19.77
291.412	27.77
291.546	8.77
291.679	0.77
291.813	19.77
291.947	5.77
292.081	-0.23
292.215	-15.23
292.349	-9.23
292.482	3.77
292.616	6.77
292.75	-4.23
292.884	7.77
293.018	12.77
293.151	-12.23
293.285	7.77
293.419	-11.23
293.553	5.77
293.686	2.77
293.82	6.77
293.954	32.77
294.088	40.77
294.221	2.77
294.355	-13.23
294.489	-0.23
294.622	1.77
294.756	11.77
294.89	6.77
295.023	22.77
295.157	14.77
295.291	21.77
295.424	11.77
295.558	13.77
295.691	16.77
295.825	3.77
295.959	19.77
296.092	7.77
296.226	14.77
296.359	13.77
296.493	9.77
296.627	9.77
296.76	3.77
296.894	-5.23
297.027	12.77
297.161	13.77
297.294	-13.23
297.428	2.77
297.561	14.77
297.695	-1.23
297.828	13.77
297.962	2.77
298.095	-1.23
298.229	16.77
298.362	7.77
298.495	1.77
298.629	-4.23
298.762	19.77
298.896	15.77
299.029	-5.23
299.162	22.77
299.296	9.77
299.429	7.77
299.563	3.77
299.696	-7.23
299.829	18.77
299.963	6.77
300.096	22.77
300.229	16.77
300.363	-2.23
300.496	6.77
300.629	-28.23
300.763	-0.23
300.896	17.77
301.029	14.77
301.162	23.77
301.296	-2.23
301.429	-7.23
301.562	-10.23
301.695	14.77
301.829	1.77
301.962	24.77
302.095	-0.23
302.228	-1.23
302.362	9.77
302.495	4.77
302.628	7.77
302.761	10.77
302.894	14.77
303.027	8.77
303.161	4.77
303.294	-2.23
303.427	17.77
303.56	15.77
303.693	3.77
303.826	6.77
303.959	4.77
304.092	2.77
304.225	3.77
304.359	11.77
304.492	3.77
304.625	-1.23
304.758	19.77
304.891	-7.23
305.024	14.77
305.157	6.77
305.29	6.77
305.423	-3.23
305.556	35.77
305.689	36.77
305.822	1.77
305.955	13.77
306.088	15.77
306.221	5.77
306.354	7.77
306.487	-10.23
306.62	-2.23
306.752	14.77
306.885	10.77
307.018	-6.23
307.151	25.77
307.284	25.77
307.417	7.77
307.55	6.77
307.683	7.77
307.816	9.77
307.948	7.77
308.081	21.77
308.214	23.77
308.347	24.77
308.48	21.77
308.613	14.77
308.745	19.77
308.878	-17.23
309.011	-1.23
309.144	26.77
309.277	22.77
309.409	18.77
309.542	8.77
309.675	14.77
309.808	4.77
309.94	14.77
310.073	2.77
310.206	4.77
310.339	12.77
310.471	3.77
310.604	15.77
310.737	8.77
310.869	1.77
311.002	4.77
311.135	21.77
311.267	-4.23
311.4	1.77
311.533	7.77
311.665	-1.23
311.798	2.77
311.93	0.77
312.063	30.77
312.196	57.77
312.328	77.77
312.461	45.77
312.593	39.77
312.726	68.77
312.859	92.77
312.991	160.77
313.124	50.77
313.256	32.77
313.389	7.77
313.521	3.77
313.654	9.77
313.786	-4.23
313.919	4.77
314.051	-1.23
314.184	15.77
314.316	19.77
314.449	-10.23
314.581	12.77
314.714	-8.23
314.846	17.77
314.978	-1.23
315.111	-14.23
315.243	7.77
315.376	18.77
315.508	3.77
315.641	11.77
315.773	39.77
315.905	23.77
316.038	-0.23
316.17	-2.23
316.302	0.77
316.435	1.77
316.567	-6.23
316.699	6.77
316.832	-9.23
316.964	-9.23
317.096	-3.23
317.229	-16.23
317.361	-28.23
317.493	4.77
317.625	0.77
317.758	7.77
317.89	18.77
318.022	10.77
318.155	1.77
318.287	11.77
318.419	2.77
318.551	27.77
318.683	-6.23
318.816	5.77
318.948	-10.23
319.08	3.77
319.212	-2.23
319.344	2.77
319.477	11.77
319.609	14.77
319.741	18.77
319.873	0.77
320.005	-16.23
320.137	12.77
320.269	17.77
320.401	8.77
320.534	2.77
320.666	-16.23
320.798	-13.23
320.93	13.77
321.062	14.77
321.194	7.77
321.326	5.77
321.458	32.77
321.59	21.77
321.722	-4.23
321.854	21.77
321.986	4.77
322.118	9.77
322.25	9.77
322.382	31.77
322.514	20.77
322.646	-0.23
322.778	22.77
322.91	-4.23
323.042	23.77
323.174	-10.23
323.306	-6.23
323.438	-11.23
323.57	9.77
323.702	14.77
323.834	29.77
323.966	-2.23
324.097	-4.23
324.229	9.77
324.361	14.77
324.493	20.77
324.625	18.77
324.757	16.77
324.889	7.77
325.021	28.77
325.152	30.77
325.284	30.77
325.416	13.77
325.548	31.77
325.68	10.77
325.811	37.77
325.943	14.77
326.075	23.77
326.207	5.77
326.339	18.77
326.47	15.77
326.602	27.77
326.734	16.77
326.866	31.77
326.997	-6.23
327.129	-16.23
327.261	-9.23
327.392	1.77
327.524	1.77
327.656	-1.23
327.787	11.77
327.919	19.77
328.051	22.77
328.182	32.77
328.314	34.77
328.446	19.77
328.577	26.77
328.709	27.77
328.841	1.77
328.972	-13.23
329.104	-1.23
329.235	15.77
329.367	-0.23
329.499	13.77
329.63	15.77
329.762	11.77
329.893	27.77
330.025	6.77
330.156	-11.23
330.288	25.77
330.419	20.77
330.551	15.77
330.683	16.77
330.814	5.77
330.946	3.77
331.077	8.77
331.208	13.77
331.34	16.77
331.471	5.77
331.603	11.77
331.734	-3.23
331.866	15.77
331.997	4.77
332.129	6.77
332.26	2.77
332.392	5.77
332.523	11.77
332.654	23.77
332.786	16.77
332.917	14.77
333.048	21.77
333.18	22.77
333.311	1.77
333.443	5.77
333.574	18.77
333.705	31.77
333.837	37.77
333.968	104.77
334.099	253.77
334.231	226.77
334.362	55.77
334.493	30.77
334.624	34.77
334.756	21.77
334.887	6.77
335.018	1.77
335.15	35.77
335.281	22.77
335.412	23.77
335.543	24.77
335.675	5.77
335.806	36.77
335.937	30.77
336.068	30.77
336.199	37.77
336.331	11.77
336.462	12.77
336.593	26.77
336.724	21.77
336.855	18.77
336.986	23.77
337.118	26.77
337.249	20.77
337.38	34.77
337.511	15.77
337.642	24.77
337.773	30.77
337.904	26.77
338.035	-3.23
338.166	11.77
338.298	27.77
338.429	9.77
338.56	26.77
338.691	31.77
338.822	19.77
338.953	12.77
339.084	23.77
339.215	27.77
339.346	19.77
339.477	19.77
339.608	13.77
339.739	11.77
339.87	8.77
340.001	-2.23
340.132	22.77
340.263	12.77
340.394	12.77
340.525	0.77
340.656	-4.23
340.787	13.77
340.918	41.77
341.049	21.77
341.179	-5.23
341.31	14.77
341.441	31.77
341.572	25.77
341.703	10.77
341.834	-14.23
341.965	16.77
342.096	16.77
342.227	32.77
342.357	13.77
342.488	27.77
342.619	23.77
342.75	32.77
342.881	15.77
343.012	23.77
343.142	46.77
343.273	22.77
343.404	42.77
343.535	42.77
343.666	25.77
343.796	40.77
343.927	33.77
344.058	15.77
344.189	28.77
344.319	30.77
344.45	20.77
344.581	19.77
344.712	-2.23
344.842	13.77
344.973	14.77
345.104	43.77
345.234	28.77
345.365	6.77
345.496	8.77
345.626	44.77
345.757	23.77
345.888	13.77
346.018	38.77
346.149	22.77
346.28	38.77
346.41	23.77
346.541	22.77
346.672	21.77
346.802	46.77
346.933	37.77
347.063	37.77
347.194	31.77
347.325	33.77
347.455	47.77
347.586	40.77
347.716	11.77
347.847	36.77
347.977	22.77
348.108	59.77
348.238	37.77
348.369	37.77
348.499	44.77
348.63	41.77
348.76	54.77
348.891	60.77
349.021	64.77
349.152	67.77
349.282	60.77
349.413	26.77
349.543	64.77
349.674	46.77
349.804	31.77
349.935	32.77
350.065	13.77
350.196	27.77
350.326	28.77
350.456	27.77
350.587	52.77
350.717	38.77
350.848	27.77
350.978	34.77
351.108	18.77
351.239	60.77
351.369	20.77
351.499	27.77
351.63	21.77
351.76	33.77
351.89	9.77
352.021	31.77
352.151	20.77
352.281	44.77
352.412	28.77
352.542	33.77
352.672	19.77
352.803	16.77
352.933	9.77
353.063	27.77
353.193	36.77
353.324	22.77
353.454	21.77
353.584	32.77
353.714	23.77
353.845	30.77
353.975	13.77
354.105	23.77
354.235	31.77
354.365	31.77
354.496	14.77
354.626	33.77
354.756	48.77
354.886	21.77
355.016	21.77
355.146	26.77
355.277	15.77
355.407	27.77
355.537	47.77
355.667	50.77
355.797	30.77
355.927	14.77
356.057	36.77
356.187	29.77
356.318	23.77
356.448	29.77
356.578	39.77
356.708	39.77
356.838	44.77
356.968	27.77
357.098	29.77
357.228	37.77
357.358	34.77
357.488	40.77
357.618	70.77
357.748	40.77
357.878	36.77
358.008	46.77
358.138	21.77
358.268	27.77
358.398	40.77
358.528	24.77
358.658	39.77
358.788	38.77
358.918	37.77
359.048	26.77
359.178	30.77
359.308	39.77
359.438	53.77
359.568	41.77
359.698	45.77
359.827	40.77
359.957	31.77
360.087	33.77
360.217	34.77
360.347	23.77
360.477	36.77
360.607	10.77
360.737	46.77
360.866	37.77
360.996	21.77
361.126	25.77
361.256	59.77
361.386	42.77
361.516	54.77
361.645	9.77
361.775	43.77
361.905	21.77
362.035	38.77
362.165	45.77
362.294	50.77
362.424	54.77
362.554	48.77
362.684	45.77
362.813	31.77
362.943	62.77
363.073	47.77
363.203	59.77
363.332	70.77
363.462	80.77
363.592	101.77
363.721	124.77
363.851	155.77
363.981	226.77
364.111	277.77
364.24	331.77
364.37	497.77
364.5	877.77
364.629	1868.77
364.759	3889.77
364.888	6402.77
365.018	9574.77
365.148	14882.77
365.277	13158.77
365.407	4854.77
365.537	3174.77
365.666	4166.77
365.796	1871.77
365.925	816.77
366.055	757.77
366.184	1063.77
366.314	1420.77
366.444	2519.77
366.573	2129.77
366.703	667.77
366.832	231.77
366.962	118.77
367.091	83.77
367.221	88.77
367.35	70.77
367.48	80.77
367.609	59.77
367.739	50.77
367.868	26.77
367.998	47.77
368.127	54.77
368.257	67.77
368.386	56.77
368.516	45.77
368.645	43.77
368.775	42.77
368.904	44.77
369.033	27.77
369.163	20.77
369.292	38.77
369.422	32.77
369.551	49.77
369.68	66.77
369.81	45.77
369.939	27.77
370.069	41.77
370.198	35.77
370.327	3.77
370.457	37.77
370.586	50.77
370.715	34.77
370.845	31.77
370.974	46.77
371.103	50.77
371.233	59.77
371.362	51.77
371.491	45.77
371.621	43.77
371.75	56.77
371.879	51.77
372.008	45.77
372.138	55.77
372.267	75.77
372.396	54.77
372.525	42.77
372.655	36.77
372.784	35.77
372.913	32.77
373.042	38.77
373.172	48.77
373.301	7.77
373.43	15.77
373.559	26.77
373.688	19.77
373.818	41.77
373.947	30.77
374.076	20.77
374.205	40.77
374.334	16.77
374.463	18.77
374.593	27.77
374.722	36.77
374.851	56.77
374.98	2.77
375.109	21.77
375.238	44.77
375.367	28.77
375.496	4.77
375.625	18.77
375.755	28.77
375.884	51.77
376.013	43.77
376.142	18.77
376.271	31.77
376.4	37.77
376.529	34.77
376.658	42.77
376.787	18.77
376.916	15.77
377.045	9.77
377.174	16.77
377.303	21.77
377.432	46.77
377.561	37.77
377.69	16.77
377.819	49.77
377.948	18.77
378.077	23.77
378.206	24.77
378.335	20.77
378.464	19.77
378.593	41.77
378.722	15.77
378.851	15.77
378.98	39.77
379.108	20.77
379.237	0.77
379.366	24.77
379.495	27.77
379.624	29.77
379.753	12.77
379.882	22.77
380.011	2.77
380.14	0.77
380.268	9.77
380.397	19.77
380.526	19.77
380.655	14.77
380.784	9.77
380.913	9.77
381.041	3.77
381.17	-2.23
381.299	10.77
381.428	19.77
381.557	17.77
381.685	18.77
381.814	10.77
381.943	15.77
382.072	2.77
382.2	15.77
382.329	10.77
382.458	29.77
382.587	29.77
382.715	39.77
382.844	19.77
382.973	23.77
383.102	7.77
383.23	5.77
383.359	-8.23
383.488	39.77
383.616	12.77
383.745	15.77
383.874	14.77
384.003	20.77
384.131	-3.23
384.26	4.77
384.389	13.77
384.517	9.77
384.646	10.77
384.774	24.77
384.903	13.77
385.032	32.77
385.16	16.77
385.289	20.77
385.418	13.77
385.546	21.77
385.675	33.77
385.803	37.77
385.932	29.77
386.06	20.77
386.189	28.77
386.318	47.77
386.446	30.77
386.575	27.77
386.703	18.77
386.832	4.77
386.96	5.77
387.089	25.77
387.217	15.77
387.346	14.77
387.474	20.77
387.603	26.77
387.731	18.77
387.86	38.77
387.988	16.77
388.117	34.77
388.245	41.77
388.374	34.77
388.502	37.77
388.631	15.77
388.759	10.77
388.888	34.77
389.016	22.77
389.144	34.77
389.273	14.77
389.401	31.77
389.53	-0.23
389.658	39.77
389.786	27.77
389.915	33.77
390.043	18.77
390.172	11.77
390.3	37.77
390.428	45.77
390.557	10.77
390.685	49.77
390.813	47.77
390.942	46.77
391.07	26.77
391.198	16.77
391.327	15.77
391.455	10.77
391.583	50.77
391.712	37.77
391.84	23.77
391.968	30.77
392.096	21.77
392.225	32.77
392.353	32.77
392.481	29.77
392.609	31.77
392.738	38.77
392.866	50.77
392.994	9.77
393.122	32.77
393.251	25.77
393.379	14.77
393.507	14.77
393.635	29.77
393.764	35.77
393.892	58.77
394.02	43.77
394.148	27.77
394.276	25.77
394.404	44.77
394.533	40.77
394.661	34.77
394.789	54.77
394.917	64.77
395.045	32.77
395.173	11.77
395.302	20.77
395.43	21.77
395.558	39.77
395.686	60.77
395.814	64.77
395.942	22.77
396.07	38.77
396.198	46.77
396.326	41.77
396.454	57.77
396.582	45.77
396.711	42.77
396.839	37.77
396.967	49.77
397.095	27.77
397.223	37.77
397.351	41.77
397.479	52.77
397.607	45.77
397.735	45.77
397.863	42.77
397.991	57.77
398.119	34.77
398.247	53.77
398.375	58.77
398.503	51.77
398.631	66.77
398.759	76.77
398.887	52.77
399.015	54.77
399.143	67.77
399.271	56.77
399.399	67.77
399.526	86.77
399.654	102.77
399.782	60.77
399.91	106.77
400.038	103.77
400.166	96.77
400.294	91.77
400.422	81.77
400.55	113.77
400.678	118.77
400.805	113.77
400.933	117.77
401.061	143.77
401.189	117.77
401.317	153.77
401.445	103.77
401.573	73.77
401.7	53.77
401.828	56.77
401.956	66.77
402.084	53.77
402.212	47.77
402.34	45.77
402.467	41.77
402.595	38.77
402.723	48.77
402.851	85.77
402.978	49.77
403.106	80.77
403.234	96.77
403.362	124.77
403.489	124.77
403.617	160.77
403.745	204.77
403.873	274.77
404	548.77
404.128	1500.77
404.256	3999.77
404.384	5216.77
404.511	5527.77
404.639	7331.77
404.767	11594.77
404.894	14769.77
405.022	4987.77
405.15	1319.77
405.277	440.77
405.405	248.77
405.533	137.77
405.66	115.77
405.788	68.77
405.916	76.77
406.043	57.77
406.171	86.77
406.299	55.77
406.426	66.77
406.554	59.77
406.681	88.77
406.809	57.77
406.937	62.77
407.064	78.77
407.192	134.77
407.319	310.77
407.447	531.77
407.574	538.77
407.702	611.77
407.83	876.77
407.957	1626.77
408.085	969.77
408.212	298.77
408.34	113.77
408.467	69.77
408.595	46.77
408.722	63.77
408.85	61.77
408.977	65.77
409.105	24.77
409.232	27.77
409.36	37.77
409.487	29.77
409.615	27.77
409.742	39.77
409.87	30.77
409.997	40.77
410.125	58.77
410.252	38.77
410.379	30.77
410.507	43.77
410.634	43.77
410.762	23.77
410.889	51.77
411.017	47.77
411.144	36.77
411.271	15.77
411.399	24.77
411.526	36.77
411.653	33.77
411.781	48.77
411.908	22.77
412.036	28.77
412.163	58.77
412.29	64.77
412.418	37.77
412.545	36.77
412.672	9.77
412.8	52.77
412.927	26.77
413.054	48.77
413.182	38.77
413.309	40.77
413.436	23.77
413.564	26.77
413.691	24.77
413.818	58.77
413.945	21.77
414.073	26.77
414.2	44.77
414.327	35.77
414.454	54.77
414.582	34.77
414.709	12.77
414.836	25.77
414.963	43.77
415.091	34.77
415.218	29.77
415.345	43.77
415.472	38.77
415.6	21.77
415.727	27.77
415.854	48.77
415.981	37.77
416.108	40.77
416.236	27.77
416.363	45.77
416.49	26.77
416.617	22.77
416.744	26.77
416.871	49.77
416.998	15.77
417.126	21.77
417.253	11.77
417.38	27.77
417.507	19.77
417.634	29.77
417.761	35.77
417.888	48.77
418.015	48.77
418.143	30.77
418.27	46.77
418.397	43.77
418.524	55.77
418.651	45.77
418.778	40.77
418.905	51.77
419.032	42.77
419.159	42.77
419.286	52.77
419.413	55.77
419.54	56.77
419.667	55.77
419.794	50.77
419.921	46.77
420.048	63.77
420.175	75.77
420.302	67.77
420.429	50.77
420.556	69.77
420.683	54.77
420.81	60.77
420.937	65.77
421.064	74.77
421.191	57.77
421.318	58.77
421.445	74.77
421.572	83.77
421.699	81.77
421.826	54.77
421.953	43.77
422.08	42.77
422.207	35.77
422.334	14.77
422.461	30.77
422.588	23.77
422.714	32.77
422.841	49.77
422.968	41.77
423.095	18.77
423.222	18.77
423.349	19.77
423.476	35.77
423.603	11.77
423.729	11.77
423.856	18.77
423.983	47.77
424.11	17.77
424.237	49.77
424.364	35.77
424.491	25.77
424.617	-2.23
424.744	19.77
424.871	24.77
424.998	4.77
425.125	14.77
425.251	30.77
425.378	21.77
425.505	18.77
425.632	18.77
425.758	15.77
425.885	14.77
426.012	34.77
426.139	32.77
426.266	34.77
426.392	32.77
426.519	34.77
426.646	27.77
426.772	21.77
426.899	4.77
427.026	19.77
427.153	28.77
427.279	50.77
427.406	21.77
427.533	24.77
427.659	21.77
427.786	22.77
427.913	42.77
428.039	33.77
428.166	24.77
428.293	15.77
428.419	39.77
428.546	35.77
428.673	26.77
428.799	15.77
428.926	35.77
429.053	50.77
429.179	40.77
429.306	46.77
429.433	37.77
429.559	36.77
429.686	16.77
429.812	14.77
429.939	13.77
430.066	26.77
430.192	36.77
430.319	40.77
430.445	32.77
430.572	30.77
430.699	32.77
430.825	18.77
430.952	50.77
431.078	41.77
431.205	38.77
431.331	24.77
431.458	35.77
431.584	53.77
431.711	23.77
431.837	29.77
431.964	34.77
432.09	42.77
432.217	11.77
432.343	30.77
432.47	41.77
432.596	54.77
432.723	24.77
432.849	30.77
432.976	48.77
433.102	51.77
433.229	43.77
433.355	47.77
433.482	88.77
433.608	116.77
433.735	118.77
433.861	123.77
433.987	158.77
434.114	182.77
434.24	188.77
434.367	217.77
434.493	226.77
434.62	291.77
434.746	406.77
434.872	615.77
434.999	842.77
435.125	1785.77
435.252	5580.77
435.378	13524.77
435.504	15259.77
435.631	15477.77
435.757	15688.77
435.883	15688.77
436.01	15688.77
436.136	15688.77
436.262	15688.77
436.389	3539.77
436.515	2614.77
436.641	905.77
436.768	661.77
436.894	400.77
437.02	409.77
437.147	310.77
437.273	324.77
437.399	228.77
437.526	235.77
437.652	191.77
437.778	216.77
437.904	152.77
438.031	186.77
438.157	159.77
438.283	156.77
438.409	130.77
438.536	128.77
438.662	114.77
438.788	141.77
438.914	115.77
439.041	132.77
439.167	120.77
439.293	111.77
439.419	99.77
439.546	99.77
439.672	81.77
439.798	84.77
439.924	95.77
440.05	96.77
440.177	85.77
440.303	95.77
440.429	64.77
440.555	69.77
440.681	63.77
440.807	87.77
440.934	62.77
441.06	69.77
441.186	48.77
441.312	69.77
441.438	76.77
441.564	66.77
441.69	59.77
441.816	67.77
441.943	68.77
442.069	70.77
442.195	56.77
442.321	58.77
442.447	39.77
442.573	46.77
442.699	38.77
442.825	36.77
442.951	59.77
443.077	69.77
443.203	61.77
443.33	39.77
443.456	36.77
443.582	36.77
443.708	53.77
443.834	63.77
443.96	48.77
444.086	50.77
444.212	62.77
444.338	56.77
444.464	57.77
444.59	52.77
444.716	38.77
444.842	50.77
444.968	29.77
445.094	49.77
445.22	47.77
445.346	32.77
445.472	39.77
445.598	38.77
445.724	36.77
445.85	44.77
445.976	43.77
446.102	47.77
446.228	41.77
446.354	39.77
446.48	35.77
446.605	37.77
446.731	27.77
446.857	53.77
446.983	31.77
447.109	46.77
447.235	48.77
447.361	14.77
447.487	36.77
447.613	49.77
447.739	65.77
447.865	28.77
447.99	32.77
448.116	41.77
448.242	54.77
448.368	43.77
448.494	27.77
448.62	27.77
448.746	40.77
448.872	35.77
448.997	29.77
449.123	29.77
449.249	30.77
449.375	58.77
449.501	27.77
449.627	37.77
449.752	58.77
449.878	23.77
450.004	30.77
450.13	34.77
450.256	20.77
450.381	34.77
450.507	39.77
450.633	22.77
450.759	51.77
450.884	40.77
451.01	37.77
451.136	43.77
451.262	36.77
451.388	37.77
451.513	22.77
451.639	30.77
451.765	36.77
451.89	50.77
452.016	31.77
452.142	25.77
452.268	39.77
452.393	34.77
452.519	33.77
452.645	34.77
452.771	16.77
452.896	11.77
453.022	23.77
453.148	54.77
453.273	27.77
453.399	23.77
453.525	7.77
453.65	25.77
453.776	31.77
453.902	41.77
454.027	62.77
454.153	35.77
454.279	28.77
454.404	22.77
454.53	51.77
454.656	65.77
454.781	26.77
454.907	29.77
455.032	9.77
455.158	29.77
455.284	41.77
455.409	39.77
455.535	43.77
455.66	37.77
455.786	44.77
455.912	28.77
456.037	30.77
456.163	40.77
456.288	34.77
456.414	15.77
456.539	11.77
456.665	39.77
456.791	29.77
456.916	34.77
457.042	13.77
457.167	19.77
457.293	28.77
457.418	23.77
457.544	21.77
457.669	46.77
457.795	10.77
457.92	32.77
458.046	40.77
458.171	28.77
458.297	34.77
458.422	16.77
458.548	22.77
458.673	50.77
458.799	30.77
458.924	25.77
459.05	20.77
459.175	15.77
459.301	29.77
459.426	46.77
459.552	21.77
459.677	38.77
459.803	47.77
459.928	25.77
460.053	33.77
460.179	41.77
460.304	35.77
460.43	31.77
460.555	25.77
460.681	18.77
460.806	23.77
460.931	38.77
461.057	39.77
461.182	14.77
461.308	37.77
461.433	39.77
461.558	20.77
461.684	38.77
461.809	41.77
461.934	23.77
462.06	58.77
462.185	11.77
462.311	29.77
462.436	23.77
462.561	27.77
462.687	13.77
462.812	28.77
462.937	28.77
463.063	25.77
463.188	35.77
463.313	34.77
463.439	32.77
463.564	31.77
463.689	35.77
463.814	35.77
463.94	18.77
464.065	52.77
464.19	40.77
464.316	30.77
464.441	18.77
464.566	27.77
464.692	24.77
464.817	22.77
464.942	16.77
465.067	26.77
465.193	25.77
465.318	19.77
465.443	17.77
465.568	22.77
465.694	18.77
465.819	58.77
465.944	30.77
466.069	23.77
466.194	44.77
466.32	56.77
466.445	39.77
466.57	13.77
466.695	10.77
466.82	42.77
466.946	43.77
467.071	56.77
467.196	33.77
467.321	39.77
467.446	44.77
467.572	50.77
467.697	42.77
467.822	50.77
467.947	61.77
468.072	30.77
468.197	35.77
468.323	35.77
468.448	28.77
468.573	18.77
468.698	35.77
468.823	46.77
468.948	43.77
469.073	41.77
469.198	64.77
469.324	55.77
469.449	45.77
469.574	52.77
469.699	61.77
469.824	42.77
469.949	18.77
470.074	31.77
470.199	61.77
470.324	21.77
470.449	32.77
470.574	34.77
470.7	21.77
470.825	25.77
470.95	57.77
471.075	36.77
471.2	43.77
471.325	46.77
471.45	51.77
471.575	34.77
471.7	46.77
471.825	16.77
471.95	31.77
472.075	28.77
472.2	46.77
472.325	20.77
472.45	25.77
472.575	29.77
472.7	24.77
472.825	50.77
472.95	45.77
473.075	63.77
473.2	48.77
473.325	36.77
473.45	54.77
473.575	27.77
473.7	37.77
473.825	32.77
473.95	46.77
474.075	55.77
474.2	16.77
474.325	10.77
474.45	26.77
474.574	22.77
474.699	27.77
474.824	25.77
474.949	24.77
475.074	13.77
475.199	26.77
475.324	36.77
475.449	16.77
475.574	35.77
475.699	32.77
475.824	21.77
475.949	29.77
476.073	17.77
476.198	29.77
476.323	22.77
476.448	17.77
476.573	19.77
476.698	27.77
476.823	40.77
476.947	39.77
477.072	16.77
477.197	37.77
477.322	25.77
477.447	11.77
477.572	35.77
477.697	18.77
477.821	11.77
477.946	40.77
478.071	30.77
478.196	49.77
478.321	35.77
478.445	34.77
478.57	14.77
478.695	24.77
478.82	33.77
478.945	45.77
479.069	23.77
479.194	19.77
479.319	36.77
479.444	37.77
479.569	11.77
479.693	28.77
479.818	18.77
479.943	38.77
480.068	25.77
480.192	32.77
480.317	14.77
480.442	22.77
480.567	14.77
480.691	19.77
480.816	15.77
480.941	25.77
481.066	24.77
481.19	40.77
481.315	41.77
481.44	16.77
481.564	13.77
481.689	30.77
481.814	22.77
481.938	23.77
482.063	5.77
482.188	14.77
482.313	38.77
482.437	14.77
482.562	32.77
482.687	23.77
482.811	19.77
482.936	21.77
483.061	20.77
483.185	20.77
483.31	30.77
483.435	44.77
483.559	27.77
483.684	23.77
483.808	45.77
483.933	20.77
484.058	14.77
484.182	19.77
484.307	20.77
484.432	22.77
484.556	19.77
484.681	34.77
484.805	29.77
484.93	30.77
485.055	30.77
485.179	48.77
485.304	29.77
485.428	33.77
485.553	19.77
485.678	29.77
485.802	22.77
485.927	30.77
486.051	51.77
486.176	34.77
486.3	23.77
486.425	19.77
486.549	33.77
486.674	33.77
486.799	22.77
486.923	19.77
487.048	16.77
487.172	18.77
487.297	29.77
487.421	21.77
487.546	13.77
487.67	28.77
487.795	18.77
487.919	35.77
488.044	30.77
488.168	27.77
488.293	35.77
488.417	27.77
488.542	31.77
488.666	28.77
488.791	44.77
488.915	32.77
489.04	17.77
489.164	34.77
489.289	22.77
489.413	9.77
489.538	43.77
489.662	32.77
489.786	18.77
489.911	31.77
490.035	26.77
490.16	10.77
490.284	28.77
490.409	-0.23
490.533	21.77
490.658	35.77
490.782	44.77
490.906	57.77
491.031	138.77
491.155	153.77
491.28	155.77
491.404	180.77
491.528	258.77
491.653	158.77
491.777	67.77
491.902	23.77
492.026	45.77
492.15	30.77
492.275	48.77
492.399	45.77
492.524	20.77
492.648	32.77
492.772	28.77
492.897	49.77
493.021	35.77
493.145	39.77
493.27	50.77
493.394	26.77
493.518	18.77
493.643	22.77
493.767	34.77
493.891	15.77
494.016	23.77
494.14	22.77
494.264	27.77
494.389	41.77
494.513	25.77
494.637	8.77
494.762	16.77
494.886	34.77
495.01	41.77
495.134	21.77
495.259	15.77
495.383	7.77
495.507	38.77
495.632	40.77
495.756	47.77
495.88	31.77
496.004	27.77
496.129	3.77
496.253	22.77
496.377	26.77
496.501	50.77
496.626	29.77
496.75	30.77
496.874	29.77
496.998	24.77
497.123	31.77
497.247	17.77
497.371	14.77
497.495	24.77
497.62	18.77
497.744	16.77
497.868	4.77
497.992	10.77
498.116	27.77
498.241	37.77
498.365	18.77
498.489	25.77
498.613	43.77
498.737	36.77
498.862	25.77
498.986	18.77
499.11	31.77
499.234	13.77
499.358	18.77
499.482	13.77
499.607	31.77
499.731	41.77
499.855	33.77
499.979	26.77
500.103	26.77
500.227	29.77
500.351	31.77
500.476	35.77
500.6	27.77
500.724	20.77
500.848	21.77
500.972	23.77
501.096	22.77
501.22	33.77
501.344	30.77
501.469	20.77
501.593	31.77
501.717	38.77
501.841	30.77
501.965	31.77
502.089	26.77
502.213	30.77
502.337	19.77
502.461	17.77
502.585	30.77
502.709	28.77
502.834	2.77
502.958	41.77
503.082	30.77
503.206	18.77
503.33	38.77
503.454	26.77
503.578	46.77
503.702	38.77
503.826	30.77
503.95	47.77
504.074	31.77
504.198	20.77
504.322	11.77
504.446	6.77
504.57	31.77
504.694	44.77
504.818	17.77
504.942	30.77
505.066	29.77
505.19	19.77
505.314	44.77
505.438	14.77
505.562	21.77
505.686	39.77
505.81	29.77
505.934	47.77
506.058	33.77
506.182	36.77
506.306	35.77
506.43	28.77
506.554	27.77
506.678	22.77
506.802	38.77
506.926	17.77
507.05	37.77
507.174	33.77
507.298	46.77
507.422	33.77
507.546	37.77
507.67	43.77
507.794	13.77
507.918	13.77
508.042	14.77
508.165	5.77
508.289	21.77
508.413	29.77
508.537	23.77
508.661	45.77
508.785	25.77
508.909	39.77
509.033	49.77
509.157	31.77
509.281	33.77
509.405	34.77
509.528	47.77
509.652	53.77
509.776	29.77
509.9	50.77
510.024	27.77
510.148	34.77
510.272	23.77
510.396	44.77
510.519	22.77
510.643	45.77
510.767	50.77
510.891	33.77
511.015	50.77
511.139	44.77
511.263	53.77
511.386	51.77
511.51	53.77
511.634	48.77
511.758	33.77
511.882	41.77
512.006	78.77
512.129	76.77
512.253	90.77
512.377	89.77
512.501	117.77
512.625	86.77
512.748	90.77
512.872	76.77
512.996	54.77
513.12	51.77
513.244	47.77
513.367	77.77
513.491	73.77
513.615	87.77
513.739	91.77
513.862	88.77
513.986	95.77
514.11	105.77
514.234	85.77
514.358	111.77
514.481	115.77
514.605	118.77
514.729	118.77
514.853	110.77
514.976	106.77
515.1	101.77
515.224	117.77
515.348	78.77
515.471	99.77
515.595	97.77
515.719	122.77
515.842	218.77
515.966	288.77
516.09	324.77
516.214	289.77
516.337	309.77
516.461	217.77
516.585	97.77
516.708	42.77
516.832	41.77
516.956	25.77
517.08	13.77
517.203	20.77
517.327	23.77
517.451	47.77
517.574	43.77
517.698	31.77
517.822	38.77
517.945	37.77
518.069	22.77
518.193	41.77
518.316	25.77
518.44	17.77
518.564	14.77
518.687	23.77
518.811	7.77
518.935	44.77
519.058	14.77
519.182	26.77
519.306	17.77
519.429	23.77
519.553	52.77
519.676	10.77
519.8	16.77
519.924	29.77
520.047	19.77
520.171	23.77
520.294	23.77
520.418	11.77
520.542	15.77
520.665	25.77
520.789	20.77
520.913	4.77
521.036	10.77
521.16	2.77
521.283	17.77
521.407	20.77
521.53	16.77
521.654	4.77
521.778	13.77
521.901	25.77
522.025	35.77
522.148	15.77
522.272	26.77
522.395	19.77
522.519	37.77
522.643	18.77
522.766	28.77
522.89	15.77
523.013	30.77
523.137	9.77
523.26	7.77
523.384	22.77
523.507	16.77
523.631	10.77
523.754	6.77
523.878	18.77
524.002	15.77
524.125	23.77
524.249	9.77
524.372	9.77
524.496	32.77
524.619	42.77
524.743	10.77
524.866	7.77
524.99	3.77
525.113	6.77
525.237	20.77
525.36	18.77
525.484	13.77
525.607	7.77
525.731	10.77
525.854	23.77
525.978	31.77
526.101	25.77
526.224	22.77
526.348	31.77
526.471	33.77
526.595	15.77
526.718	13.77
526.842	22.77
526.965	37.77
527.089	25.77
527.212	22.77
527.336	15.77
527.459	29.77
527.582	42.77
527.706	31.77
527.829	33.77
527.953	39.77
528.076	21.77
528.2	31.77
528.323	44.77
528.446	34.77
528.57	41.77
528.693	36.77
528.817	7.77
528.94	30.77
529.064	42.77
529.187	25.77
529.31	17.77
529.434	36.77
529.557	10.77
529.68	12.77
529.804	13.77
529.927	10.77
530.051	22.77
530.174	11.77
530.297	33.77
530.421	33.77
530.544	31.77
530.668	14.77
530.791	13.77
530.914	47.77
531.038	35.77
531.161	13.77
531.284	25.77
531.408	36.77
531.531	21.77
531.654	11.77
531.778	30.77
531.901	23.77
532.024	19.77
532.148	7.77
532.271	25.77
532.394	18.77
532.518	38.77
532.641	23.77
532.764	25.77
532.888	31.77
533.011	5.77
533.134	11.77
533.258	40.77
533.381	19.77
533.504	25.77
533.628	31.77
533.751	35.77
533.874	37.77
533.997	14.77
534.121	17.77
534.244	13.77
534.367	21.77
534.491	17.77
534.614	25.77
534.737	25.77
534.86	17.77
534.984	13.77
535.107	-1.23
535.23	19.77
535.354	18.77
535.477	10.77
535.6	11.77
535.723	26.77
535.847	11.77
535.97	14.77
536.093	5.77
536.216	7.77
536.34	16.77
536.463	20.77
536.586	28.77
536.709	21.77
536.833	22.77
536.956	28.77
537.079	10.77
537.202	43.77
537.325	16.77
537.449	14.77
537.572	18.77
537.695	27.77
537.818	23.77
537.941	17.77
538.065	16.77
538.188	21.77
538.311	38.77
538.434	31.77
538.558	35.77
538.681	44.77
538.804	23.77
538.927	46.77
539.05	25.77
539.173	14.77
539.297	16.77
539.42	19.77
539.543	22.77
539.666	40.77
539.789	28.77
539.913	8.77
540.036	27.77
540.159	35.77
540.282	21.77
540.405	17.77
540.528	26.77
540.651	32.77
540.775	31.77
540.898	30.77
541.021	45.77
541.144	54.77
541.267	34.77
541.39	28.77
541.513	44.77
541.637	41.77
541.76	43.77
541.883	42.77
542.006	43.77
542.129	51.77
542.252	41.77
542.375	48.77
542.498	37.77
542.622	38.77
542.745	59.77
542.868	67.77
542.991	58.77
543.114	66.77
543.237	77.77
543.36	48.77
543.483	51.77
543.606	78.77
543.73	89.77
543.853	82.77
543.976	93.77
544.099	118.77
544.222	126.77
544.345	135.77
544.468	166.77
544.591	235.77
544.714	266.77
544.837	352.77
544.96	449.77
545.083	687.77
545.206	1064.77
545.329	2473.77
545.453	11130.77
545.576	15286.77
545.699	15688.77
545.822	15688.77
545.945	15688.77
546.068	15688.77
546.191	15688.77
546.314	15688.77
546.437	15688.77
546.56	15688.77
546.683	15688.77
546.806	15688.77
546.929	15688.77
547.052	15688.77
547.175	15688.77
547.298	15688.77
547.421	15688.77
547.544	15688.77
547.667	4023.77
547.79	4664.77
547.913	1415.77
548.036	1002.77
548.159	652.77
548.282	676.77
548.405	514.77
548.528	501.77
548.651	415.77
548.774	415.77
548.897	367.77
549.02	379.77
549.143	330.77
549.266	313.77
549.389	270.77
549.512	258.77
549.635	249.77
549.758	257.77
549.881	219.77
550.004	230.77
550.127	192.77
550.25	221.77
550.373	175.77
550.496	190.77
550.619	174.77
550.742	164.77
550.865	152.77
550.988	151.77
551.111	159.77
551.234	148.77
551.356	138.77
551.479	139.77
551.602	138.77
551.725	179.77
551.848	151.77
551.971	148.77
552.094	132.77
552.217	115.77
552.34	126.77
552.463	111.77
552.586	129.77
552.709	113.77
552.832	101.77
552.955	113.77
553.077	105.77
553.2	101.77
553.323	86.77
553.446	95.77
553.569	93.77
553.692	108.77
553.815	99.77
553.938	110.77
554.061	109.77
554.184	96.77
554.306	100.77
554.429	84.77
554.552	75.77
554.675	76.77
554.798	80.77
554.921	93.77
555.044	87.77
555.167	90.77
555.29	87.77
555.412	96.77
555.535	70.77
555.658	84.77
555.781	83.77
555.904	76.77
556.027	73.77
556.15	91.77
556.272	83.77
556.395	89.77
556.518	65.77
556.641	74.77
556.764	80.77
556.887	61.77
557.01	51.77
557.132	59.77
557.255	75.77
557.378	65.77
557.501	59.77
557.624	62.77
557.747	81.77
557.869	91.77
557.992	96.77
558.115	104.77
558.238	87.77
558.361	97.77
558.483	90.77
558.606	86.77
558.729	60.77
558.852	66.77
558.975	72.77
559.098	56.77
559.22	70.77
559.343	68.77
559.466	59.77
559.589	51.77
559.712	66.77
559.834	70.77
559.957	54.77
560.08	43.77
560.203	57.77
560.325	79.77
560.448	64.77
560.571	68.77
560.694	47.77
560.817	73.77
560.939	60.77
561.062	67.77
561.185	69.77
561.308	65.77
561.43	48.77
561.553	63.77
561.676	53.77
561.799	62.77
561.921	42.77
562.044	70.77
562.167	49.77
562.29	87.77
562.413	68.77
562.535	75.77
562.658	45.77
562.781	53.77
562.903	67.77
563.026	97.77
563.149	138.77
563.272	110.77
563.394	106.77
563.517	102.77
563.64	70.77
563.763	61.77
563.885	38.77
564.008	65.77
564.131	64.77
564.254	38.77
564.376	39.77
564.499	20.77
564.622	25.77
564.744	44.77
564.867	44.77
564.99	35.77
565.113	51.77
565.235	60.77
565.358	32.77
565.481	27.77
565.603	23.77
565.726	33.77
565.849	50.77
565.971	49.77
566.094	32.77
566.217	36.77
566.34	43.77
566.462	37.77
566.585	49.77
566.708	70.77
566.83	36.77
566.953	61.77
567.076	47.77
567.198	38.77
567.321	36.77
567.444	35.77
567.566	38.77
567.689	22.77
567.812	32.77
567.934	47.77
568.057	45.77
568.18	63.77
568.302	39.77
568.425	24.77
568.548	30.77
568.67	31.77
568.793	32.77
568.916	33.77
569.038	38.77
569.161	47.77
569.283	46.77
569.406	35.77
569.529	25.77
569.651	26.77
569.774	11.77
569.897	26.77
570.019	48.77
570.142	49.77
570.265	43.77
570.387	33.77
570.51	66.77
570.632	33.77
570.755	37.77
570.878	35.77
571	29.77
571.123	30.77
571.246	49.77
571.368	28.77
571.491	36.77
571.613	39.77
571.736	9.77
571.859	4.77
571.981	26.77
572.104	46.77
572.226	33.77
572.349	44.77
572.472	21.77
572.594	36.77
572.717	44.77
572.839	31.77
572.962	41.77
573.085	26.77
573.207	33.77
573.33	35.77
573.452	45.77
573.575	43.77
573.697	18.77
573.82	22.77
573.943	21.77
574.065	31.77
574.188	48.77
574.31	44.77
574.433	50.77
574.555	76.77
574.678	40.77
574.801	45.77
574.923	29.77
575.046	45.77
575.168	45.77
575.291	41.77
575.413	19.77
575.536	46.77
575.659	58.77
575.781	27.77
575.904	39.77
576.026	85.77
576.149	98.77
576.271	137.77
576.394	201.77
576.516	542.77
576.639	3762.77
576.761	10329.77
576.884	8931.77
577.007	8890.77
577.129	8124.77
577.252	3775.77
577.374	1309.77
577.497	506.77
577.619	285.77
577.742	188.77
577.864	160.77
577.987	135.77
578.109	121.77
578.232	138.77
578.354	147.77
578.477	197.77
578.599	424.77
578.722	2041.77
578.844	9285.77
578.967	9889.77
579.089	8878.77
579.212	9126.77
579.334	5346.77
579.457	1939.77
579.579	731.77
579.702	336.77
579.824	228.77
579.947	142.77
580.069	109.77
580.192	89.77
580.314	89.77
580.437	85.77
580.559	94.77
580.682	79.77
580.804	76.77
580.927	55.77
581.049	73.77
581.172	63.77
581.294	44.77
581.417	52.77
581.539	49.77
581.662	48.77
581.784	49.77
581.907	47.77
582.029	57.77
582.152	25.77
582.274	56.77
582.396	44.77
582.519	44.77
582.641	46.77
582.764	29.77
582.886	66.77
583.009	45.77
583.131	21.77
583.254	44.77
583.376	54.77
583.499	51.77
583.621	28.77
583.743	51.77
583.866	50.77
583.988	50.77
584.111	54.77
584.233	38.77
584.356	37.77
584.478	32.77
584.601	11.77
584.723	37.77
584.845	52.77
584.968	24.77
585.09	27.77
585.213	33.77
585.335	21.77
585.458	27.77
585.58	27.77
585.702	36.77
585.825	47.77
585.947	35.77
586.07	12.77
586.192	30.77
586.315	49.77
586.437	29.77
586.559	30.77
586.682	26.77
586.804	43.77
586.927	23.77
587.049	23.77
587.171	59.77
587.294	50.77
587.416	41.77
587.539	54.77
587.661	32.77
587.783	39.77
587.906	27.77
588.028	47.77
588.151	29.77
588.273	48.77
588.395	26.77
588.518	23.77
588.64	39.77
588.763	46.77
588.885	21.77
589.007	38.77
589.13	2.77
589.252	9.77
589.375	22.77
589.497	40.77
589.619	39.77
589.742	31.77
589.864	43.77
589.986	42.77
590.109	19.77
590.231	29.77
590.354	44.77
590.476	17.77
590.598	33.77
590.721	35.77
590.843	43.77
590.965	37.77
591.088	37.77
591.21	30.77
591.332	49.77
591.455	31.77
591.577	16.77
591.7	30.77
591.822	28.77
591.944	22.77
592.067	38.77
592.189	20.77
592.311	19.77
592.434	16.77
592.556	37.77
592.678	29.77
592.801	12.77
592.923	32.77
593.045	26.77
593.168	37.77
593.29	26.77
593.412	26.77
593.535	24.77
593.657	38.77
593.779	43.77
593.902	31.77
594.024	23.77
594.146	46.77
594.269	35.77
594.391	21.77
594.513	26.77
594.636	37.77
594.758	22.77
594.88	34.77
595.003	43.77
595.125	19.77
595.247	25.77
595.37	39.77
595.492	28.77
595.614	49.77
595.737	34.77
595.859	13.77
595.981	16.77
596.104	28.77
596.226	16.77
596.348	25.77
596.471	28.77
596.593	36.77
596.715	22.77
596.838	33.77
596.96	3.77
597.082	9.77
597.204	25.77
597.327	20.77
597.449	14.77
597.571	36.77
597.694	32.77
597.816	28.77
597.938	18.77
598.061	20.77
598.183	40.77
598.305	31.77
598.427	35.77
598.55	41.77
598.672	37.77
598.794	43.77
598.917	28.77
599.039	29.77
599.161	33.77
599.283	33.77
599.406	34.77
599.528	29.77
599.65	44.77
599.773	40.77
599.895	45.77
600.017	40.77
600.139	17.77
600.262	30.77
600.384	12.77
600.506	18.77
600.628	49.77
600.751	45.77
600.873	26.77
600.995	17.77
601.118	40.77
601.24	27.77
601.362	36.77
601.484	44.77
601.607	30.77
601.729	29.77
601.851	22.77
601.973	27.77
602.096	44.77
602.218	49.77
602.34	21.77
602.462	47.77
602.585	19.77
602.707	15.77
602.829	26.77
602.951	21.77
603.074	5.77
603.196	18.77
603.318	4.77
603.44	37.77
603.563	21.77
603.685	20.77
603.807	18.77
603.929	40.77
604.052	33.77
604.174	35.77
604.296	38.77
604.418	39.77
604.541	51.77
604.663	19.77
604.785	17.77
604.907	10.77
605.03	-0.23
605.152	62.77
605.274	15.77
605.396	17.77
605.519	26.77
605.641	29.77
605.763	21.77
605.885	27.77
606.008	24.77
606.13	25.77
606.252	29.77
606.374	6.77
606.496	17.77
606.619	39.77
606.741	19.77
606.863	47.77
606.985	44.77
607.108	19.77
607.23	4.77
607.352	20.77
607.474	16.77
607.596	25.77
607.719	15.77
607.841	31.77
607.963	33.77
608.085	35.77
608.207	45.77
608.33	32.77
608.452	18.77
608.574	15.77
608.696	34.77
608.819	19.77
608.941	37.77
609.063	21.77
609.185	33.77
609.307	30.77
609.43	34.77
609.552	26.77
609.674	23.77
609.796	38.77
609.918	25.77
610.041	10.77
610.163	30.77
610.285	17.77
610.407	23.77
610.529	-6.23
610.652	19.77
610.774	29.77
610.896	28.77
611.018	35.77
611.14	15.77
611.263	22.77
611.385	17.77
611.507	30.77
611.629	12.77
611.751	34.77
611.873	37.77
611.996	41.77
612.118	22.77
612.24	13.77
612.362	34.77
612.484	33.77
612.607	45.77
612.729	56.77
612.851	47.77
612.973	29.77
613.095	11.77
613.218	17.77
613.34	20.77
613.462	30.77
613.584	18.77
613.706	9.77
613.828	37.77
613.951	29.77
614.073	10.77
614.195	1.77
614.317	33.77
614.439	27.77
614.561	22.77
614.684	15.77
614.806	30.77
614.928	22.77
615.05	35.77
615.172	42.77
615.294	29.77
615.417	27.77
615.539	21.77
615.661	38.77
615.783	41.77
615.905	16.77
616.027	34.77
616.15	47.77
616.272	25.77
616.394	14.77
616.516	40.77
616.638	32.77
616.76	63.77
616.883	39.77
617.005	30.77
617.127	13.77
617.249	20.77
617.371	40.77
617.493	25.77
617.615	36.77
617.738	26.77
617.86	27.77
617.982	43.77
618.104	29.77
618.226	17.77
618.348	36.77
618.471	34.77
618.593	19.77
618.715	17.77
618.837	14.77
618.959	32.77
619.081	37.77
619.203	26.77
619.326	32.77
619.448	33.77
619.57	32.77
619.692	15.77
619.814	37.77
619.936	43.77
620.058	24.77
620.181	14.77
620.303	14.77
620.425	22.77
620.547	21.77
620.669	20.77
620.791	18.77
620.913	11.77
621.036	7.77
621.158	10.77
621.28	28.77
621.402	11.77
621.524	26.77
621.646	34.77
621.768	7.77
621.891	8.77
622.013	27.77
622.135	14.77
622.257	6.77
622.379	9.77
622.501	25.77
622.623	29.77
622.745	32.77
622.868	11.77
622.99	28.77
623.112	26.77
623.234	29.77
623.356	21.77
623.478	22.77
623.6	34.77
623.722	14.77
623.845	18.77
623.967	17.77
624.089	22.77
624.211	19.77
624.333	40.77
624.455	18.77
624.577	19.77
624.699	18.77
624.822	26.77
624.944	10.77
625.066	26.77
625.188	16.77
625.31	21.77
625.432	32.77
625.554	7.77
625.676	44.77
625.799	22.77
625.921	16.77
626.043	28.77
626.165	30.77
626.287	3.77
626.409	24.77
626.531	25.77
626.653	16.77
626.775	38.77
626.898	28.77
627.02	29.77
627.142	45.77
627.264	33.77
627.386	23.77
627.508	21.77
627.63	11.77
627.752	25.77
627.874	28.77
627.997	30.77
628.119	34.77
628.241	27.77
628.363	35.77
628.485	35.77
628.607	25.77
628.729	28.77
628.851	14.77
628.973	38.77
629.096	17.77
629.218	28.77
629.34	30.77
629.462	14.77
629.584	10.77
629.706	20.77
629.828	28.77
629.95	33.77
630.072	22.77
630.195	23.77
630.317	17.77
630.439	14.77
630.561	26.77
630.683	3.77
630.805	50.77
630.927	37.77
631.049	17.77
631.171	23.77
631.293	15.77
631.416	26.77
631.538	26.77
631.66	18.77
631.782	28.77
631.904	29.77
632.026	21.77
632.148	21.77
632.27	0.77
632.392	25.77
632.514	34.77
632.637	35.77
632.759	15.77
632.881	11.77
633.003	22.77
633.125	21.77
633.247	12.77
633.369	37.77
633.491	18.77
633.613	27.77
633.735	9.77
633.858	28.77
633.98	31.77
634.102	17.77
634.224	26.77
634.346	14.77
634.468	26.77
634.59	22.77
634.712	29.77
634.834	36.77
634.956	7.77
635.078	4.77
635.201	17.77
635.323	35.77
635.445	1.77
635.567	4.77
635.689	16.77
635.811	23.77
635.933	26.77
636.055	30.77
636.177	26.77
636.299	31.77
636.421	-2.23
636.544	0.77
636.666	28.77
636.788	18.77
636.91	37.77
637.032	7.77
637.154	17.77
637.276	32.77
637.398	42.77
637.52	8.77
637.642	19.77
637.764	10.77
637.887	5.77
638.009	19.77
638.131	16.77
638.253	18.77
638.375	15.77
638.497	23.77
638.619	8.77
638.741	9.77
638.863	0.77
638.985	22.77
639.107	25.77
639.23	18.77
639.352	37.77
639.474	17.77
639.596	22.77
639.718	19.77
639.84	33.77
639.962	4.77
640.084	29.77
640.206	22.77
640.328	9.77
640.45	18.77
640.573	15.77
640.695	15.77
640.817	20.77
640.939	19.77
641.061	1.77
641.183	26.77
641.305	14.77
641.427	23.77
641.549	32.77
641.671	27.77
641.793	24.77
641.915	42.77
642.038	3.77
642.16	10.77
642.282	19.77
642.404	14.77
642.526	14.77
642.648	3.77
642.77	21.77
642.892	10.77
643.014	24.77
643.136	27.77
643.258	11.77
643.381	29.77
643.503	38.77
643.625	11.77
643.747	16.77
643.869	10.77
643.991	28.77
644.113	10.77
644.235	10.77
644.357	4.77
644.479	27.77
644.601	25.77
644.723	6.77
644.846	17.77
644.968	4.77
645.09	11.77
645.212	17.77
645.334	29.77
645.456	33.77
645.578	32.77
645.7	25.77
645.822	20.77
645.944	44.77
646.066	10.77
646.188	17.77
646.311	32.77
646.433	15.77
646.555	35.77
646.677	27.77
646.799	13.77
646.921	27.77
647.043	33.77
647.165	19.77
647.287	17.77
647.409	17.77
647.531	43.77
647.654	15.77
647.776	3.77
647.898	21.77
648.02	-9.23
648.142	-2.23
648.264	11.77
648.386	18.77
648.508	3.77
648.63	25.77
648.752	34.77
648.874	17.77
648.997	16.77
649.119	37.77
649.241	-2.23
649.363	31.77
649.485	17.77
649.607	20.77
649.729	4.77
649.851	14.77
649.973	28.77
650.095	18.77
650.217	4.77
650.34	7.77
650.462	20.77
650.584	21.77
650.706	20.77
650.828	22.77
650.95	15.77
651.072	35.77
651.194	25.77
651.316	13.77
651.438	12.77
651.56	11.77
651.683	13.77
651.805	30.77
651.927	8.77
652.049	2.77
652.171	24.77
652.293	0.77
652.415	7.77
652.537	-10.23
652.659	-4.23
652.781	14.77
652.903	15.77
653.026	29.77
653.148	7.77
653.27	11.77
653.392	26.77
653.514	15.77
653.636	7.77
653.758	6.77
653.88	2.77
654.002	25.77
654.124	13.77
654.247	15.77
654.369	25.77
654.491	16.77
654.613	9.77
654.735	-5.23
654.857	16.77
654.979	6.77
655.101	19.77
655.223	42.77
655.345	13.77
655.468	44.77
655.59	14.77
655.712	7.77
655.834	6.77
655.956	27.77
656.078	18.77
656.2	14.77
656.322	1.77
656.444	-0.23
656.566	13.77
656.689	8.77
656.811	17.77
656.933	30.77
657.055	-4.23
657.177	21.77
657.299	-5.23
657.421	7.77
657.543	9.77
657.665	12.77
657.787	3.77
657.91	20.77
658.032	18.77
658.154	8.77
658.276	17.77
658.398	19.77
658.52	21.77
658.642	20.77
658.764	19.77
658.886	-2.23
659.009	13.77
659.131	22.77
659.253	17.77
659.375	14.77
659.497	30.77
659.619	30.77
659.741	14.77
659.863	0.77
659.985	7.77
660.108	30.77
660.23	13.77
660.352	11.77
660.474	19.77
660.596	32.77
660.718	25.77
660.84	29.77
660.962	14.77
661.084	-3.23
661.207	-2.23
661.329	25.77
661.451	20.77
661.573	20.77
661.695	46.77
661.817	28.77
661.939	28.77
662.061	44.77
662.184	7.77
662.306	26.77
662.428	4.77
662.55	19.77
662.672	13.77
662.794	3.77
662.916	2.77
663.038	19.77
663.161	26.77
663.283	11.77
663.405	6.77
663.527	-9.23
663.649	27.77
663.771	1.77
663.893	20.77
664.015	17.77
664.138	9.77
664.26	11.77
664.382	26.77
664.504	-1.23
664.626	-9.23
664.748	1.77
664.87	-4.23
664.992	32.77
665.115	22.77
665.237	16.77
665.359	10.77
665.481	26.77
665.603	18.77
665.725	6.77
665.847	-5.23
665.97	11.77
666.092	26.77
666.214	21.77
666.336	4.77
666.458	8.77
666.58	5.77
666.702	-0.23
666.825	15.77
666.947	1.77
667.069	14.77
667.191	14.77
667.313	9.77
667.435	0.77
667.557	4.77
667.68	-7.23
667.802	3.77
667.924	27.77
668.046	18.77
668.168	22.77
668.29	25.77
668.412	20.77
668.535	21.77
668.657	6.77
668.779	10.77
668.901	23.77
669.023	24.77
669.145	10.77
669.267	28.77
669.39	11.77
669.512	21.77
669.634	5.77
669.756	9.77
669.878	13.77
670	13.77
670.123	5.77
670.245	35.77
670.367	34.77
670.489	33.77
670.611	3.77
670.733	-9.23
670.856	6.77
670.978	6.77
671.1	21.77
671.222	28.77
671.344	11.77
671.466	14.77
671.589	12.77
671.711	15.77
671.833	-0.23
671.955	19.77
672.077	0.77
672.199	20.77
672.322	29.77
672.444	-1.23
672.566	25.77
672.688	7.77
672.81	29.77
672.932	13.77
673.055	19.77
673.177	-3.23
673.299	20.77
673.421	-0.23
673.543	13.77
673.665	14.77
673.788	11.77
673.91	3.77
674.032	1.77
674.154	-4.23
674.276	17.77
674.399	-1.23
674.521	19.77
674.643	0.77
674.765	11.77
674.887	27.77
675.009	3.77
675.132	9.77
675.254	5.77
675.376	15.77
675.498	16.77
675.62	27.77
675.743	13.77
675.865	13.77
675.987	9.77
676.109	11.77
676.231	21.77
676.354	27.77
676.476	17.77
676.598	6.77
676.72	11.77
676.842	26.77
676.965	16.77
677.087	32.77
677.209	35.77
677.331	19.77
677.453	31.77
677.576	26.77
677.698	13.77
677.82	17.77
677.942	-1.23
678.064	6.77
678.187	38.77
678.309	15.77
678.431	25.77
678.553	19.77
678.675	26.77
678.798	25.77
678.92	34.77
679.042	23.77
679.164	9.77
679.286	21.77
679.409	21.77
679.531	-5.23
679.653	-2.23
679.775	-4.23
679.898	-0.23
680.02	6.77
680.142	17.77
680.264	23.77
680.386	1.77
680.509	6.77
680.631	26.77
680.753	10.77
680.875	13.77
680.998	24.77
681.12	-4.23
681.242	7.77
681.364	1.77
681.486	9.77
681.609	7.77
681.731	16.77
681.853	9.77
681.975	4.77
682.098	34.77
682.22	26.77
682.342	14.77
682.464	41.77
682.587	12.77
682.709	21.77
682.831	4.77
682.953	-8.23
683.076	15.77
683.198	25.77
683.32	12.77
683.442	3.77
683.565	37.77
683.687	27.77
683.809	5.77
683.931	7.77
684.054	21.77
684.176	18.77
684.298	15.77
684.42	7.77
684.543	23.77
684.665	18.77
684.787	11.77
684.909	15.77
685.032	29.77
685.154	8.77
685.276	5.77
685.398	6.77
685.521	-8.23
685.643	6.77
685.765	19.77
685.887	14.77
686.01	21.77
686.132	3.77
686.254	10.77
686.377	30.77
686.499	10.77
686.621	5.77
686.743	14.77
686.866	21.77
686.988	27.77
687.11	31.77
687.232	6.77
687.355	12.77
687.477	21.77
687.599	17.77
687.722	15.77
687.844	16.77
687.966	18.77
688.088	20.77
688.211	49.77
688.333	29.77
688.455	21.77
688.578	45.77
688.7	21.77
688.822	12.77
688.944	9.77
689.067	33.77
689.189	-1.23
689.311	1.77
689.434	14.77
689.556	5.77
689.678	32.77
689.801	10.77
689.923	29.77
690.045	35.77
690.167	40.77
690.29	35.77
690.412	7.77
690.534	17.77
690.657	9.77
690.779	14.77
690.901	25.77
691.024	21.77
691.146	15.77
691.268	11.77
691.391	13.77
691.513	29.77
691.635	30.77
691.758	26.77
691.88	36.77
692.002	31.77
692.125	17.77
692.247	-2.23
692.369	10.77
692.492	9.77
692.614	10.77
692.736	30.77
692.859	19.77
692.981	11.77
693.103	14.77
693.226	25.77
693.348	29.77
693.47	13.77
693.593	24.77
693.715	34.77
693.837	40.77
693.96	36.77
694.082	10.77
694.204	14.77
694.327	12.77
694.449	14.77
694.571	9.77
694.694	23.77
694.816	18.77
694.938	-2.23
695.061	3.77
695.183	9.77
695.305	7.77
695.428	15.77
695.55	6.77
695.672	-2.23
695.795	26.77
695.917	34.77
696.04	12.77
696.162	6.77
696.284	34.77
696.407	5.77
696.529	6.77
696.651	30.77
696.774	13.77
696.896	25.77
697.019	18.77
697.141	-2.23
697.263	1.77
697.386	-1.23
697.508	6.77
697.63	15.77
697.753	28.77
697.875	30.77
697.998	2.77
698.12	18.77
698.242	15.77
698.365	26.77
698.487	9.77
698.61	8.77
698.732	22.77
698.854	25.77
698.977	20.77
699.099	29.77
699.221	7.77
699.344	9.77
699.466	15.77
699.589	6.77
699.711	4.77
699.834	15.77
699.956	27.77
700.078	16.77
700.201	11.77
700.323	44.77
700.446	-0.23
700.568	12.77
700.69	11.77
700.813	20.77
700.935	9.77
701.058	30.77
701.18	25.77
701.302	4.77
701.425	2.77
701.547	16.77
701.67	9.77
701.792	19.77
701.915	-8.23
702.037	4.77
702.159	25.77
702.282	9.77
702.404	30.77
702.527	26.77
702.649	31.77
702.772	9.77
702.894	29.77
703.017	5.77
703.139	10.77
703.261	15.77
703.384	6.77
703.506	-0.23
703.629	13.77
703.751	17.77
703.874	6.77
703.996	9.77
704.119	3.77
704.241	9.77
704.364	-7.23
704.486	24.77
704.608	24.77
704.731	11.77
704.853	4.77
704.976	13.77
705.098	26.77
705.221	5.77
705.343	22.77
705.466	31.77
705.588	19.77
705.711	14.77
705.833	11.77
705.956	10.77
706.078	12.77
706.201	18.77
706.323	-2.23
706.446	-5.23
