Data from LowRes_mercury_15_20_11_07_2024_HR4C61881__56__15-23-37-871.txt Node

Date: Thu Nov 07 15:23:37 EST 2024
User: crc00042
Spectrometer: HR4C6188
Trigger mode: 4
Integration Time (sec): 1.000000E-1
Scans to average: 1
Electric dark correction enabled: true
Nonlinearity correction enabled: false
Boxcar width: 0
XAxis mode: Wavelengths
Number of Pixels in Spectrum: 3648
>>>>>Begin Spectral Data<<<<<
245.66	-74.85
245.797	-74.85
245.934	-74.85
246.071	-66.85
246.208	16.15
246.344	12.15
246.481	-1.85
246.618	-17.85
246.755	14.15
246.892	-9.85
247.029	-10.85
247.165	-5.85
247.302	-0.85
247.439	-4.85
247.576	6.15
247.713	-6.85
247.849	39.15
247.986	-12.85
248.123	2.15
248.26	-17.85
248.396	8.15
248.533	-8.85
248.67	-16.85
248.806	-1.85
248.943	-12.85
249.08	-15.85
249.216	21.15
249.353	-11.85
249.49	-12.85
249.626	-6.85
249.763	-0.85
249.9	-22.85
250.036	7.15
250.173	1.15
250.309	4.15
250.446	-8.85
250.582	-10.85
250.719	0.15
250.856	3.15
250.992	5.15
251.129	2.15
251.265	-18.85
251.402	1.15
251.538	7.15
251.675	-9.85
251.811	11.15
251.948	-0.85
252.084	-4.85
252.221	-5.85
252.357	-5.85
252.493	25.15
252.63	7.15
252.766	23.15
252.903	-19.85
253.039	1.15
253.175	-3.85
253.312	11.15
253.448	-6.85
253.585	-9.85
253.721	0.15
253.857	-6.85
253.994	1.15
254.13	4.15
254.266	4.15
254.403	-9.85
254.539	-7.85
254.675	-5.85
254.811	4.15
254.948	9.15
255.084	-2.85
255.22	-19.85
255.356	-8.85
255.493	8.15
255.629	7.15
255.765	-2.85
255.901	5.15
256.037	8.15
256.174	7.15
256.31	6.15
256.446	-16.85
256.582	3.15
256.718	2.15
256.854	13.15
256.991	-2.85
257.127	2.15
257.263	-9.85
257.399	17.15
257.535	-15.85
257.671	3.15
257.807	-13.85
257.943	-12.85
258.079	-13.85
258.215	-8.85
258.351	30.15
258.487	17.15
258.623	15.15
258.759	-4.85
258.895	-11.85
259.031	-3.85
259.167	-1.85
259.303	2.15
259.439	9.15
259.575	1.15
259.711	5.15
259.847	-8.85
259.983	8.15
260.119	17.15
260.255	-8.85
260.391	6.15
260.527	2.15
260.663	8.15
260.799	22.15
260.934	-5.85
261.07	-5.85
261.206	-14.85
261.342	-16.85
261.478	8.15
261.614	9.15
261.749	-1.85
261.885	-1.85
262.021	-15.85
262.157	12.15
262.293	2.15
262.428	2.15
262.564	19.15
262.7	6.15
262.836	7.15
262.971	13.15
263.107	7.15
263.243	3.15
263.378	-2.85
263.514	-17.85
263.65	7.15
263.785	-18.85
263.921	-16.85
264.057	1.15
264.192	-6.85
264.328	20.15
264.464	-12.85
264.599	9.15
264.735	12.15
264.871	-16.85
265.006	-18.85
265.142	-11.85
265.277	-11.85
265.413	0.15
265.548	29.15
265.684	23.15
265.819	-6.85
265.955	-16.85
266.091	-24.85
266.226	-23.85
266.362	19.15
266.497	9.15
266.633	-6.85
266.768	1.15
266.903	10.15
267.039	10.15
267.174	19.15
267.31	15.15
267.445	10.15
267.581	-2.85
267.716	-0.85
267.851	21.15
267.987	8.15
268.122	7.15
268.258	-16.85
268.393	0.15
268.528	6.15
268.664	-24.85
268.799	-17.85
268.934	-5.85
269.07	3.15
269.205	-12.85
269.34	19.15
269.476	-10.85
269.611	-13.85
269.746	11.15
269.881	16.15
270.017	19.15
270.152	-2.85
270.287	5.15
270.422	3.15
270.558	-4.85
270.693	-1.85
270.828	-12.85
270.963	-10.85
271.098	-12.85
271.234	-4.85
271.369	12.15
271.504	-3.85
271.639	-3.85
271.774	4.15
271.909	5.15
272.045	-18.85
272.18	8.15
272.315	-14.85
272.45	-2.85
272.585	-0.85
272.72	6.15
272.855	22.15
272.99	12.15
273.125	-7.85
273.26	-9.85
273.395	-16.85
273.53	-6.85
273.665	5.15
273.8	0.15
273.935	-2.85
274.07	10.15
274.205	10.15
274.34	-3.85
274.475	-1.85
274.61	5.15
274.745	-8.85
274.88	47.15
275.015	-10.85
275.15	7.15
275.285	24.15
275.42	10.15
275.555	10.15
275.69	6.15
275.825	-28.85
275.959	13.15
276.094	3.15
276.229	0.15
276.364	-16.85
276.499	-1.85
276.634	1.15
276.768	1.15
276.903	-3.85
277.038	4.15
277.173	2.15
277.308	14.15
277.442	-10.85
277.577	-18.85
277.712	-15.85
277.847	4.15
277.981	-2.85
278.116	-23.85
278.251	22.15
278.386	11.15
278.52	17.15
278.655	-1.85
278.79	16.15
278.924	10.15
279.059	8.15
279.194	-20.85
279.328	39.15
279.463	9.15
279.598	18.15
279.732	1.15
279.867	13.15
280.001	21.15
280.136	-5.85
280.271	16.15
280.405	16.15
280.54	6.15
280.674	-25.85
280.809	1.15
280.943	4.15
281.078	6.15
281.213	42.15
281.347	6.15
281.482	16.15
281.616	3.15
281.751	-4.85
281.885	-0.85
282.02	2.15
282.154	16.15
282.288	-18.85
282.423	-14.85
282.557	3.15
282.692	1.15
282.826	-1.85
282.961	10.15
283.095	3.15
283.229	-5.85
283.364	-6.85
283.498	11.15
283.633	13.15
283.767	10.15
283.901	-6.85
284.036	1.15
284.17	-12.85
284.304	2.15
284.439	-2.85
284.573	1.15
284.707	18.15
284.842	3.15
284.976	-24.85
285.11	-24.85
285.244	-9.85
285.379	51.15
285.513	7.15
285.647	6.15
285.781	1.15
285.916	16.15
286.05	-18.85
286.184	24.15
286.318	0.15
286.453	-10.85
286.587	-22.85
286.721	16.15
286.855	2.15
286.989	15.15
287.123	-3.85
287.258	-10.85
287.392	-1.85
287.526	22.15
287.66	3.15
287.794	-1.85
287.928	-8.85
288.062	8.15
288.196	0.15
288.33	-2.85
288.464	8.15
288.598	10.15
288.733	-0.85
288.867	13.15
289.001	-1.85
289.135	-0.85
289.269	-2.85
289.403	-1.85
289.537	9.15
289.671	14.15
289.805	-9.85
289.939	19.15
290.073	-1.85
290.207	26.15
290.34	8.15
290.474	20.15
290.608	21.15
290.742	2.15
290.876	-11.85
291.01	4.15
291.144	12.15
291.278	25.15
291.412	10.15
291.546	3.15
291.679	-8.85
291.813	-17.85
291.947	-10.85
292.081	10.15
292.215	0.15
292.349	7.15
292.482	5.15
292.616	-5.85
292.75	9.15
292.884	21.15
293.018	-6.85
293.151	-18.85
293.285	-9.85
293.419	-18.85
293.553	-15.85
293.686	-10.85
293.82	11.15
293.954	18.15
294.088	27.15
294.221	-6.85
294.355	-20.85
294.489	6.15
294.622	-3.85
294.756	3.15
294.89	4.15
295.023	16.15
295.157	19.15
295.291	8.15
295.424	22.15
295.558	18.15
295.691	11.15
295.825	-11.85
295.959	6.15
296.092	0.15
296.226	-8.85
296.359	-6.85
296.493	10.15
296.627	4.15
296.76	-11.85
296.894	-13.85
297.027	9.15
297.161	8.15
297.294	-0.85
297.428	-1.85
297.561	14.15
297.695	-8.85
297.828	-21.85
297.962	-13.85
298.095	-0.85
298.229	-2.85
298.362	-17.85
298.495	-7.85
298.629	0.15
298.762	-2.85
298.896	12.15
299.029	-12.85
299.162	-0.85
299.296	-0.85
299.429	-1.85
299.563	-2.85
299.696	4.15
299.829	12.15
299.963	7.15
300.096	5.15
300.229	6.15
300.363	-14.85
300.496	6.15
300.629	-13.85
300.763	3.15
300.896	1.15
301.029	2.15
301.162	-4.85
301.296	-8.85
301.429	0.15
301.562	-25.85
301.695	28.15
301.829	25.15
301.962	19.15
302.095	-2.85
302.228	-6.85
302.362	-2.85
302.495	-18.85
302.628	-1.85
302.761	-2.85
302.894	-3.85
303.027	4.15
303.161	-18.85
303.294	2.15
303.427	7.15
303.56	5.15
303.693	4.15
303.826	8.15
303.959	-6.85
304.092	-5.85
304.225	-6.85
304.359	8.15
304.492	1.15
304.625	-5.85
304.758	10.15
304.891	-11.85
305.024	-2.85
305.157	-0.85
305.29	-6.85
305.423	7.15
305.556	8.15
305.689	12.15
305.822	-1.85
305.955	-0.85
306.088	-14.85
306.221	7.15
306.354	11.15
306.487	-12.85
306.62	-17.85
306.752	-18.85
306.885	2.15
307.018	-2.85
307.151	9.15
307.284	15.15
307.417	-12.85
307.55	2.15
307.683	-16.85
307.816	2.15
307.948	-2.85
308.081	15.15
308.214	-1.85
308.347	28.15
308.48	1.15
308.613	-19.85
308.745	1.15
308.878	-1.85
309.011	-6.85
309.144	0.15
309.277	4.15
309.409	23.15
309.542	-5.85
309.675	6.15
309.808	7.15
309.94	16.15
310.073	-2.85
310.206	-1.85
310.339	2.15
310.471	-12.85
310.604	12.15
310.737	5.15
310.869	-4.85
311.002	-6.85
311.135	5.15
311.267	-8.85
311.4	6.15
311.533	21.15
311.665	-8.85
311.798	-2.85
311.93	13.15
312.063	29.15
312.196	33.15
312.328	57.15
312.461	37.15
312.593	27.15
312.726	27.15
312.859	96.15
312.991	161.15
313.124	25.15
313.256	11.15
313.389	18.15
313.521	4.15
313.654	-4.85
313.786	-12.85
313.919	-5.85
314.051	4.15
314.184	14.15
314.316	2.15
314.449	-10.85
314.581	11.15
314.714	1.15
314.846	-6.85
314.978	-6.85
315.111	-11.85
315.243	-8.85
315.376	-4.85
315.508	10.15
315.641	20.15
315.773	11.15
315.905	13.15
316.038	20.15
316.17	7.15
316.302	-4.85
316.435	-7.85
316.567	17.15
316.699	28.15
316.832	-0.85
316.964	-6.85
317.096	-3.85
317.229	0.15
317.361	-14.85
317.493	-2.85
317.625	-19.85
317.758	7.15
317.89	10.15
318.022	-5.85
318.155	-4.85
318.287	6.15
318.419	7.15
318.551	-1.85
318.683	-0.85
318.816	2.15
318.948	8.15
319.08	2.15
319.212	-4.85
319.344	-2.85
319.477	8.15
319.609	10.15
319.741	15.15
319.873	-13.85
320.005	-1.85
320.137	2.15
320.269	-15.85
320.401	9.15
320.534	-8.85
320.666	-11.85
320.798	-20.85
320.93	-1.85
321.062	-29.85
321.194	-5.85
321.326	-3.85
321.458	6.15
321.59	-12.85
321.722	-5.85
321.854	-9.85
321.986	6.15
322.118	9.15
322.25	-9.85
322.382	-14.85
322.514	6.15
322.646	-16.85
322.778	4.15
322.91	2.15
323.042	-2.85
323.174	-17.85
323.306	-12.85
323.438	-22.85
323.57	4.15
323.702	0.15
323.834	-7.85
323.966	-21.85
324.097	-11.85
324.229	29.15
324.361	22.15
324.493	-17.85
324.625	-7.85
324.757	1.15
324.889	-2.85
325.021	9.15
325.152	30.15
325.284	15.15
325.416	-1.85
325.548	1.15
325.68	-3.85
325.811	26.15
325.943	16.15
326.075	-9.85
326.207	0.15
326.339	24.15
326.47	-0.85
326.602	2.15
326.734	18.15
326.866	5.15
326.997	-0.85
327.129	2.15
327.261	-18.85
327.392	-26.85
327.524	-0.85
327.656	3.15
327.787	2.15
327.919	-0.85
328.051	3.15
328.182	13.15
328.314	15.15
328.446	6.15
328.577	10.15
328.709	21.15
328.841	-13.85
328.972	0.15
329.104	-7.85
329.235	0.15
329.367	-3.85
329.499	3.15
329.63	12.15
329.762	6.15
329.893	16.15
330.025	7.15
330.156	-5.85
330.288	6.15
330.419	12.15
330.551	17.15
330.683	-3.85
330.814	-26.85
330.946	-6.85
331.077	-12.85
331.208	10.15
331.34	-7.85
331.471	-25.85
331.603	-10.85
331.734	-19.85
331.866	-11.85
331.997	-3.85
332.129	2.15
332.26	-1.85
332.392	-4.85
332.523	9.15
332.654	-11.85
332.786	-7.85
332.917	-7.85
333.048	8.15
333.18	33.15
333.311	13.15
333.443	18.15
333.574	-3.85
333.705	42.15
333.837	50.15
333.968	111.15
334.099	234.15
334.231	204.15
334.362	68.15
334.493	27.15
334.624	22.15
334.756	13.15
334.887	21.15
335.018	3.15
335.15	19.15
335.281	1.15
335.412	19.15
335.543	4.15
335.675	-1.85
335.806	13.15
335.937	13.15
336.068	17.15
336.199	39.15
336.331	3.15
336.462	-5.85
336.593	7.15
336.724	-14.85
336.855	-5.85
336.986	36.15
337.118	17.15
337.249	19.15
337.38	5.15
337.511	-4.85
337.642	9.15
337.773	22.15
337.904	10.15
338.035	14.15
338.166	2.15
338.298	12.15
338.429	3.15
338.56	23.15
338.691	14.15
338.822	8.15
338.953	6.15
339.084	28.15
339.215	15.15
339.346	7.15
339.477	10.15
339.608	2.15
339.739	8.15
339.87	23.15
340.001	-1.85
340.132	22.15
340.263	10.15
340.394	9.15
340.525	13.15
340.656	2.15
340.787	1.15
340.918	19.15
341.049	23.15
341.179	14.15
341.31	4.15
341.441	6.15
341.572	11.15
341.703	12.15
341.834	-7.85
341.965	12.15
342.096	-7.85
342.227	6.15
342.357	-4.85
342.488	4.15
342.619	0.15
342.75	17.15
342.881	6.15
343.012	17.15
343.142	39.15
343.273	2.15
343.404	7.15
343.535	45.15
343.666	20.15
343.796	15.15
343.927	17.15
344.058	23.15
344.189	27.15
344.319	24.15
344.45	23.15
344.581	16.15
344.712	7.15
344.842	21.15
344.973	35.15
345.104	20.15
345.234	15.15
345.365	18.15
345.496	14.15
345.626	20.15
345.757	30.15
345.888	11.15
346.018	36.15
346.149	-4.85
346.28	32.15
346.41	8.15
346.541	23.15
346.672	20.15
346.802	29.15
346.933	20.15
347.063	20.15
347.194	22.15
347.325	34.15
347.455	49.15
347.586	36.15
347.716	18.15
347.847	33.15
347.977	19.15
348.108	41.15
348.238	44.15
348.369	33.15
348.499	38.15
348.63	26.15
348.76	47.15
348.891	58.15
349.021	61.15
349.152	57.15
349.282	52.15
349.413	41.15
349.543	50.15
349.674	18.15
349.804	47.15
349.935	17.15
350.065	23.15
350.196	24.15
350.326	34.15
350.456	24.15
350.587	25.15
350.717	27.15
350.848	38.15
350.978	26.15
351.108	6.15
351.239	44.15
351.369	26.15
351.499	19.15
351.63	30.15
351.76	11.15
351.89	24.15
352.021	29.15
352.151	19.15
352.281	32.15
352.412	28.15
352.542	23.15
352.672	13.15
352.803	20.15
352.933	17.15
353.063	11.15
353.193	28.15
353.324	19.15
353.454	32.15
353.584	29.15
353.714	28.15
353.845	12.15
353.975	-5.85
354.105	15.15
354.235	38.15
354.365	31.15
354.496	30.15
354.626	32.15
354.756	19.15
354.886	15.15
355.016	14.15
355.146	17.15
355.277	19.15
355.407	21.15
355.537	18.15
355.667	26.15
355.797	30.15
355.927	24.15
356.057	26.15
356.187	8.15
356.318	19.15
356.448	33.15
356.578	16.15
356.708	28.15
356.838	31.15
356.968	28.15
357.098	28.15
357.228	40.15
357.358	19.15
357.488	16.15
357.618	52.15
357.748	38.15
357.878	18.15
358.008	11.15
358.138	14.15
358.268	15.15
358.398	40.15
358.528	1.15
358.658	28.15
358.788	31.15
358.918	36.15
359.048	15.15
359.178	41.15
359.308	27.15
359.438	41.15
359.568	31.15
359.698	38.15
359.827	24.15
359.957	10.15
360.087	20.15
360.217	3.15
360.347	40.15
360.477	28.15
360.607	23.15
360.737	28.15
360.866	25.15
360.996	11.15
361.126	24.15
361.256	33.15
361.386	51.15
361.516	38.15
361.645	17.15
361.775	43.15
361.905	23.15
362.035	39.15
362.165	50.15
362.294	40.15
362.424	48.15
362.554	28.15
362.684	32.15
362.813	53.15
362.943	57.15
363.073	32.15
363.203	60.15
363.332	73.15
363.462	83.15
363.592	86.15
363.721	127.15
363.851	155.15
363.981	196.15
364.111	261.15
364.24	318.15
364.37	485.15
364.5	861.15
364.629	1845.15
364.759	3818.15
364.888	6247.15
365.018	9419.15
365.148	14820.15
365.277	12990.15
365.407	4750.15
365.537	3116.15
365.666	4040.15
365.796	1785.15
365.925	798.15
366.055	757.15
366.184	1028.15
366.314	1375.15
366.444	2491.15
366.573	2146.15
366.703	668.15
366.832	222.15
366.962	99.15
367.091	77.15
367.221	62.15
367.35	51.15
367.48	55.15
367.609	45.15
367.739	57.15
367.868	32.15
367.998	37.15
368.127	27.15
368.257	51.15
368.386	56.15
368.516	50.15
368.645	22.15
368.775	51.15
368.904	35.15
369.033	21.15
369.163	23.15
369.292	44.15
369.422	27.15
369.551	36.15
369.68	22.15
369.81	44.15
369.939	25.15
370.069	45.15
370.198	33.15
370.327	32.15
370.457	35.15
370.586	47.15
370.715	35.15
370.845	34.15
370.974	31.15
371.103	33.15
371.233	55.15
371.362	50.15
371.491	19.15
371.621	65.15
371.75	45.15
371.879	32.15
372.008	53.15
372.138	33.15
372.267	64.15
372.396	38.15
372.525	38.15
372.655	26.15
372.784	16.15
372.913	21.15
373.042	19.15
373.172	38.15
373.301	1.15
373.43	19.15
373.559	14.15
373.688	32.15
373.818	25.15
373.947	24.15
374.076	6.15
374.205	22.15
374.334	13.15
374.463	-0.85
374.593	21.15
374.722	22.15
374.851	29.15
374.98	15.15
375.109	34.15
375.238	34.15
375.367	36.15
375.496	-7.85
375.625	0.15
375.755	35.15
375.884	38.15
376.013	38.15
376.142	-6.85
376.271	18.15
376.4	20.15
376.529	22.15
376.658	20.15
376.787	25.15
376.916	38.15
377.045	6.15
377.174	25.15
377.303	12.15
377.432	37.15
377.561	21.15
377.69	12.15
377.819	28.15
377.948	22.15
378.077	19.15
378.206	15.15
378.335	11.15
378.464	-13.85
378.593	38.15
378.722	31.15
378.851	21.15
378.98	50.15
379.108	10.15
379.237	5.15
379.366	25.15
379.495	24.15
379.624	27.15
379.753	19.15
379.882	9.15
380.011	-3.85
380.14	10.15
380.268	19.15
380.397	11.15
380.526	36.15
380.655	-5.85
380.784	4.15
380.913	22.15
381.041	7.15
381.17	-6.85
381.299	14.15
381.428	23.15
381.557	39.15
381.685	-5.85
381.814	13.15
381.943	15.15
382.072	-3.85
382.2	14.15
382.329	13.15
382.458	29.15
382.587	34.15
382.715	38.15
382.844	6.15
382.973	36.15
383.102	3.15
383.23	-7.85
383.359	5.15
383.488	17.15
383.616	19.15
383.745	10.15
383.874	12.15
384.003	8.15
384.131	16.15
384.26	0.15
384.389	11.15
384.517	14.15
384.646	7.15
384.774	19.15
384.903	38.15
385.032	37.15
385.16	17.15
385.289	19.15
385.418	10.15
385.546	27.15
385.675	24.15
385.803	14.15
385.932	14.15
386.06	4.15
386.189	20.15
386.318	29.15
386.446	14.15
386.575	26.15
386.703	32.15
386.832	15.15
386.96	-4.85
387.089	28.15
387.217	24.15
387.346	15.15
387.474	19.15
387.603	26.15
387.731	23.15
387.86	12.15
387.988	34.15
388.117	36.15
388.245	13.15
388.374	10.15
388.502	22.15
388.631	6.15
388.759	1.15
388.888	16.15
389.016	7.15
389.144	22.15
389.273	8.15
389.401	-4.85
389.53	-8.85
389.658	19.15
389.786	1.15
389.915	23.15
390.043	9.15
390.172	33.15
390.3	60.15
390.428	37.15
390.557	15.15
390.685	23.15
390.813	33.15
390.942	50.15
391.07	10.15
391.198	10.15
391.327	10.15
391.455	11.15
391.583	35.15
391.712	32.15
391.84	14.15
391.968	15.15
392.096	15.15
392.225	-0.85
392.353	29.15
392.481	24.15
392.609	37.15
392.738	27.15
392.866	28.15
392.994	19.15
393.122	35.15
393.251	33.15
393.379	35.15
393.507	-2.85
393.635	8.15
393.764	29.15
393.892	32.15
394.02	14.15
394.148	26.15
394.276	22.15
394.404	24.15
394.533	27.15
394.661	38.15
394.789	38.15
394.917	34.15
395.045	25.15
395.173	12.15
395.302	33.15
395.43	18.15
395.558	35.15
395.686	37.15
395.814	39.15
395.942	27.15
396.07	27.15
396.198	13.15
396.326	30.15
396.454	42.15
396.582	33.15
396.711	26.15
396.839	31.15
396.967	15.15
397.095	8.15
397.223	27.15
397.351	36.15
397.479	15.15
397.607	30.15
397.735	50.15
397.863	53.15
397.991	43.15
398.119	32.15
398.247	41.15
398.375	76.15
398.503	54.15
398.631	59.15
398.759	43.15
398.887	45.15
399.015	38.15
399.143	51.15
399.271	52.15
399.399	71.15
399.526	77.15
399.654	79.15
399.782	61.15
399.91	79.15
400.038	82.15
400.166	66.15
400.294	89.15
400.422	83.15
400.55	104.15
400.678	112.15
400.805	102.15
400.933	110.15
401.061	130.15
401.189	124.15
401.317	151.15
401.445	110.15
401.573	59.15
401.7	45.15
401.828	37.15
401.956	52.15
402.084	44.15
402.212	43.15
402.34	47.15
402.467	17.15
402.595	43.15
402.723	58.15
402.851	60.15
402.978	34.15
403.106	70.15
403.234	84.15
403.362	111.15
403.489	120.15
403.617	157.15
403.745	191.15
403.873	277.15
404	577.15
404.128	1477.15
404.256	3914.15
404.384	5088.15
404.511	5357.15
404.639	7173.15
404.767	11386.15
404.894	14602.15
405.022	4925.15
405.15	1322.15
405.277	410.15
405.405	233.15
405.533	126.15
405.66	119.15
405.788	59.15
405.916	67.15
406.043	32.15
406.171	53.15
406.299	44.15
406.426	49.15
406.554	61.15
406.681	68.15
406.809	49.15
406.937	59.15
407.064	54.15
407.192	138.15
407.319	288.15
407.447	516.15
407.574	535.15
407.702	616.15
407.83	885.15
407.957	1613.15
408.085	923.15
408.212	282.15
408.34	93.15
408.467	60.15
408.595	51.15
408.722	47.15
408.85	43.15
408.977	35.15
409.105	18.15
409.232	29.15
409.36	35.15
409.487	46.15
409.615	30.15
409.742	34.15
409.87	29.15
409.997	30.15
410.125	47.15
410.252	54.15
410.379	12.15
410.507	49.15
410.634	39.15
410.762	39.15
410.889	42.15
411.017	34.15
411.144	37.15
411.271	25.15
411.399	19.15
411.526	25.15
411.653	2.15
411.781	22.15
411.908	27.15
412.036	12.15
412.163	23.15
412.29	10.15
412.418	31.15
412.545	22.15
412.672	2.15
412.8	28.15
412.927	16.15
413.054	60.15
413.182	25.15
413.309	9.15
413.436	13.15
413.564	21.15
413.691	21.15
413.818	25.15
413.945	10.15
414.073	20.15
414.2	29.15
414.327	26.15
414.454	37.15
414.582	23.15
414.709	6.15
414.836	9.15
414.963	22.15
415.091	22.15
415.218	19.15
415.345	23.15
415.472	31.15
415.6	17.15
415.727	27.15
415.854	40.15
415.981	25.15
416.108	30.15
416.236	21.15
416.363	32.15
416.49	19.15
416.617	34.15
416.744	39.15
416.871	19.15
416.998	31.15
417.126	33.15
417.253	11.15
417.38	26.15
417.507	25.15
417.634	21.15
417.761	29.15
417.888	38.15
418.015	30.15
418.143	32.15
418.27	48.15
418.397	13.15
418.524	26.15
418.651	25.15
418.778	44.15
418.905	40.15
419.032	52.15
419.159	17.15
419.286	59.15
419.413	48.15
419.54	46.15
419.667	12.15
419.794	21.15
419.921	38.15
420.048	45.15
420.175	57.15
420.302	54.15
420.429	54.15
420.556	51.15
420.683	49.15
420.81	62.15
420.937	66.15
421.064	71.15
421.191	50.15
421.318	70.15
421.445	70.15
421.572	44.15
421.699	58.15
421.826	55.15
421.953	51.15
422.08	30.15
422.207	8.15
422.334	22.15
422.461	41.15
422.588	4.15
422.714	24.15
422.841	21.15
422.968	33.15
423.095	14.15
423.222	2.15
423.349	26.15
423.476	11.15
423.603	8.15
423.729	11.15
423.856	23.15
423.983	27.15
424.11	16.15
424.237	36.15
424.364	24.15
424.491	18.15
424.617	-4.85
424.744	21.15
424.871	33.15
424.998	25.15
425.125	7.15
425.251	12.15
425.378	5.15
425.505	-2.85
425.632	30.15
425.758	6.15
425.885	27.15
426.012	33.15
426.139	31.15
426.266	12.15
426.392	21.15
426.519	32.15
426.646	19.15
426.772	35.15
426.899	16.15
427.026	26.15
427.153	15.15
427.279	52.15
427.406	30.15
427.533	9.15
427.659	13.15
427.786	30.15
427.913	27.15
428.039	25.15
428.166	21.15
428.293	16.15
428.419	44.15
428.546	30.15
428.673	13.15
428.799	22.15
428.926	6.15
429.053	34.15
429.179	23.15
429.306	24.15
429.433	27.15
429.559	26.15
429.686	2.15
429.812	13.15
429.939	15.15
430.066	31.15
430.192	16.15
430.319	27.15
430.445	36.15
430.572	33.15
430.699	14.15
430.825	-1.85
430.952	21.15
431.078	21.15
431.205	28.15
431.331	32.15
431.458	28.15
431.584	31.15
431.711	13.15
431.837	31.15
431.964	23.15
432.09	28.15
432.217	4.15
432.343	25.15
432.47	29.15
432.596	24.15
432.723	18.15
432.849	7.15
432.976	35.15
433.102	48.15
433.229	37.15
433.355	58.15
433.482	60.15
433.608	94.15
433.735	86.15
433.861	88.15
433.987	149.15
434.114	198.15
434.24	163.15
434.367	205.15
434.493	227.15
434.62	281.15
434.746	405.15
434.872	626.15
434.999	793.15
435.125	1727.15
435.252	5535.15
435.378	13376.15
435.504	15192.15
435.631	15414.15
435.757	15680.15
435.883	15680.15
436.01	15680.15
436.136	15680.15
436.262	15680.15
436.389	3476.15
436.515	2158.15
436.641	819.15
436.768	626.15
436.894	396.15
437.02	387.15
437.147	304.15
437.273	296.15
437.399	223.15
437.526	253.15
437.652	189.15
437.778	198.15
437.904	120.15
438.031	154.15
438.157	138.15
438.283	149.15
438.409	114.15
438.536	124.15
438.662	138.15
438.788	119.15
438.914	102.15
439.041	108.15
439.167	116.15
439.293	98.15
439.419	89.15
439.546	94.15
439.672	74.15
439.798	82.15
439.924	76.15
440.05	99.15
440.177	79.15
440.303	74.15
440.429	57.15
440.555	59.15
440.681	61.15
440.807	81.15
440.934	54.15
441.06	60.15
441.186	36.15
441.312	46.15
441.438	50.15
441.564	61.15
441.69	82.15
441.816	67.15
441.943	37.15
442.069	69.15
442.195	63.15
442.321	59.15
442.447	47.15
442.573	41.15
442.699	40.15
442.825	24.15
442.951	32.15
443.077	66.15
443.203	67.15
443.33	31.15
443.456	24.15
443.582	48.15
443.708	47.15
443.834	56.15
443.96	31.15
444.086	30.15
444.212	69.15
444.338	52.15
444.464	46.15
444.59	53.15
444.716	62.15
444.842	50.15
444.968	30.15
445.094	29.15
445.22	17.15
445.346	17.15
445.472	31.15
445.598	35.15
445.724	16.15
445.85	38.15
445.976	26.15
446.102	37.15
446.228	51.15
446.354	44.15
446.48	38.15
446.605	42.15
446.731	45.15
446.857	31.15
446.983	37.15
447.109	26.15
447.235	36.15
447.361	28.15
447.487	44.15
447.613	50.15
447.739	18.15
447.865	27.15
447.99	31.15
448.116	21.15
448.242	34.15
448.368	28.15
448.494	29.15
448.62	52.15
448.746	32.15
448.872	35.15
448.997	40.15
449.123	28.15
449.249	17.15
449.375	38.15
449.501	33.15
449.627	30.15
449.752	51.15
449.878	-1.85
450.004	25.15
450.13	30.15
450.256	26.15
450.381	33.15
450.507	20.15
450.633	41.15
450.759	27.15
450.884	27.15
451.01	29.15
451.136	26.15
451.262	33.15
451.388	41.15
451.513	40.15
451.639	34.15
451.765	11.15
451.89	31.15
452.016	19.15
452.142	31.15
452.268	28.15
452.393	33.15
452.519	26.15
452.645	17.15
452.771	10.15
452.896	6.15
453.022	20.15
453.148	41.15
453.273	24.15
453.399	16.15
453.525	7.15
453.65	27.15
453.776	22.15
453.902	30.15
454.027	39.15
454.153	17.15
454.279	35.15
454.404	-0.85
454.53	18.15
454.656	43.15
454.781	29.15
454.907	6.15
455.032	21.15
455.158	35.15
455.284	40.15
455.409	31.15
455.535	35.15
455.66	25.15
455.786	48.15
455.912	36.15
456.037	9.15
456.163	16.15
456.288	28.15
456.414	15.15
456.539	23.15
456.665	45.15
456.791	24.15
456.916	22.15
457.042	16.15
457.167	1.15
457.293	26.15
457.418	20.15
457.544	25.15
457.669	18.15
457.795	15.15
457.92	27.15
458.046	45.15
458.171	32.15
458.297	11.15
458.422	13.15
458.548	20.15
458.673	9.15
458.799	14.15
458.924	9.15
459.05	23.15
459.175	27.15
459.301	18.15
459.426	36.15
459.552	42.15
459.677	18.15
459.803	42.15
459.928	29.15
460.053	39.15
460.179	13.15
460.304	37.15
460.43	1.15
460.555	17.15
460.681	13.15
460.806	21.15
460.931	35.15
461.057	33.15
461.182	19.15
461.308	37.15
461.433	34.15
461.558	36.15
461.684	24.15
461.809	47.15
461.934	21.15
462.06	44.15
462.185	6.15
462.311	1.15
462.436	32.15
462.561	32.15
462.687	10.15
462.812	12.15
462.937	12.15
463.063	11.15
463.188	22.15
463.313	43.15
463.439	23.15
463.564	31.15
463.689	31.15
463.814	19.15
463.94	23.15
464.065	32.15
464.19	36.15
464.316	3.15
464.441	12.15
464.566	30.15
464.692	30.15
464.817	31.15
464.942	21.15
465.067	7.15
465.193	15.15
465.318	7.15
465.443	21.15
465.568	9.15
465.694	36.15
465.819	26.15
465.944	32.15
466.069	17.15
466.194	31.15
466.32	17.15
466.445	27.15
466.57	12.15
466.695	18.15
466.82	29.15
466.946	26.15
467.071	40.15
467.196	29.15
467.321	26.15
467.446	32.15
467.572	16.15
467.697	23.15
467.822	28.15
467.947	41.15
468.072	33.15
468.197	26.15
468.323	22.15
468.448	20.15
468.573	21.15
468.698	29.15
468.823	40.15
468.948	48.15
469.073	47.15
469.198	25.15
469.324	42.15
469.449	29.15
469.574	36.15
469.699	52.15
469.824	37.15
469.949	28.15
470.074	25.15
470.199	59.15
470.324	30.15
470.449	42.15
470.574	17.15
470.7	35.15
470.825	54.15
470.95	47.15
471.075	23.15
471.2	30.15
471.325	49.15
471.45	37.15
471.575	16.15
471.7	37.15
471.825	8.15
471.95	30.15
472.075	27.15
472.2	40.15
472.325	29.15
472.45	18.15
472.575	34.15
472.7	13.15
472.825	33.15
472.95	60.15
473.075	35.15
473.2	27.15
473.325	29.15
473.45	52.15
473.575	28.15
473.7	38.15
473.825	25.15
473.95	13.15
474.075	26.15
474.2	14.15
474.325	13.15
474.45	19.15
474.574	13.15
474.699	37.15
474.824	10.15
474.949	4.15
475.074	22.15
475.199	43.15
475.324	35.15
475.449	26.15
475.574	22.15
475.699	18.15
475.824	20.15
475.949	19.15
476.073	5.15
476.198	12.15
476.323	13.15
476.448	17.15
476.573	-4.85
476.698	27.15
476.823	12.15
476.947	24.15
477.072	23.15
477.197	12.15
477.322	7.15
477.447	13.15
477.572	22.15
477.697	1.15
477.821	24.15
477.946	7.15
478.071	21.15
478.196	24.15
478.321	32.15
478.445	25.15
478.57	31.15
478.695	26.15
478.82	29.15
478.945	18.15
479.069	22.15
479.194	17.15
479.319	27.15
479.444	15.15
479.569	17.15
479.693	23.15
479.818	29.15
479.943	29.15
480.068	21.15
480.192	21.15
480.317	13.15
480.442	23.15
480.567	17.15
480.691	29.15
480.816	23.15
480.941	11.15
481.066	24.15
481.19	25.15
481.315	22.15
481.44	9.15
481.564	8.15
481.689	27.15
481.814	38.15
481.938	6.15
482.063	1.15
482.188	11.15
482.313	28.15
482.437	18.15
482.562	23.15
482.687	21.15
482.811	11.15
482.936	7.15
483.061	15.15
483.185	3.15
483.31	14.15
483.435	22.15
483.559	20.15
483.684	27.15
483.808	46.15
483.933	28.15
484.058	14.15
484.182	14.15
484.307	5.15
484.432	31.15
484.556	5.15
484.681	7.15
484.805	11.15
484.93	25.15
485.055	15.15
485.179	41.15
485.304	23.15
485.428	25.15
485.553	15.15
485.678	31.15
485.802	14.15
485.927	32.15
486.051	43.15
486.176	19.15
486.3	7.15
486.425	20.15
486.549	23.15
486.674	11.15
486.799	7.15
486.923	14.15
487.048	9.15
487.172	17.15
487.297	4.15
487.421	19.15
487.546	18.15
487.67	18.15
487.795	20.15
487.919	17.15
488.044	24.15
488.168	40.15
488.293	19.15
488.417	3.15
488.542	37.15
488.666	28.15
488.791	27.15
488.915	25.15
489.04	41.15
489.164	49.15
489.289	40.15
489.413	13.15
489.538	26.15
489.662	32.15
489.786	3.15
489.911	20.15
490.035	6.15
490.16	23.15
490.284	13.15
490.409	-0.85
490.533	39.15
490.658	42.15
490.782	22.15
490.906	57.15
491.031	118.15
491.155	139.15
491.28	139.15
491.404	175.15
491.528	251.15
491.653	133.15
491.777	66.15
491.902	39.15
492.026	26.15
492.15	17.15
492.275	46.15
492.399	18.15
492.524	9.15
492.648	25.15
492.772	20.15
492.897	32.15
493.021	9.15
493.145	33.15
493.27	20.15
493.394	10.15
493.518	27.15
493.643	3.15
493.767	23.15
493.891	13.15
494.016	27.15
494.14	18.15
494.264	17.15
494.389	39.15
494.513	13.15
494.637	-1.85
494.762	19.15
494.886	22.15
495.01	25.15
495.134	29.15
495.259	30.15
495.383	7.15
495.507	16.15
495.632	20.15
495.756	30.15
495.88	24.15
496.004	24.15
496.129	9.15
496.253	23.15
496.377	19.15
496.501	41.15
496.626	-3.85
496.75	29.15
496.874	13.15
496.998	9.15
497.123	6.15
497.247	18.15
497.371	4.15
497.495	24.15
497.62	20.15
497.744	18.15
497.868	11.15
497.992	1.15
498.116	7.15
498.241	10.15
498.365	10.15
498.489	16.15
498.613	24.15
498.737	22.15
498.862	17.15
498.986	7.15
499.11	2.15
499.234	-0.85
499.358	-3.85
499.482	31.15
499.607	28.15
499.731	18.15
499.855	29.15
499.979	31.15
500.103	26.15
500.227	19.15
500.351	15.15
500.476	27.15
500.6	18.15
500.724	32.15
500.848	20.15
500.972	33.15
501.096	20.15
501.22	14.15
501.344	10.15
501.469	18.15
501.593	14.15
501.717	27.15
501.841	43.15
501.965	19.15
502.089	18.15
502.213	24.15
502.337	17.15
502.461	21.15
502.585	17.15
502.709	30.15
502.834	2.15
502.958	0.15
503.082	7.15
503.206	5.15
503.33	26.15
503.454	26.15
503.578	20.15
503.702	31.15
503.826	9.15
503.95	38.15
504.074	29.15
504.198	10.15
504.322	7.15
504.446	1.15
504.57	8.15
504.694	9.15
504.818	13.15
504.942	21.15
505.066	15.15
505.19	-2.85
505.314	33.15
505.438	47.15
505.562	11.15
505.686	39.15
505.81	7.15
505.934	25.15
506.058	22.15
506.182	30.15
506.306	22.15
506.43	23.15
506.554	15.15
506.678	21.15
506.802	18.15
506.926	30.15
507.05	36.15
507.174	31.15
507.298	35.15
507.422	9.15
507.546	40.15
507.67	44.15
507.794	7.15
507.918	28.15
508.042	3.15
508.165	9.15
508.289	6.15
508.413	31.15
508.537	14.15
508.661	31.15
508.785	13.15
508.909	29.15
509.033	28.15
509.157	30.15
509.281	24.15
509.405	20.15
509.528	46.15
509.652	39.15
509.776	22.15
509.9	39.15
510.024	42.15
510.148	26.15
510.272	23.15
510.396	36.15
510.519	19.15
510.643	27.15
510.767	43.15
510.891	31.15
511.015	30.15
511.139	53.15
511.263	60.15
511.386	46.15
511.51	41.15
511.634	26.15
511.758	52.15
511.882	20.15
512.006	35.15
512.129	49.15
512.253	78.15
512.377	88.15
512.501	85.15
512.625	85.15
512.748	88.15
512.872	75.15
512.996	68.15
513.12	47.15
513.244	46.15
513.367	89.15
513.491	80.15
513.615	77.15
513.739	66.15
513.862	75.15
513.986	79.15
514.11	104.15
514.234	91.15
514.358	105.15
514.481	130.15
514.605	112.15
514.729	124.15
514.853	125.15
514.976	114.15
515.1	111.15
515.224	116.15
515.348	82.15
515.471	74.15
515.595	85.15
515.719	123.15
515.842	218.15
515.966	289.15
516.09	296.15
516.214	314.15
516.337	346.15
516.461	234.15
516.585	94.15
516.708	46.15
516.832	42.15
516.956	5.15
517.08	23.15
517.203	7.15
517.327	11.15
517.451	26.15
517.574	35.15
517.698	18.15
517.822	9.15
517.945	32.15
518.069	33.15
518.193	34.15
518.316	31.15
518.44	20.15
518.564	16.15
518.687	4.15
518.811	29.15
518.935	47.15
519.058	26.15
519.182	23.15
519.306	17.15
519.429	11.15
519.553	49.15
519.676	31.15
519.8	9.15
519.924	3.15
520.047	27.15
520.171	28.15
520.294	20.15
520.418	22.15
520.542	25.15
520.665	38.15
520.789	23.15
520.913	7.15
521.036	1.15
521.16	-3.85
521.283	18.15
521.407	8.15
521.53	15.15
521.654	-0.85
521.778	31.15
521.901	15.15
522.025	14.15
522.148	18.15
522.272	29.15
522.395	4.15
522.519	18.15
522.643	11.15
522.766	6.15
522.89	17.15
523.013	16.15
523.137	2.15
523.26	24.15
523.384	20.15
523.507	21.15
523.631	15.15
523.754	10.15
523.878	27.15
524.002	15.15
524.125	7.15
524.249	17.15
524.372	10.15
524.496	15.15
524.619	10.15
524.743	-4.85
524.866	9.15
524.99	17.15
525.113	-0.85
525.237	29.15
525.36	15.15
525.484	6.15
525.607	-6.85
525.731	-1.85
525.854	7.15
525.978	19.15
526.101	11.15
526.224	17.15
526.348	7.15
526.471	1.15
526.595	9.15
526.718	20.15
526.842	19.15
526.965	20.15
527.089	6.15
527.212	27.15
527.336	1.15
527.459	22.15
527.582	21.15
527.706	11.15
527.829	12.15
527.953	17.15
528.076	-2.85
528.2	-5.85
528.323	12.15
528.446	20.15
528.57	14.15
528.693	17.15
528.817	5.15
528.94	8.15
529.064	37.15
529.187	23.15
529.31	16.15
529.434	12.15
529.557	20.15
529.68	22.15
529.804	13.15
529.927	14.15
530.051	18.15
530.174	7.15
530.297	7.15
530.421	19.15
530.544	42.15
530.668	34.15
530.791	10.15
530.914	27.15
531.038	20.15
531.161	7.15
531.284	25.15
531.408	24.15
531.531	-7.85
531.654	6.15
531.778	15.15
531.901	11.15
532.024	32.15
532.148	17.15
532.271	20.15
532.394	16.15
532.518	12.15
532.641	30.15
532.764	23.15
532.888	20.15
533.011	-2.85
533.134	-6.85
533.258	29.15
533.381	11.15
533.504	17.15
533.628	16.15
533.751	36.15
533.874	18.15
533.997	34.15
534.121	10.15
534.244	18.15
534.367	11.15
534.491	35.15
534.614	21.15
534.737	26.15
534.86	10.15
534.984	15.15
535.107	3.15
535.23	22.15
535.354	4.15
535.477	7.15
535.6	19.15
535.723	18.15
535.847	2.15
535.97	-11.85
536.093	16.15
536.216	4.15
536.34	42.15
536.463	1.15
536.586	41.15
536.709	22.15
536.833	10.15
536.956	-6.85
537.079	14.15
537.202	31.15
537.325	19.15
537.449	5.15
537.572	9.15
537.695	18.15
537.818	1.15
537.941	1.15
538.065	7.15
538.188	6.15
538.311	35.15
538.434	10.15
538.558	27.15
538.681	17.15
538.804	14.15
538.927	32.15
539.05	31.15
539.173	27.15
539.297	19.15
539.42	34.15
539.543	25.15
539.666	23.15
539.789	21.15
539.913	6.15
540.036	16.15
540.159	35.15
540.282	4.15
540.405	12.15
540.528	17.15
540.651	22.15
540.775	28.15
540.898	31.15
541.021	19.15
541.144	39.15
541.267	15.15
541.39	28.15
541.513	23.15
541.637	34.15
541.76	21.15
541.883	23.15
542.006	42.15
542.129	43.15
542.252	36.15
542.375	35.15
542.498	44.15
542.622	53.15
542.745	46.15
542.868	53.15
542.991	46.15
543.114	47.15
543.237	56.15
543.36	63.15
543.483	42.15
543.606	65.15
543.73	96.15
543.853	83.15
543.976	82.15
544.099	98.15
544.222	115.15
544.345	133.15
544.468	184.15
544.591	196.15
544.714	262.15
544.837	345.15
544.96	441.15
545.083	659.15
545.206	1042.15
545.329	2451.15
545.453	10918.15
545.576	15251.15
545.699	15680.15
545.822	15680.15
545.945	15680.15
546.068	15680.15
546.191	15680.15
546.314	15680.15
546.437	15680.15
546.56	15680.15
546.683	15680.15
546.806	15680.15
546.929	15680.15
547.052	15680.15
547.175	15680.15
547.298	15680.15
547.421	15680.15
547.544	15680.15
547.667	3561.15
547.79	2615.15
547.913	1057.15
548.036	902.15
548.159	639.15
548.282	627.15
548.405	489.15
548.528	465.15
548.651	396.15
548.774	409.15
548.897	351.15
549.02	369.15
549.143	315.15
549.266	298.15
549.389	269.15
549.512	254.15
549.635	244.15
549.758	261.15
549.881	234.15
550.004	220.15
550.127	194.15
550.25	180.15
550.373	155.15
550.496	190.15
550.619	145.15
550.742	159.15
550.865	147.15
550.988	165.15
551.111	163.15
551.234	153.15
551.356	112.15
551.479	119.15
551.602	106.15
551.725	130.15
551.848	146.15
551.971	160.15
552.094	122.15
552.217	121.15
552.34	98.15
552.463	107.15
552.586	93.15
552.709	109.15
552.832	102.15
552.955	110.15
553.077	101.15
553.2	93.15
553.323	76.15
553.446	112.15
553.569	93.15
553.692	101.15
553.815	102.15
553.938	111.15
554.061	100.15
554.184	91.15
554.306	85.15
554.429	69.15
554.552	86.15
554.675	52.15
554.798	66.15
554.921	83.15
555.044	81.15
555.167	68.15
555.29	76.15
555.412	89.15
555.535	73.15
555.658	69.15
555.781	65.15
555.904	82.15
556.027	70.15
556.15	68.15
556.272	59.15
556.395	82.15
556.518	66.15
556.641	68.15
556.764	88.15
556.887	80.15
557.01	68.15
557.132	57.15
557.255	54.15
557.378	73.15
557.501	62.15
557.624	69.15
557.747	73.15
557.869	65.15
557.992	74.15
558.115	86.15
558.238	94.15
558.361	88.15
558.483	89.15
558.606	71.15
558.729	34.15
558.852	60.15
558.975	69.15
559.098	51.15
559.22	45.15
559.343	53.15
559.466	57.15
559.589	51.15
559.712	49.15
559.834	45.15
559.957	42.15
560.08	53.15
560.203	57.15
560.325	56.15
560.448	54.15
560.571	33.15
560.694	46.15
560.817	60.15
560.939	48.15
561.062	61.15
561.185	75.15
561.308	77.15
561.43	57.15
561.553	51.15
561.676	68.15
561.799	60.15
561.921	62.15
562.044	54.15
562.167	44.15
562.29	86.15
562.413	66.15
562.535	79.15
562.658	47.15
562.781	51.15
562.903	74.15
563.026	84.15
563.149	127.15
563.272	107.15
563.394	123.15
563.517	108.15
563.64	67.15
563.763	50.15
563.885	60.15
564.008	54.15
564.131	49.15
564.254	23.15
564.376	21.15
564.499	24.15
564.622	25.15
564.744	50.15
564.867	38.15
564.99	30.15
565.113	49.15
565.235	42.15
565.358	33.15
565.481	9.15
565.603	31.15
565.726	30.15
565.849	41.15
565.971	38.15
566.094	17.15
566.217	38.15
566.34	14.15
566.462	25.15
566.585	38.15
566.708	54.15
566.83	50.15
566.953	35.15
567.076	20.15
567.198	24.15
567.321	24.15
567.444	39.15
567.566	36.15
567.689	28.15
567.812	39.15
567.934	42.15
568.057	39.15
568.18	44.15
568.302	37.15
568.425	15.15
568.548	31.15
568.67	36.15
568.793	36.15
568.916	26.15
569.038	30.15
569.161	49.15
569.283	45.15
569.406	27.15
569.529	15.15
569.651	18.15
569.774	34.15
569.897	29.15
570.019	49.15
570.142	49.15
570.265	25.15
570.387	18.15
570.51	40.15
570.632	40.15
570.755	31.15
570.878	17.15
571	39.15
571.123	30.15
571.246	32.15
571.368	33.15
571.491	29.15
571.613	22.15
571.736	34.15
571.859	33.15
571.981	24.15
572.104	20.15
572.226	35.15
572.349	37.15
572.472	43.15
572.594	23.15
572.717	16.15
572.839	10.15
572.962	29.15
573.085	24.15
573.207	30.15
573.33	27.15
573.452	47.15
573.575	58.15
573.697	26.15
573.82	32.15
573.943	27.15
574.065	37.15
574.188	22.15
574.31	39.15
574.433	46.15
574.555	51.15
574.678	25.15
574.801	45.15
574.923	20.15
575.046	49.15
575.168	21.15
575.291	43.15
575.413	45.15
575.536	41.15
575.659	61.15
575.781	41.15
575.904	56.15
576.026	62.15
576.149	76.15
576.271	129.15
576.394	207.15
576.516	526.15
576.639	3637.15
576.761	10184.15
576.884	8789.15
577.007	8696.15
577.129	7995.15
577.252	3768.15
577.374	1315.15
577.497	509.15
577.619	275.15
577.742	154.15
577.864	150.15
577.987	123.15
578.109	129.15
578.232	106.15
578.354	167.15
578.477	181.15
578.599	380.15
578.722	1977.15
578.844	9130.15
578.967	9830.15
579.089	8750.15
579.212	9034.15
579.334	5157.15
579.457	1899.15
579.579	701.15
579.702	307.15
579.824	213.15
579.947	122.15
580.069	96.15
580.192	83.15
580.314	101.15
580.437	62.15
580.559	87.15
580.682	75.15
580.804	67.15
580.927	78.15
581.049	78.15
581.172	49.15
581.294	50.15
581.417	60.15
581.539	53.15
581.662	50.15
581.784	45.15
581.907	30.15
582.029	38.15
582.152	51.15
582.274	53.15
582.396	45.15
582.519	35.15
582.641	31.15
582.764	26.15
582.886	37.15
583.009	33.15
583.131	38.15
583.254	40.15
583.376	48.15
583.499	48.15
583.621	39.15
583.743	35.15
583.866	27.15
583.988	25.15
584.111	10.15
584.233	34.15
584.356	27.15
584.478	29.15
584.601	10.15
584.723	30.15
584.845	35.15
584.968	15.15
585.09	14.15
585.213	24.15
585.335	21.15
585.458	25.15
585.58	30.15
585.702	51.15
585.825	34.15
585.947	26.15
586.07	11.15
586.192	22.15
586.315	34.15
586.437	27.15
586.559	19.15
586.682	7.15
586.804	35.15
586.927	7.15
587.049	26.15
587.171	34.15
587.294	44.15
587.416	26.15
587.539	20.15
587.661	20.15
587.783	19.15
587.906	21.15
588.028	46.15
588.151	18.15
588.273	30.15
588.395	23.15
588.518	26.15
588.64	21.15
588.763	49.15
588.885	22.15
589.007	51.15
589.13	19.15
589.252	9.15
589.375	21.15
589.497	10.15
589.619	35.15
589.742	35.15
589.864	46.15
589.986	38.15
590.109	11.15
590.231	7.15
590.354	32.15
590.476	11.15
590.598	18.15
590.721	7.15
590.843	15.15
590.965	25.15
591.088	17.15
591.21	28.15
591.332	21.15
591.455	19.15
591.577	41.15
591.7	14.15
591.822	22.15
591.944	23.15
592.067	14.15
592.189	25.15
592.311	30.15
592.434	30.15
592.556	35.15
592.678	24.15
592.801	36.15
592.923	18.15
593.045	28.15
593.168	40.15
593.29	24.15
593.412	42.15
593.535	27.15
593.657	22.15
593.779	14.15
593.902	42.15
594.024	40.15
594.146	62.15
594.269	35.15
594.391	6.15
594.513	22.15
594.636	29.15
594.758	15.15
594.88	27.15
595.003	25.15
595.125	37.15
595.247	20.15
595.37	27.15
595.492	-3.85
595.614	43.15
595.737	42.15
595.859	16.15
595.981	3.15
596.104	11.15
596.226	23.15
596.348	15.15
596.471	15.15
596.593	17.15
596.715	16.15
596.838	12.15
596.96	14.15
597.082	18.15
597.204	29.15
597.327	28.15
597.449	4.15
597.571	25.15
597.694	41.15
597.816	22.15
597.938	17.15
598.061	29.15
598.183	19.15
598.305	30.15
598.427	22.15
598.55	8.15
598.672	17.15
598.794	21.15
598.917	21.15
599.039	27.15
599.161	23.15
599.283	11.15
599.406	23.15
599.528	30.15
599.65	34.15
599.773	21.15
599.895	44.15
600.017	30.15
600.139	14.15
600.262	29.15
600.384	28.15
600.506	27.15
600.628	41.15
600.751	42.15
600.873	7.15
600.995	18.15
601.118	23.15
601.24	19.15
601.362	33.15
601.484	21.15
601.607	21.15
601.729	35.15
601.851	26.15
601.973	25.15
602.096	37.15
602.218	31.15
602.34	10.15
602.462	20.15
602.585	15.15
602.707	7.15
602.829	26.15
602.951	23.15
603.074	9.15
603.196	19.15
603.318	10.15
603.44	9.15
603.563	7.15
603.685	10.15
603.807	22.15
603.929	24.15
604.052	30.15
604.174	60.15
604.296	27.15
604.418	37.15
604.541	49.15
604.663	14.15
604.785	10.15
604.907	15.15
605.03	10.15
605.152	45.15
605.274	9.15
605.396	13.15
605.519	12.15
605.641	13.15
605.763	24.15
605.885	17.15
606.008	15.15
606.13	26.15
606.252	35.15
606.374	-8.85
606.496	2.15
606.619	27.15
606.741	20.15
606.863	43.15
606.985	41.15
607.108	13.15
607.23	6.15
607.352	12.15
607.474	10.15
607.596	12.15
607.719	13.15
607.841	19.15
607.963	15.15
608.085	13.15
608.207	32.15
608.33	30.15
608.452	10.15
608.574	15.15
608.696	37.15
608.819	33.15
608.941	19.15
609.063	27.15
609.185	1.15
609.307	11.15
609.43	31.15
609.552	25.15
609.674	10.15
609.796	26.15
609.918	6.15
610.041	18.15
610.163	22.15
610.285	-3.85
610.407	14.15
610.529	7.15
610.652	4.15
610.774	19.15
610.896	11.15
611.018	33.15
611.14	21.15
611.263	2.15
611.385	-0.85
611.507	33.15
611.629	3.15
611.751	25.15
611.873	30.15
611.996	21.15
612.118	33.15
612.24	29.15
612.362	28.15
612.484	28.15
612.607	10.15
612.729	51.15
612.851	31.15
612.973	14.15
613.095	15.15
613.218	28.15
613.34	41.15
613.462	34.15
613.584	26.15
613.706	23.15
613.828	24.15
613.951	9.15
614.073	18.15
614.195	5.15
614.317	33.15
614.439	30.15
614.561	34.15
614.684	25.15
614.806	27.15
614.928	22.15
615.05	25.15
615.172	34.15
615.294	24.15
615.417	6.15
615.539	9.15
615.661	19.15
615.783	18.15
615.905	13.15
616.027	5.15
616.15	36.15
616.272	29.15
616.394	11.15
616.516	12.15
616.638	19.15
616.76	29.15
616.883	28.15
617.005	13.15
617.127	19.15
617.249	20.15
617.371	21.15
617.493	9.15
617.615	26.15
617.738	29.15
617.86	24.15
617.982	22.15
618.104	12.15
618.226	5.15
618.348	3.15
618.471	37.15
618.593	22.15
618.715	1.15
618.837	23.15
618.959	14.15
619.081	31.15
619.203	30.15
619.326	25.15
619.448	21.15
619.57	21.15
619.692	16.15
619.814	24.15
619.936	32.15
620.058	19.15
620.181	7.15
620.303	20.15
620.425	20.15
620.547	-15.85
620.669	-0.85
620.791	13.15
620.913	32.15
621.036	3.15
621.158	25.15
621.28	28.15
621.402	10.15
621.524	-0.85
621.646	-0.85
621.768	-0.85
621.891	3.15
622.013	21.15
622.135	9.15
622.257	-3.85
622.379	13.15
622.501	13.15
622.623	25.15
622.745	23.15
622.868	15.15
622.99	10.15
623.112	3.15
623.234	13.15
623.356	7.15
623.478	-8.85
623.6	15.15
623.722	11.15
623.845	23.15
623.967	10.15
624.089	34.15
624.211	30.15
624.333	19.15
624.455	-4.85
624.577	15.15
624.699	17.15
624.822	17.15
624.944	31.15
625.066	18.15
625.188	5.15
625.31	19.15
625.432	36.15
625.554	17.15
625.676	33.15
625.799	17.15
625.921	12.15
626.043	31.15
626.165	11.15
626.287	-1.85
626.409	24.15
626.531	0.15
626.653	8.15
626.775	15.15
626.898	19.15
627.02	33.15
627.142	26.15
627.264	37.15
627.386	23.15
627.508	14.15
627.63	-4.85
627.752	15.15
627.874	25.15
627.997	19.15
628.119	37.15
628.241	29.15
628.363	36.15
628.485	34.15
628.607	1.15
628.729	14.15
628.851	18.15
628.973	16.15
629.096	-1.85
629.218	6.15
629.34	6.15
629.462	10.15
629.584	21.15
629.706	27.15
629.828	27.15
629.95	21.15
630.072	13.15
630.195	16.15
630.317	7.15
630.439	23.15
630.561	13.15
630.683	11.15
630.805	3.15
630.927	20.15
631.049	5.15
631.171	13.15
631.293	2.15
631.416	6.15
631.538	18.15
631.66	18.15
631.782	31.15
631.904	28.15
632.026	-5.85
632.148	2.15
632.27	5.15
632.392	30.15
632.514	2.15
632.637	7.15
632.759	3.15
632.881	5.15
633.003	15.15
633.125	-10.85
633.247	1.15
633.369	13.15
633.491	5.15
633.613	25.15
633.735	-3.85
633.858	7.15
633.98	-4.85
634.102	3.15
634.224	11.15
634.346	-1.85
634.468	10.15
634.59	19.15
634.712	7.15
634.834	17.15
634.956	3.15
635.078	2.15
635.201	13.15
635.323	9.15
635.445	9.15
635.567	2.15
635.689	18.15
635.811	2.15
635.933	5.15
636.055	-0.85
636.177	-2.85
636.299	5.15
636.421	12.15
636.544	4.15
636.666	6.15
636.788	9.15
636.91	26.15
637.032	5.15
637.154	8.15
637.276	36.15
637.398	30.15
637.52	38.15
637.642	21.15
637.764	3.15
637.887	-10.85
638.009	-0.85
638.131	18.15
638.253	4.15
638.375	7.15
638.497	5.15
638.619	17.15
638.741	24.15
638.863	-8.85
638.985	10.15
639.107	-21.85
639.23	-4.85
639.352	15.15
639.474	5.15
639.596	9.15
639.718	13.15
639.84	13.15
639.962	13.15
640.084	22.15
640.206	17.15
640.328	-6.85
640.45	8.15
640.573	2.15
640.695	8.15
640.817	5.15
640.939	19.15
641.061	7.15
641.183	1.15
641.305	8.15
641.427	17.15
641.549	18.15
641.671	7.15
641.793	-3.85
641.915	17.15
642.038	7.15
642.16	5.15
642.282	15.15
642.404	7.15
642.526	9.15
642.648	17.15
642.77	5.15
642.892	6.15
643.014	16.15
643.136	23.15
643.258	-2.85
643.381	30.15
643.503	11.15
643.625	5.15
643.747	7.15
643.869	9.15
643.991	11.15
644.113	1.15
644.235	6.15
644.357	5.15
644.479	32.15
644.601	7.15
644.723	8.15
644.846	21.15
644.968	-0.85
645.09	0.15
645.212	25.15
645.334	20.15
645.456	6.15
645.578	20.15
645.7	25.15
645.822	6.15
645.944	37.15
646.066	13.15
646.188	16.15
646.311	26.15
646.433	1.15
646.555	26.15
646.677	23.15
646.799	21.15
646.921	19.15
647.043	27.15
647.165	3.15
647.287	12.15
647.409	7.15
647.531	25.15
647.654	7.15
647.776	19.15
647.898	12.15
648.02	13.15
648.142	-2.85
648.264	14.15
648.386	9.15
648.508	12.15
648.63	5.15
648.752	29.15
648.874	-6.85
648.997	-0.85
649.119	20.15
649.241	25.15
649.363	24.15
649.485	31.15
649.607	-1.85
649.729	1.15
649.851	2.15
649.973	2.15
650.095	7.15
650.217	2.15
650.34	1.15
650.462	25.15
650.584	4.15
650.706	21.15
650.828	16.15
650.95	-0.85
651.072	12.15
651.194	-6.85
651.316	7.15
651.438	9.15
651.56	-11.85
651.683	-9.85
651.805	-4.85
651.927	24.15
652.049	9.15
652.171	21.15
652.293	3.15
652.415	7.15
652.537	-26.85
652.659	-12.85
652.781	16.15
652.903	21.15
653.026	37.15
653.148	29.15
653.27	18.15
653.392	-1.85
653.514	-2.85
653.636	2.15
653.758	5.15
653.88	-3.85
654.002	7.15
654.124	2.15
654.247	3.15
654.369	17.15
654.491	19.15
654.613	-2.85
654.735	1.15
654.857	15.15
654.979	9.15
655.101	-3.85
655.223	21.15
655.345	18.15
655.468	10.15
655.59	0.15
655.712	13.15
655.834	-6.85
655.956	21.15
656.078	13.15
656.2	20.15
656.322	9.15
656.444	-11.85
656.566	-8.85
656.689	12.15
656.811	7.15
656.933	19.15
657.055	14.15
657.177	17.15
657.299	2.15
657.421	2.15
657.543	7.15
657.665	-2.85
657.787	16.15
657.91	7.15
658.032	-7.85
658.154	3.15
658.276	2.15
658.398	7.15
658.52	1.15
658.642	24.15
658.764	25.15
658.886	-5.85
659.009	9.15
659.131	28.15
659.253	31.15
659.375	12.15
659.497	8.15
659.619	20.15
659.741	-17.85
659.863	1.15
659.985	-9.85
660.108	35.15
660.23	1.15
660.352	6.15
660.474	23.15
660.596	17.15
660.718	21.15
660.84	2.15
660.962	27.15
661.084	5.15
661.207	3.15
661.329	24.15
661.451	8.15
661.573	11.15
661.695	25.15
661.817	26.15
661.939	18.15
662.061	25.15
662.184	-4.85
662.306	3.15
662.428	8.15
662.55	14.15
662.672	-1.85
662.794	17.15
662.916	10.15
663.038	5.15
663.161	21.15
663.283	20.15
663.405	14.15
663.527	9.15
663.649	19.15
663.771	18.15
663.893	16.15
664.015	22.15
664.138	5.15
664.26	22.15
664.382	15.15
664.504	-7.85
664.626	6.15
664.748	6.15
664.87	5.15
664.992	21.15
665.115	21.15
665.237	16.15
665.359	7.15
665.481	4.15
665.603	10.15
665.725	14.15
665.847	-7.85
665.97	12.15
666.092	1.15
666.214	22.15
666.336	11.15
666.458	16.15
666.58	18.15
666.702	-1.85
666.825	-0.85
666.947	-13.85
667.069	14.15
667.191	9.15
667.313	11.15
667.435	-5.85
667.557	-6.85
667.68	6.15
667.802	24.15
667.924	17.15
668.046	17.15
668.168	16.15
668.29	20.15
668.412	4.15
668.535	22.15
668.657	11.15
668.779	2.15
668.901	-4.85
669.023	8.15
669.145	12.15
669.267	18.15
669.39	6.15
669.512	10.15
669.634	13.15
669.756	-6.85
669.878	8.15
670	13.15
670.123	17.15
670.245	40.15
670.367	35.15
670.489	22.15
670.611	18.15
670.733	-0.85
670.856	13.15
670.978	20.15
671.1	35.15
671.222	5.15
671.344	-5.85
671.466	-1.85
671.589	5.15
671.711	-6.85
671.833	-11.85
671.955	1.15
672.077	7.15
672.199	26.15
672.322	27.15
672.444	15.15
672.566	19.15
672.688	3.15
672.81	5.15
672.932	17.15
673.055	1.15
673.177	1.15
673.299	6.15
673.421	3.15
673.543	1.15
673.665	24.15
673.788	13.15
673.91	3.15
674.032	-17.85
674.154	9.15
674.276	-0.85
674.399	-8.85
674.521	-2.85
674.643	6.15
674.765	2.15
674.887	3.15
675.009	20.15
675.132	10.15
675.254	-4.85
675.376	16.15
675.498	-0.85
675.62	26.15
675.743	1.15
675.865	26.15
675.987	19.15
676.109	1.15
676.231	7.15
676.354	36.15
676.476	16.15
676.598	13.15
676.72	22.15
676.842	13.15
676.965	-0.85
677.087	-4.85
677.209	23.15
677.331	25.15
677.453	14.15
677.576	5.15
677.698	19.15
677.82	11.15
677.942	2.15
678.064	-4.85
678.187	11.15
678.309	8.15
678.431	20.15
678.553	15.15
678.675	17.15
678.798	23.15
678.92	5.15
679.042	4.15
679.164	-0.85
679.286	5.15
679.409	-0.85
679.531	-8.85
679.653	28.15
679.775	2.15
679.898	3.15
680.02	7.15
680.142	5.15
680.264	13.15
680.386	-2.85
680.509	13.15
680.631	9.15
680.753	2.15
680.875	-2.85
680.998	29.15
681.12	17.15
681.242	14.15
681.364	-9.85
681.486	7.15
681.609	5.15
681.731	-4.85
681.853	-9.85
681.975	3.15
682.098	30.15
682.22	21.15
682.342	8.15
682.464	23.15
682.587	10.15
682.709	6.15
682.831	-6.85
682.953	-4.85
683.076	6.15
683.198	7.15
683.32	6.15
683.442	1.15
683.565	24.15
683.687	12.15
683.809	2.15
683.931	5.15
684.054	10.15
684.176	7.15
684.298	24.15
684.42	-3.85
684.543	9.15
684.665	22.15
684.787	-2.85
684.909	6.15
685.032	13.15
685.154	-5.85
685.276	10.15
685.398	-7.85
685.521	-21.85
685.643	7.15
685.765	19.15
685.887	14.15
686.01	7.15
686.132	7.15
686.254	16.15
686.377	17.15
686.499	-4.85
686.621	13.15
686.743	11.15
686.866	10.15
686.988	21.15
687.11	25.15
687.232	7.15
687.355	-18.85
687.477	-7.85
687.599	1.15
687.722	2.15
687.844	1.15
687.966	1.15
688.088	15.15
688.211	24.15
688.333	1.15
688.455	5.15
688.578	21.15
688.7	17.15
688.822	1.15
688.944	-13.85
689.067	38.15
689.189	10.15
689.311	8.15
689.434	-2.85
689.556	7.15
689.678	5.15
689.801	10.15
689.923	13.15
690.045	20.15
690.167	23.15
690.29	13.15
690.412	9.15
690.534	7.15
690.657	-5.85
690.779	1.15
690.901	18.15
691.024	5.15
691.146	18.15
691.268	1.15
691.391	4.15
691.513	17.15
691.635	9.15
691.758	26.15
691.88	29.15
692.002	-11.85
692.125	3.15
692.247	4.15
692.369	-4.85
692.492	-8.85
692.614	-0.85
692.736	-5.85
692.859	-14.85
692.981	1.15
693.103	-2.85
693.226	7.15
693.348	21.15
693.47	5.15
693.593	29.15
693.715	40.15
693.837	30.15
693.96	7.15
694.082	13.15
694.204	10.15
694.327	12.15
694.449	-6.85
694.571	17.15
694.694	21.15
694.816	18.15
694.938	12.15
695.061	7.15
695.183	10.15
695.305	12.15
695.428	8.15
695.55	1.15
695.672	-13.85
695.795	17.15
695.917	14.15
696.04	6.15
696.162	5.15
696.284	9.15
696.407	11.15
696.529	-1.85
696.651	23.15
696.774	15.15
696.896	23.15
697.019	8.15
697.141	3.15
697.263	-4.85
697.386	-2.85
697.508	15.15
697.63	5.15
697.753	23.15
697.875	11.15
697.998	5.15
698.12	6.15
698.242	1.15
698.365	-6.85
698.487	21.15
698.61	8.15
698.732	20.15
698.854	14.15
698.977	18.15
699.099	20.15
699.221	6.15
699.344	7.15
699.466	10.15
699.589	0.15
699.711	-9.85
699.834	19.15
699.956	25.15
700.078	9.15
700.201	2.15
700.323	19.15
700.446	6.15
700.568	15.15
700.69	2.15
700.813	-2.85
700.935	17.15
701.058	10.15
701.18	-1.85
701.302	2.15
701.425	-3.85
701.547	23.15
701.67	-11.85
701.792	17.15
701.915	6.15
702.037	1.15
702.159	26.15
702.282	7.15
702.404	-1.85
702.527	13.15
702.649	15.15
702.772	19.15
702.894	10.15
703.017	-1.85
703.139	14.15
703.261	18.15
703.384	25.15
703.506	5.15
703.629	0.15
703.751	11.15
703.874	3.15
703.996	-1.85
704.119	-2.85
704.241	12.15
704.364	-15.85
704.486	11.15
704.608	-2.85
704.731	15.15
704.853	9.15
704.976	6.15
705.098	22.15
705.221	2.15
705.343	-5.85
705.466	15.15
705.588	7.15
705.711	27.15
705.833	15.15
705.956	-14.85
706.078	11.15
706.201	14.15
706.323	15.15
706.446	-3.85
