Data from LowRes_mercury_15_20_11_07_2024_HR4C61881__64__15-23-38-670.txt Node

Date: Thu Nov 07 15:23:38 EST 2024
User: crc00042
Spectrometer: HR4C6188
Trigger mode: 4
Integration Time (sec): 1.000000E-1
Scans to average: 1
Electric dark correction enabled: true
Nonlinearity correction enabled: false
Boxcar width: 0
XAxis mode: Wavelengths
Number of Pixels in Spectrum: 3648
>>>>>Begin Spectral Data<<<<<
245.66	-52.38
245.797	-52.38
245.934	-52.38
246.071	-77.38
246.208	28.62
246.344	12.62
246.481	-4.38
246.618	-4.38
246.755	16.62
246.892	4.62
247.029	-18.38
247.165	-9.38
247.302	12.62
247.439	-3.38
247.576	3.62
247.713	-19.38
247.849	17.62
247.986	-8.38
248.123	19.62
248.26	-22.38
248.396	-8.38
248.533	-2.38
248.67	-0.38
248.806	-2.38
248.943	-20.38
249.08	-1.38
249.216	-2.38
249.353	-24.38
249.49	-11.38
249.626	-8.38
249.763	-11.38
249.9	-9.38
250.036	2.62
250.173	5.62
250.309	-15.38
250.446	-3.38
250.582	6.62
250.719	-9.38
250.856	-15.38
250.992	0.62
251.129	-9.38
251.265	0.62
251.402	-14.38
251.538	1.62
251.675	-12.38
251.811	3.62
251.948	11.62
252.084	-5.38
252.221	-17.38
252.357	-15.38
252.493	19.62
252.63	-20.38
252.766	7.62
252.903	9.62
253.039	-9.38
253.175	5.62
253.312	1.62
253.448	-13.38
253.585	-24.38
253.721	-7.38
253.857	-16.38
253.994	7.62
254.13	-8.38
254.266	-0.38
254.403	-1.38
254.539	-12.38
254.675	19.62
254.811	5.62
254.948	5.62
255.084	-1.38
255.22	-3.38
255.356	3.62
255.493	-4.38
255.629	1.62
255.765	0.62
255.901	20.62
256.037	-0.38
256.174	4.62
256.31	-16.38
256.446	7.62
256.582	-18.38
256.718	-1.38
256.854	-9.38
256.991	-8.38
257.127	-2.38
257.263	0.62
257.399	7.62
257.535	-14.38
257.671	-14.38
257.807	-8.38
257.943	-2.38
258.079	-11.38
258.215	-7.38
258.351	6.62
258.487	-11.38
258.623	20.62
258.759	-9.38
258.895	-13.38
259.031	-10.38
259.167	-8.38
259.303	10.62
259.439	-5.38
259.575	-9.38
259.711	4.62
259.847	-11.38
259.983	2.62
260.119	-5.38
260.255	-0.38
260.391	7.62
260.527	-15.38
260.663	-15.38
260.799	-3.38
260.934	-8.38
261.07	-4.38
261.206	-8.38
261.342	-8.38
261.478	4.62
261.614	21.62
261.749	0.62
261.885	0.62
262.021	-5.38
262.157	10.62
262.293	-9.38
262.428	-15.38
262.564	3.62
262.7	-4.38
262.836	-13.38
262.971	8.62
263.107	8.62
263.243	11.62
263.378	16.62
263.514	-0.38
263.65	4.62
263.785	-23.38
263.921	-4.38
264.057	-13.38
264.192	11.62
264.328	7.62
264.464	-12.38
264.599	1.62
264.735	-0.38
264.871	11.62
265.006	3.62
265.142	-17.38
265.277	-3.38
265.413	4.62
265.548	2.62
265.684	7.62
265.819	-5.38
265.955	-15.38
266.091	-14.38
266.226	-21.38
266.362	-0.38
266.497	1.62
266.633	19.62
266.768	-23.38
266.903	-0.38
267.039	2.62
267.174	-3.38
267.31	4.62
267.445	-19.38
267.581	-9.38
267.716	5.62
267.851	21.62
267.987	-3.38
268.122	9.62
268.258	-20.38
268.393	-6.38
268.528	14.62
268.664	-19.38
268.799	-18.38
268.934	10.62
269.07	2.62
269.205	-2.38
269.34	7.62
269.476	0.62
269.611	-21.38
269.746	3.62
269.881	1.62
270.017	-8.38
270.152	5.62
270.287	-2.38
270.422	9.62
270.558	-16.38
270.693	23.62
270.828	-0.38
270.963	-14.38
271.098	-26.38
271.234	-22.38
271.369	28.62
271.504	-5.38
271.639	-13.38
271.774	-19.38
271.909	4.62
272.045	-27.38
272.18	-15.38
272.315	-24.38
272.45	11.62
272.585	-11.38
272.72	3.62
272.855	-3.38
272.99	10.62
273.125	-3.38
273.26	-15.38
273.395	-16.38
273.53	-17.38
273.665	-6.38
273.8	-8.38
273.935	-2.38
274.07	-15.38
274.205	10.62
274.34	-10.38
274.475	-4.38
274.61	10.62
274.745	-21.38
274.88	29.62
275.015	-7.38
275.15	24.62
275.285	3.62
275.42	10.62
275.555	15.62
275.69	9.62
275.825	-5.38
275.959	8.62
276.094	-4.38
276.229	7.62
276.364	-4.38
276.499	-9.38
276.634	8.62
276.768	-0.38
276.903	22.62
277.038	12.62
277.173	1.62
277.308	1.62
277.442	-8.38
277.577	-2.38
277.712	-6.38
277.847	-18.38
277.981	12.62
278.116	-30.38
278.251	-10.38
278.386	0.62
278.52	11.62
278.655	12.62
278.79	18.62
278.924	3.62
279.059	-10.38
279.194	6.62
279.328	18.62
279.463	-16.38
279.598	11.62
279.732	-0.38
279.867	6.62
280.001	6.62
280.136	-4.38
280.271	-11.38
280.405	-2.38
280.54	4.62
280.674	-4.38
280.809	-14.38
280.943	-13.38
281.078	9.62
281.213	22.62
281.347	8.62
281.482	-16.38
281.616	-17.38
281.751	-7.38
281.885	-15.38
282.02	-2.38
282.154	4.62
282.288	-22.38
282.423	-27.38
282.557	-15.38
282.692	-14.38
282.826	16.62
282.961	18.62
283.095	-4.38
283.229	-6.38
283.364	-18.38
283.498	-5.38
283.633	0.62
283.767	-10.38
283.901	-15.38
284.036	-3.38
284.17	-5.38
284.304	-3.38
284.439	-7.38
284.573	-8.38
284.707	-5.38
284.842	1.62
284.976	-1.38
285.11	2.62
285.244	1.62
285.379	38.62
285.513	1.62
285.647	-5.38
285.781	-9.38
285.916	10.62
286.05	-12.38
286.184	24.62
286.318	21.62
286.453	-11.38
286.587	-7.38
286.721	-12.38
286.855	2.62
286.989	-0.38
287.123	-5.38
287.258	-16.38
287.392	0.62
287.526	6.62
287.66	-10.38
287.794	-3.38
287.928	-3.38
288.062	10.62
288.196	-9.38
288.33	-8.38
288.464	13.62
288.598	15.62
288.733	-13.38
288.867	14.62
289.001	-3.38
289.135	3.62
289.269	-14.38
289.403	0.62
289.537	1.62
289.671	12.62
289.805	-13.38
289.939	6.62
290.073	-15.38
290.207	19.62
290.34	-8.38
290.474	1.62
290.608	2.62
290.742	-0.38
290.876	-16.38
291.01	-8.38
291.144	14.62
291.278	1.62
291.412	-7.38
291.546	1.62
291.679	-21.38
291.813	-6.38
291.947	7.62
292.081	-8.38
292.215	2.62
292.349	-3.38
292.482	-1.38
292.616	-14.38
292.75	-5.38
292.884	12.62
293.018	-4.38
293.151	-29.38
293.285	1.62
293.419	-1.38
293.553	-6.38
293.686	-5.38
293.82	-16.38
293.954	11.62
294.088	10.62
294.221	-10.38
294.355	-8.38
294.489	-15.38
294.622	-7.38
294.756	-2.38
294.89	-13.38
295.023	-17.38
295.157	3.62
295.291	-9.38
295.424	12.62
295.558	-15.38
295.691	-1.38
295.825	4.62
295.959	-1.38
296.092	-15.38
296.226	3.62
296.359	18.62
296.493	-6.38
296.627	-7.38
296.76	-11.38
296.894	5.62
297.027	-13.38
297.161	-9.38
297.294	-13.38
297.428	9.62
297.561	12.62
297.695	-14.38
297.828	5.62
297.962	-9.38
298.095	-20.38
298.229	-7.38
298.362	-9.38
298.495	-17.38
298.629	-22.38
298.762	1.62
298.896	12.62
299.029	-19.38
299.162	-16.38
299.296	2.62
299.429	-10.38
299.563	0.62
299.696	2.62
299.829	-9.38
299.963	14.62
300.096	22.62
300.229	-2.38
300.363	-16.38
300.496	-4.38
300.629	-25.38
300.763	-10.38
300.896	-5.38
301.029	-7.38
301.162	14.62
301.296	-13.38
301.429	0.62
301.562	-27.38
301.695	-7.38
301.829	0.62
301.962	11.62
302.095	3.62
302.228	-7.38
302.362	1.62
302.495	-17.38
302.628	-9.38
302.761	-3.38
302.894	-2.38
303.027	2.62
303.161	-8.38
303.294	-2.38
303.427	4.62
303.56	15.62
303.693	-6.38
303.826	1.62
303.959	-12.38
304.092	-1.38
304.225	-3.38
304.359	-7.38
304.492	-5.38
304.625	-1.38
304.758	10.62
304.891	-5.38
305.024	-23.38
305.157	-2.38
305.29	-1.38
305.423	-21.38
305.556	9.62
305.689	15.62
305.822	-1.38
305.955	-3.38
306.088	-18.38
306.221	-23.38
306.354	-23.38
306.487	-8.38
306.62	-18.38
306.752	-23.38
306.885	0.62
307.018	-10.38
307.151	-7.38
307.284	10.62
307.417	-16.38
307.55	-3.38
307.683	-4.38
307.816	-6.38
307.948	4.62
308.081	-6.38
308.214	-1.38
308.347	27.62
308.48	-19.38
308.613	-31.38
308.745	-4.38
308.878	-20.38
309.011	-7.38
309.144	-1.38
309.277	-1.38
309.409	7.62
309.542	-11.38
309.675	12.62
309.808	11.62
309.94	19.62
310.073	-19.38
310.206	-8.38
310.339	-9.38
310.471	-12.38
310.604	-6.38
310.737	-20.38
310.869	-2.38
311.002	0.62
311.135	2.62
311.267	-22.38
311.4	-0.38
311.533	-0.38
311.665	-3.38
311.798	-4.38
311.93	9.62
312.063	23.62
312.196	26.62
312.328	54.62
312.461	56.62
312.593	6.62
312.726	46.62
312.859	80.62
312.991	152.62
313.124	35.62
313.256	10.62
313.389	4.62
313.521	-7.38
313.654	-4.38
313.786	-13.38
313.919	-13.38
314.051	-18.38
314.184	5.62
314.316	5.62
314.449	-25.38
314.581	-8.38
314.714	-3.38
314.846	-9.38
314.978	-2.38
315.111	-11.38
315.243	-9.38
315.376	14.62
315.508	4.62
315.641	11.62
315.773	31.62
315.905	4.62
316.038	-11.38
316.17	5.62
316.302	7.62
316.435	2.62
316.567	-3.38
316.699	12.62
316.832	-4.38
316.964	3.62
317.096	-3.38
317.229	-12.38
317.361	-12.38
317.493	-12.38
317.625	-21.38
317.758	0.62
317.89	9.62
318.022	5.62
318.155	-3.38
318.287	2.62
318.419	19.62
318.551	-4.38
318.683	-5.38
318.816	7.62
318.948	-13.38
319.08	-21.38
319.212	-10.38
319.344	7.62
319.477	6.62
319.609	5.62
319.741	-3.38
319.873	-6.38
320.005	9.62
320.137	-0.38
320.269	-8.38
320.401	-16.38
320.534	3.62
320.666	-7.38
320.798	-17.38
320.93	-12.38
321.062	-19.38
321.194	-12.38
321.326	-8.38
321.458	3.62
321.59	2.62
321.722	-12.38
321.854	2.62
321.986	10.62
322.118	15.62
322.25	-4.38
322.382	-4.38
322.514	-4.38
322.646	-9.38
322.778	-1.38
322.91	-10.38
323.042	-4.38
323.174	-14.38
323.306	-21.38
323.438	-20.38
323.57	-6.38
323.702	-4.38
323.834	0.62
323.966	1.62
324.097	3.62
324.229	5.62
324.361	-0.38
324.493	2.62
324.625	-15.38
324.757	5.62
324.889	-9.38
325.021	7.62
325.152	14.62
325.284	9.62
325.416	-7.38
325.548	10.62
325.68	-15.38
325.811	11.62
325.943	14.62
326.075	-6.38
326.207	-4.38
326.339	4.62
326.47	4.62
326.602	15.62
326.734	14.62
326.866	14.62
326.997	-17.38
327.129	-10.38
327.261	-6.38
327.392	0.62
327.524	9.62
327.656	7.62
327.787	12.62
327.919	15.62
328.051	3.62
328.182	11.62
328.314	22.62
328.446	-10.38
328.577	14.62
328.709	13.62
328.841	2.62
328.972	-11.38
329.104	-8.38
329.235	2.62
329.367	-11.38
329.499	-3.38
329.63	-3.38
329.762	-2.38
329.893	8.62
330.025	-2.38
330.156	-12.38
330.288	26.62
330.419	2.62
330.551	1.62
330.683	7.62
330.814	-14.38
330.946	6.62
331.077	-3.38
331.208	-17.38
331.34	-3.38
331.471	-5.38
331.603	8.62
331.734	-0.38
331.866	4.62
331.997	-0.38
332.129	-1.38
332.26	-5.38
332.392	4.62
332.523	-3.38
332.654	-10.38
332.786	14.62
332.917	-1.38
333.048	14.62
333.18	33.62
333.311	8.62
333.443	13.62
333.574	12.62
333.705	56.62
333.837	50.62
333.968	122.62
334.099	229.62
334.231	219.62
334.362	38.62
334.493	19.62
334.624	18.62
334.756	-7.38
334.887	12.62
335.018	8.62
335.15	19.62
335.281	4.62
335.412	8.62
335.543	2.62
335.675	18.62
335.806	15.62
335.937	0.62
336.068	17.62
336.199	29.62
336.331	7.62
336.462	11.62
336.593	9.62
336.724	7.62
336.855	-5.38
336.986	13.62
337.118	20.62
337.249	-6.38
337.38	17.62
337.511	18.62
337.642	7.62
337.773	10.62
337.904	2.62
338.035	-2.38
338.166	-0.38
338.298	15.62
338.429	4.62
338.56	12.62
338.691	32.62
338.822	15.62
338.953	28.62
339.084	27.62
339.215	7.62
339.346	1.62
339.477	2.62
339.608	3.62
339.739	7.62
339.87	10.62
340.001	18.62
340.132	14.62
340.263	-0.38
340.394	23.62
340.525	17.62
340.656	-6.38
340.787	7.62
340.918	34.62
341.049	3.62
341.179	9.62
341.31	-4.38
341.441	-5.38
341.572	19.62
341.703	17.62
341.834	3.62
341.965	9.62
342.096	12.62
342.227	34.62
342.357	14.62
342.488	14.62
342.619	26.62
342.75	10.62
342.881	-2.38
343.012	16.62
343.142	23.62
343.273	-4.38
343.404	18.62
343.535	39.62
343.666	7.62
343.796	16.62
343.927	10.62
344.058	22.62
344.189	23.62
344.319	16.62
344.45	32.62
344.581	20.62
344.712	-11.38
344.842	34.62
344.973	4.62
345.104	34.62
345.234	15.62
345.365	8.62
345.496	6.62
345.626	37.62
345.757	34.62
345.888	6.62
346.018	26.62
346.149	40.62
346.28	36.62
346.41	5.62
346.541	41.62
346.672	8.62
346.802	24.62
346.933	20.62
347.063	30.62
347.194	12.62
347.325	23.62
347.455	32.62
347.586	33.62
347.716	15.62
347.847	24.62
347.977	39.62
348.108	17.62
348.238	38.62
348.369	32.62
348.499	26.62
348.63	47.62
348.76	41.62
348.891	41.62
349.021	33.62
349.152	44.62
349.282	54.62
349.413	17.62
349.543	39.62
349.674	19.62
349.804	27.62
349.935	15.62
350.065	-3.38
350.196	17.62
350.326	31.62
350.456	8.62
350.587	23.62
350.717	19.62
350.848	12.62
350.978	25.62
351.108	11.62
351.239	31.62
351.369	6.62
351.499	15.62
351.63	15.62
351.76	26.62
351.89	21.62
352.021	25.62
352.151	19.62
352.281	40.62
352.412	21.62
352.542	9.62
352.672	15.62
352.803	16.62
352.933	20.62
353.063	21.62
353.193	19.62
353.324	14.62
353.454	17.62
353.584	22.62
353.714	2.62
353.845	20.62
353.975	11.62
354.105	6.62
354.235	17.62
354.365	11.62
354.496	18.62
354.626	18.62
354.756	27.62
354.886	16.62
355.016	14.62
355.146	12.62
355.277	14.62
355.407	4.62
355.537	19.62
355.667	21.62
355.797	17.62
355.927	15.62
356.057	14.62
356.187	18.62
356.318	7.62
356.448	26.62
356.578	19.62
356.708	24.62
356.838	26.62
356.968	32.62
357.098	15.62
357.228	26.62
357.358	12.62
357.488	33.62
357.618	56.62
357.748	29.62
357.878	19.62
358.008	8.62
358.138	17.62
358.268	21.62
358.398	28.62
358.528	-5.38
358.658	16.62
358.788	21.62
358.918	19.62
359.048	15.62
359.178	29.62
359.308	32.62
359.438	39.62
359.568	50.62
359.698	30.62
359.827	14.62
359.957	18.62
360.087	19.62
360.217	6.62
360.347	15.62
360.477	30.62
360.607	24.62
360.737	21.62
360.866	2.62
360.996	-7.38
361.126	10.62
361.256	37.62
361.386	32.62
361.516	25.62
361.645	6.62
361.775	22.62
361.905	-3.38
362.035	19.62
362.165	41.62
362.294	42.62
362.424	36.62
362.554	34.62
362.684	13.62
362.813	27.62
362.943	42.62
363.073	55.62
363.203	50.62
363.332	65.62
363.462	76.62
363.592	92.62
363.721	93.62
363.851	133.62
363.981	184.62
364.111	230.62
364.24	310.62
364.37	463.62
364.5	790.62
364.629	1750.62
364.759	3723.62
364.888	6113.62
365.018	9162.62
365.148	14687.62
365.277	12604.62
365.407	4597.62
365.537	3019.62
365.666	3933.62
365.796	1758.62
365.925	751.62
366.055	718.62
366.184	995.62
366.314	1392.62
366.444	2391.62
366.573	2054.62
366.703	629.62
366.832	200.62
366.962	115.62
367.091	89.62
367.221	70.62
367.35	49.62
367.48	96.62
367.609	50.62
367.739	42.62
367.868	28.62
367.998	39.62
368.127	26.62
368.257	36.62
368.386	34.62
368.516	49.62
368.645	29.62
368.775	37.62
368.904	33.62
369.033	21.62
369.163	8.62
369.292	49.62
369.422	15.62
369.551	52.62
369.68	35.62
369.81	47.62
369.939	38.62
370.069	38.62
370.198	23.62
370.327	14.62
370.457	25.62
370.586	40.62
370.715	15.62
370.845	18.62
370.974	29.62
371.103	49.62
371.233	41.62
371.362	50.62
371.491	29.62
371.621	63.62
371.75	37.62
371.879	18.62
372.008	33.62
372.138	48.62
372.267	43.62
372.396	50.62
372.525	30.62
372.655	19.62
372.784	13.62
372.913	30.62
373.042	27.62
373.172	42.62
373.301	0.62
373.43	14.62
373.559	13.62
373.688	21.62
373.818	29.62
373.947	31.62
374.076	31.62
374.205	33.62
374.334	16.62
374.463	-3.38
374.593	20.62
374.722	33.62
374.851	28.62
374.98	13.62
375.109	17.62
375.238	32.62
375.367	41.62
375.496	-0.38
375.625	-7.38
375.755	30.62
375.884	38.62
376.013	36.62
376.142	-4.38
376.271	8.62
376.4	23.62
376.529	24.62
376.658	34.62
376.787	27.62
376.916	24.62
377.045	-2.38
377.174	14.62
377.303	17.62
377.432	39.62
377.561	26.62
377.69	15.62
377.819	26.62
377.948	2.62
378.077	-0.38
378.206	3.62
378.335	14.62
378.464	23.62
378.593	18.62
378.722	-3.38
378.851	-3.38
378.98	25.62
379.108	18.62
379.237	1.62
379.366	8.62
379.495	6.62
379.624	7.62
379.753	9.62
379.882	21.62
380.011	3.62
380.14	6.62
380.268	21.62
380.397	8.62
380.526	19.62
380.655	-8.38
380.784	-10.38
380.913	1.62
381.041	-4.38
381.17	-6.38
381.299	-9.38
381.428	10.62
381.557	19.62
381.685	8.62
381.814	20.62
381.943	4.62
382.072	-4.38
382.2	8.62
382.329	-5.38
382.458	-4.38
382.587	17.62
382.715	34.62
382.844	20.62
382.973	11.62
383.102	22.62
383.23	7.62
383.359	1.62
383.488	21.62
383.616	8.62
383.745	0.62
383.874	17.62
384.003	20.62
384.131	3.62
384.26	5.62
384.389	16.62
384.517	14.62
384.646	4.62
384.774	1.62
384.903	34.62
385.032	24.62
385.16	35.62
385.289	7.62
385.418	9.62
385.546	23.62
385.675	30.62
385.803	21.62
385.932	30.62
386.06	-11.38
386.189	6.62
386.318	-3.38
386.446	27.62
386.575	23.62
386.703	16.62
386.832	-3.38
386.96	-5.38
387.089	26.62
387.217	2.62
387.346	19.62
387.474	22.62
387.603	12.62
387.731	15.62
387.86	37.62
387.988	25.62
388.117	32.62
388.245	19.62
388.374	11.62
388.502	22.62
388.631	-19.38
388.759	10.62
388.888	-4.38
389.016	10.62
389.144	21.62
389.273	29.62
389.401	0.62
389.53	-3.38
389.658	39.62
389.786	4.62
389.915	5.62
390.043	10.62
390.172	20.62
390.3	45.62
390.428	24.62
390.557	7.62
390.685	28.62
390.813	46.62
390.942	47.62
391.07	17.62
391.198	2.62
391.327	6.62
391.455	1.62
391.583	43.62
391.712	19.62
391.84	2.62
391.968	15.62
392.096	15.62
392.225	2.62
392.353	39.62
392.481	20.62
392.609	36.62
392.738	31.62
392.866	19.62
392.994	6.62
393.122	24.62
393.251	8.62
393.379	-0.38
393.507	-1.38
393.635	16.62
393.764	38.62
393.892	22.62
394.02	22.62
394.148	15.62
394.276	21.62
394.404	35.62
394.533	19.62
394.661	31.62
394.789	36.62
394.917	27.62
395.045	4.62
395.173	12.62
395.302	27.62
395.43	18.62
395.558	24.62
395.686	37.62
395.814	31.62
395.942	15.62
396.07	29.62
396.198	31.62
396.326	36.62
396.454	23.62
396.582	34.62
396.711	24.62
396.839	45.62
396.967	21.62
397.095	32.62
397.223	17.62
397.351	49.62
397.479	51.62
397.607	34.62
397.735	44.62
397.863	46.62
397.991	49.62
398.119	29.62
398.247	38.62
398.375	36.62
398.503	40.62
398.631	43.62
398.759	53.62
398.887	47.62
399.015	39.62
399.143	52.62
399.271	66.62
399.399	64.62
399.526	77.62
399.654	95.62
399.782	55.62
399.91	93.62
400.038	84.62
400.166	65.62
400.294	73.62
400.422	86.62
400.55	111.62
400.678	97.62
400.805	93.62
400.933	96.62
401.061	111.62
401.189	105.62
401.317	132.62
401.445	88.62
401.573	59.62
401.7	35.62
401.828	59.62
401.956	56.62
402.084	57.62
402.212	32.62
402.34	35.62
402.467	19.62
402.595	40.62
402.723	47.62
402.851	62.62
402.978	56.62
403.106	81.62
403.234	80.62
403.362	97.62
403.489	125.62
403.617	147.62
403.745	180.62
403.873	270.62
404	551.62
404.128	1425.62
404.256	3821.62
404.384	4962.62
404.511	5236.62
404.639	6979.62
404.767	11125.62
404.894	14405.62
405.022	4763.62
405.15	1251.62
405.277	406.62
405.405	221.62
405.533	115.62
405.66	99.62
405.788	54.62
405.916	64.62
406.043	40.62
406.171	54.62
406.299	50.62
406.426	47.62
406.554	27.62
406.681	58.62
406.809	39.62
406.937	63.62
407.064	52.62
407.192	108.62
407.319	302.62
407.447	517.62
407.574	513.62
407.702	613.62
407.83	826.62
407.957	1525.62
408.085	903.62
408.212	277.62
408.34	93.62
408.467	49.62
408.595	36.62
408.722	36.62
408.85	52.62
408.977	36.62
409.105	32.62
409.232	25.62
409.36	19.62
409.487	13.62
409.615	20.62
409.742	12.62
409.87	19.62
409.997	27.62
410.125	29.62
410.252	24.62
410.379	6.62
410.507	43.62
410.634	27.62
410.762	25.62
410.889	39.62
411.017	35.62
411.144	27.62
411.271	19.62
411.399	21.62
411.526	28.62
411.653	34.62
411.781	55.62
411.908	40.62
412.036	6.62
412.163	23.62
412.29	25.62
412.418	6.62
412.545	35.62
412.672	12.62
412.8	31.62
412.927	38.62
413.054	25.62
413.182	29.62
413.309	31.62
413.436	23.62
413.564	35.62
413.691	19.62
413.818	41.62
413.945	14.62
414.073	30.62
414.2	11.62
414.327	33.62
414.454	29.62
414.582	38.62
414.709	21.62
414.836	18.62
414.963	12.62
415.091	42.62
415.218	19.62
415.345	28.62
415.472	34.62
415.6	28.62
415.727	30.62
415.854	20.62
415.981	19.62
416.108	26.62
416.236	29.62
416.363	40.62
416.49	10.62
416.617	20.62
416.744	26.62
416.871	32.62
416.998	15.62
417.126	16.62
417.253	18.62
417.38	8.62
417.507	31.62
417.634	30.62
417.761	42.62
417.888	39.62
418.015	25.62
418.143	14.62
418.27	46.62
418.397	15.62
418.524	27.62
418.651	17.62
418.778	32.62
418.905	40.62
419.032	44.62
419.159	37.62
419.286	45.62
419.413	49.62
419.54	52.62
419.667	27.62
419.794	33.62
419.921	26.62
420.048	34.62
420.175	56.62
420.302	44.62
420.429	65.62
420.556	46.62
420.683	30.62
420.81	40.62
420.937	58.62
421.064	45.62
421.191	42.62
421.318	47.62
421.445	85.62
421.572	57.62
421.699	54.62
421.826	33.62
421.953	46.62
422.08	28.62
422.207	0.62
422.334	4.62
422.461	4.62
422.588	16.62
422.714	21.62
422.841	34.62
422.968	28.62
423.095	11.62
423.222	8.62
423.349	29.62
423.476	24.62
423.603	15.62
423.729	13.62
423.856	-1.38
423.983	12.62
424.11	-0.38
424.237	16.62
424.364	28.62
424.491	30.62
424.617	20.62
424.744	1.62
424.871	33.62
424.998	4.62
425.125	0.62
425.251	21.62
425.378	38.62
425.505	18.62
425.632	11.62
425.758	15.62
425.885	42.62
426.012	18.62
426.139	38.62
426.266	32.62
426.392	32.62
426.519	5.62
426.646	7.62
426.772	39.62
426.899	20.62
427.026	23.62
427.153	10.62
427.279	30.62
427.406	31.62
427.533	9.62
427.659	6.62
427.786	20.62
427.913	31.62
428.039	16.62
428.166	16.62
428.293	33.62
428.419	22.62
428.546	11.62
428.673	8.62
428.799	15.62
428.926	22.62
429.053	33.62
429.179	35.62
429.306	36.62
429.433	38.62
429.559	20.62
429.686	14.62
429.812	15.62
429.939	12.62
430.066	42.62
430.192	19.62
430.319	36.62
430.445	26.62
430.572	37.62
430.699	16.62
430.825	41.62
430.952	33.62
431.078	14.62
431.205	24.62
431.331	18.62
431.458	32.62
431.584	35.62
431.711	13.62
431.837	37.62
431.964	15.62
432.09	9.62
432.217	10.62
432.343	21.62
432.47	44.62
432.596	23.62
432.723	11.62
432.849	-0.38
432.976	25.62
433.102	24.62
433.229	11.62
433.355	39.62
433.482	73.62
433.608	96.62
433.735	85.62
433.861	102.62
433.987	153.62
434.114	176.62
434.24	171.62
434.367	211.62
434.493	205.62
434.62	289.62
434.746	378.62
434.872	614.62
434.999	804.62
435.125	1686.62
435.252	5313.62
435.378	13205.62
435.504	15054.62
435.631	15291.62
435.757	15677.62
435.883	15677.62
436.01	15677.62
436.136	15677.62
436.262	15677.62
436.389	3367.62
436.515	1696.62
436.641	699.62
436.768	578.62
436.894	374.62
437.02	386.62
437.147	279.62
437.273	279.62
437.399	209.62
437.526	233.62
437.652	163.62
437.778	179.62
437.904	153.62
438.031	165.62
438.157	129.62
438.283	145.62
438.409	114.62
438.536	92.62
438.662	108.62
438.788	117.62
438.914	100.62
439.041	102.62
439.167	91.62
439.293	76.62
439.419	60.62
439.546	97.62
439.672	62.62
439.798	82.62
439.924	68.62
440.05	72.62
440.177	73.62
440.303	66.62
440.429	56.62
440.555	66.62
440.681	50.62
440.807	76.62
440.934	57.62
441.06	48.62
441.186	48.62
441.312	56.62
441.438	55.62
441.564	56.62
441.69	51.62
441.816	59.62
441.943	54.62
442.069	53.62
442.195	49.62
442.321	52.62
442.447	33.62
442.573	45.62
442.699	26.62
442.825	31.62
442.951	49.62
443.077	49.62
443.203	48.62
443.33	34.62
443.456	15.62
443.582	36.62
443.708	29.62
443.834	74.62
443.96	36.62
444.086	36.62
444.212	39.62
444.338	58.62
444.464	38.62
444.59	58.62
444.716	24.62
444.842	29.62
444.968	15.62
445.094	21.62
445.22	35.62
445.346	33.62
445.472	48.62
445.598	37.62
445.724	18.62
445.85	32.62
445.976	28.62
446.102	52.62
446.228	56.62
446.354	31.62
446.48	40.62
446.605	26.62
446.731	35.62
446.857	24.62
446.983	22.62
447.109	30.62
447.235	35.62
447.361	14.62
447.487	32.62
447.613	32.62
447.739	14.62
447.865	8.62
447.99	20.62
448.116	35.62
448.242	24.62
448.368	21.62
448.494	16.62
448.62	28.62
448.746	13.62
448.872	29.62
448.997	7.62
449.123	19.62
449.249	38.62
449.375	20.62
449.501	4.62
449.627	18.62
449.752	39.62
449.878	33.62
450.004	38.62
450.13	23.62
450.256	15.62
450.381	31.62
450.507	32.62
450.633	32.62
450.759	33.62
450.884	27.62
451.01	34.62
451.136	21.62
451.262	20.62
451.388	41.62
451.513	20.62
451.639	27.62
451.765	44.62
451.89	34.62
452.016	20.62
452.142	14.62
452.268	28.62
452.393	29.62
452.519	3.62
452.645	11.62
452.771	15.62
452.896	-3.38
453.022	6.62
453.148	31.62
453.273	13.62
453.399	29.62
453.525	16.62
453.65	-6.38
453.776	22.62
453.902	44.62
454.027	29.62
454.153	16.62
454.279	36.62
454.404	26.62
454.53	42.62
454.656	62.62
454.781	11.62
454.907	11.62
455.032	28.62
455.158	26.62
455.284	36.62
455.409	21.62
455.535	34.62
455.66	46.62
455.786	33.62
455.912	14.62
456.037	12.62
456.163	37.62
456.288	21.62
456.414	11.62
456.539	0.62
456.665	24.62
456.791	11.62
456.916	25.62
457.042	25.62
457.167	5.62
457.293	13.62
457.418	17.62
457.544	28.62
457.669	28.62
457.795	12.62
457.92	22.62
458.046	20.62
458.171	16.62
458.297	26.62
458.422	6.62
458.548	7.62
458.673	19.62
458.799	16.62
458.924	5.62
459.05	21.62
459.175	0.62
459.301	20.62
459.426	32.62
459.552	12.62
459.677	1.62
459.803	34.62
459.928	21.62
460.053	23.62
460.179	10.62
460.304	28.62
460.43	-10.38
460.555	3.62
460.681	4.62
460.806	23.62
460.931	25.62
461.057	38.62
461.182	32.62
461.308	38.62
461.433	23.62
461.558	-1.38
461.684	31.62
461.809	28.62
461.934	13.62
462.06	27.62
462.185	-3.38
462.311	0.62
462.436	22.62
462.561	17.62
462.687	30.62
462.812	14.62
462.937	14.62
463.063	-8.38
463.188	-4.38
463.313	15.62
463.439	19.62
463.564	36.62
463.689	26.62
463.814	37.62
463.94	24.62
464.065	29.62
464.19	24.62
464.316	6.62
464.441	31.62
464.566	18.62
464.692	22.62
464.817	3.62
464.942	21.62
465.067	15.62
465.193	12.62
465.318	21.62
465.443	8.62
465.568	12.62
465.694	14.62
465.819	36.62
465.944	16.62
466.069	42.62
466.194	31.62
466.32	34.62
466.445	22.62
466.57	23.62
466.695	20.62
466.82	43.62
466.946	42.62
467.071	30.62
467.196	33.62
467.321	32.62
467.446	19.62
467.572	31.62
467.697	16.62
467.822	28.62
467.947	34.62
468.072	18.62
468.197	16.62
468.323	21.62
468.448	26.62
468.573	13.62
468.698	33.62
468.823	38.62
468.948	22.62
469.073	44.62
469.198	50.62
469.324	48.62
469.449	28.62
469.574	40.62
469.699	50.62
469.824	45.62
469.949	32.62
470.074	15.62
470.199	49.62
470.324	34.62
470.449	11.62
470.574	19.62
470.7	11.62
470.825	29.62
470.95	42.62
471.075	31.62
471.2	47.62
471.325	51.62
471.45	41.62
471.575	22.62
471.7	22.62
471.825	23.62
471.95	16.62
472.075	20.62
472.2	19.62
472.325	36.62
472.45	14.62
472.575	21.62
472.7	30.62
472.825	41.62
472.95	56.62
473.075	30.62
473.2	23.62
473.325	46.62
473.45	37.62
473.575	51.62
473.7	30.62
473.825	22.62
473.95	38.62
474.075	44.62
474.2	11.62
474.325	11.62
474.45	30.62
474.574	32.62
474.699	23.62
474.824	30.62
474.949	-5.38
475.074	21.62
475.199	23.62
475.324	39.62
475.449	15.62
475.574	24.62
475.699	28.62
475.824	23.62
475.949	13.62
476.073	8.62
476.198	10.62
476.323	12.62
476.448	14.62
476.573	10.62
476.698	26.62
476.823	15.62
476.947	28.62
477.072	26.62
477.197	16.62
477.322	-5.38
477.447	7.62
477.572	15.62
477.697	12.62
477.821	17.62
477.946	21.62
478.071	21.62
478.196	22.62
478.321	22.62
478.445	7.62
478.57	8.62
478.695	11.62
478.82	34.62
478.945	33.62
479.069	11.62
479.194	21.62
479.319	22.62
479.444	20.62
479.569	15.62
479.693	27.62
479.818	14.62
479.943	25.62
480.068	4.62
480.192	11.62
480.317	33.62
480.442	23.62
480.567	18.62
480.691	4.62
480.816	1.62
480.941	5.62
481.066	14.62
481.19	37.62
481.315	15.62
481.44	18.62
481.564	-10.38
481.689	10.62
481.814	21.62
481.938	17.62
482.063	-1.38
482.188	8.62
482.313	18.62
482.437	-2.38
482.562	22.62
482.687	17.62
482.811	19.62
482.936	14.62
483.061	21.62
483.185	11.62
483.31	14.62
483.435	16.62
483.559	6.62
483.684	18.62
483.808	38.62
483.933	19.62
484.058	7.62
484.182	10.62
484.307	21.62
484.432	22.62
484.556	29.62
484.681	19.62
484.805	15.62
484.93	15.62
485.055	6.62
485.179	47.62
485.304	30.62
485.428	26.62
485.553	8.62
485.678	12.62
485.802	6.62
485.927	43.62
486.051	30.62
486.176	15.62
486.3	-4.38
486.425	2.62
486.549	14.62
486.674	23.62
486.799	23.62
486.923	14.62
487.048	13.62
487.172	4.62
487.297	26.62
487.421	27.62
487.546	14.62
487.67	7.62
487.795	-4.38
487.919	21.62
488.044	18.62
488.168	23.62
488.293	30.62
488.417	6.62
488.542	11.62
488.666	26.62
488.791	32.62
488.915	18.62
489.04	12.62
489.164	20.62
489.289	9.62
489.413	22.62
489.538	19.62
489.662	8.62
489.786	-1.38
489.911	10.62
490.035	12.62
490.16	26.62
490.284	17.62
490.409	-11.38
490.533	11.62
490.658	30.62
490.782	18.62
490.906	46.62
491.031	104.62
491.155	138.62
491.28	149.62
491.404	158.62
491.528	241.62
491.653	145.62
491.777	62.62
491.902	17.62
492.026	27.62
492.15	33.62
492.275	26.62
492.399	19.62
492.524	16.62
492.648	22.62
492.772	37.62
492.897	49.62
493.021	22.62
493.145	25.62
493.27	11.62
493.394	21.62
493.518	22.62
493.643	3.62
493.767	30.62
493.891	9.62
494.016	8.62
494.14	1.62
494.264	18.62
494.389	27.62
494.513	4.62
494.637	18.62
494.762	38.62
494.886	32.62
495.01	15.62
495.134	17.62
495.259	36.62
495.383	4.62
495.507	5.62
495.632	34.62
495.756	40.62
495.88	27.62
496.004	25.62
496.129	1.62
496.253	18.62
496.377	10.62
496.501	29.62
496.626	6.62
496.75	12.62
496.874	32.62
496.998	23.62
497.123	14.62
497.247	9.62
497.371	11.62
497.495	12.62
497.62	10.62
497.744	9.62
497.868	4.62
497.992	14.62
498.116	13.62
498.241	30.62
498.365	6.62
498.489	29.62
498.613	38.62
498.737	10.62
498.862	9.62
498.986	9.62
499.11	10.62
499.234	8.62
499.358	15.62
499.482	12.62
499.607	16.62
499.731	25.62
499.855	31.62
499.979	12.62
500.103	27.62
500.227	34.62
500.351	29.62
500.476	29.62
500.6	18.62
500.724	6.62
500.848	8.62
500.972	34.62
501.096	16.62
501.22	26.62
501.344	22.62
501.469	17.62
501.593	22.62
501.717	23.62
501.841	32.62
501.965	28.62
502.089	0.62
502.213	16.62
502.337	13.62
502.461	12.62
502.585	13.62
502.709	20.62
502.834	7.62
502.958	3.62
503.082	15.62
503.206	32.62
503.33	41.62
503.454	26.62
503.578	19.62
503.702	7.62
503.826	15.62
503.95	10.62
504.074	27.62
504.198	11.62
504.322	20.62
504.446	8.62
504.57	6.62
504.694	29.62
504.818	25.62
504.942	17.62
505.066	25.62
505.19	25.62
505.314	29.62
505.438	24.62
505.562	7.62
505.686	15.62
505.81	8.62
505.934	14.62
506.058	-0.38
506.182	23.62
506.306	20.62
506.43	5.62
506.554	19.62
506.678	14.62
506.802	11.62
506.926	12.62
507.05	24.62
507.174	34.62
507.298	27.62
507.422	23.62
507.546	37.62
507.67	38.62
507.794	15.62
507.918	16.62
508.042	16.62
508.165	12.62
508.289	11.62
508.413	17.62
508.537	-7.38
508.661	20.62
508.785	15.62
508.909	26.62
509.033	33.62
509.157	33.62
509.281	15.62
509.405	11.62
509.528	37.62
509.652	21.62
509.776	29.62
509.9	44.62
510.024	18.62
510.148	29.62
510.272	27.62
510.396	30.62
510.519	15.62
510.643	51.62
510.767	31.62
510.891	47.62
511.015	27.62
511.139	33.62
511.263	44.62
511.386	26.62
511.51	32.62
511.634	20.62
511.758	32.62
511.882	24.62
512.006	33.62
512.129	35.62
512.253	74.62
512.377	72.62
512.501	88.62
512.625	81.62
512.748	80.62
512.872	49.62
512.996	43.62
513.12	47.62
513.244	28.62
513.367	56.62
513.491	63.62
513.615	65.62
513.739	56.62
513.862	82.62
513.986	75.62
514.11	94.62
514.234	82.62
514.358	98.62
514.481	102.62
514.605	116.62
514.729	111.62
514.853	109.62
514.976	90.62
515.1	79.62
515.224	95.62
515.348	79.62
515.471	63.62
515.595	92.62
515.719	135.62
515.842	229.62
515.966	249.62
516.09	294.62
516.214	285.62
516.337	314.62
516.461	201.62
516.585	80.62
516.708	43.62
516.832	32.62
516.956	10.62
517.08	6.62
517.203	8.62
517.327	6.62
517.451	26.62
517.574	30.62
517.698	11.62
517.822	2.62
517.945	15.62
518.069	9.62
518.193	38.62
518.316	12.62
518.44	13.62
518.564	2.62
518.687	8.62
518.811	7.62
518.935	30.62
519.058	-8.38
519.182	1.62
519.306	19.62
519.429	-16.38
519.553	16.62
519.676	31.62
519.8	-1.38
519.924	-11.38
520.047	30.62
520.171	26.62
520.294	24.62
520.418	22.62
520.542	19.62
520.665	28.62
520.789	5.62
520.913	10.62
521.036	-8.38
521.16	2.62
521.283	9.62
521.407	18.62
521.53	10.62
521.654	0.62
521.778	12.62
521.901	19.62
522.025	-4.38
522.148	0.62
522.272	20.62
522.395	23.62
522.519	8.62
522.643	8.62
522.766	10.62
522.89	8.62
523.013	39.62
523.137	-1.38
523.26	2.62
523.384	23.62
523.507	12.62
523.631	26.62
523.754	11.62
523.878	-2.38
524.002	22.62
524.125	23.62
524.249	-2.38
524.372	5.62
524.496	18.62
524.619	16.62
524.743	11.62
524.866	-9.38
524.99	14.62
525.113	3.62
525.237	23.62
525.36	2.62
525.484	14.62
525.607	2.62
525.731	-15.38
525.854	7.62
525.978	34.62
526.101	7.62
526.224	8.62
526.348	24.62
526.471	28.62
526.595	18.62
526.718	18.62
526.842	3.62
526.965	20.62
527.089	19.62
527.212	12.62
527.336	5.62
527.459	11.62
527.582	23.62
527.706	23.62
527.829	23.62
527.953	10.62
528.076	-3.38
528.2	16.62
528.323	27.62
528.446	19.62
528.57	8.62
528.693	26.62
528.817	8.62
528.94	20.62
529.064	40.62
529.187	0.62
529.31	14.62
529.434	-11.38
529.557	3.62
529.68	10.62
529.804	10.62
529.927	23.62
530.051	13.62
530.174	15.62
530.297	24.62
530.421	7.62
530.544	33.62
530.668	32.62
530.791	13.62
530.914	13.62
531.038	19.62
531.161	-10.38
531.284	3.62
531.408	29.62
531.531	12.62
531.654	13.62
531.778	17.62
531.901	6.62
532.024	15.62
532.148	-0.38
532.271	18.62
532.394	15.62
532.518	22.62
532.641	36.62
532.764	28.62
532.888	23.62
533.011	16.62
533.134	4.62
533.258	24.62
533.381	1.62
533.504	7.62
533.628	4.62
533.751	19.62
533.874	4.62
533.997	3.62
534.121	8.62
534.244	18.62
534.367	9.62
534.491	5.62
534.614	1.62
534.737	16.62
534.86	10.62
534.984	12.62
535.107	10.62
535.23	16.62
535.354	7.62
535.477	-5.38
535.6	5.62
535.723	13.62
535.847	20.62
535.97	7.62
536.093	7.62
536.216	8.62
536.34	7.62
536.463	14.62
536.586	8.62
536.709	20.62
536.833	29.62
536.956	8.62
537.079	12.62
537.202	15.62
537.325	3.62
537.449	1.62
537.572	19.62
537.695	20.62
537.818	23.62
537.941	2.62
538.065	32.62
538.188	11.62
538.311	21.62
538.434	24.62
538.558	25.62
538.681	40.62
538.804	36.62
538.927	14.62
539.05	31.62
539.173	12.62
539.297	11.62
539.42	15.62
539.543	25.62
539.666	41.62
539.789	10.62
539.913	26.62
540.036	17.62
540.159	21.62
540.282	6.62
540.405	16.62
540.528	3.62
540.651	20.62
540.775	10.62
540.898	24.62
541.021	7.62
541.144	27.62
541.267	21.62
541.39	28.62
541.513	28.62
541.637	8.62
541.76	27.62
541.883	18.62
542.006	32.62
542.129	36.62
542.252	41.62
542.375	32.62
542.498	35.62
542.622	33.62
542.745	47.62
542.868	46.62
542.991	48.62
543.114	59.62
543.237	83.62
543.36	57.62
543.483	36.62
543.606	53.62
543.73	73.62
543.853	76.62
543.976	74.62
544.099	99.62
544.222	121.62
544.345	113.62
544.468	148.62
544.591	203.62
544.714	264.62
544.837	346.62
544.96	430.62
545.083	617.62
545.206	1063.62
545.329	2369.62
545.453	10690.62
545.576	15216.62
545.699	15677.62
545.822	15677.62
545.945	15677.62
546.068	15677.62
546.191	15677.62
546.314	15677.62
546.437	15677.62
546.56	15677.62
546.683	15677.62
546.806	15677.62
546.929	15677.62
547.052	15677.62
547.175	15677.62
547.298	15677.62
547.421	15677.62
547.544	15677.62
547.667	3339.62
547.79	1502.62
547.913	851.62
548.036	774.62
548.159	596.62
548.282	572.62
548.405	464.62
548.528	434.62
548.651	379.62
548.774	387.62
548.897	319.62
549.02	336.62
549.143	288.62
549.266	279.62
549.389	239.62
549.512	235.62
549.635	244.62
549.758	235.62
549.881	192.62
550.004	194.62
550.127	195.62
550.25	208.62
550.373	158.62
550.496	182.62
550.619	163.62
550.742	149.62
550.865	135.62
550.988	159.62
551.111	148.62
551.234	134.62
551.356	125.62
551.479	119.62
551.602	123.62
551.725	150.62
551.848	130.62
551.971	145.62
552.094	121.62
552.217	114.62
552.34	103.62
552.463	96.62
552.586	102.62
552.709	99.62
552.832	104.62
552.955	120.62
553.077	99.62
553.2	99.62
553.323	72.62
553.446	99.62
553.569	76.62
553.692	103.62
553.815	97.62
553.938	97.62
554.061	111.62
554.184	76.62
554.306	76.62
554.429	77.62
554.552	78.62
554.675	75.62
554.798	71.62
554.921	87.62
555.044	57.62
555.167	68.62
555.29	60.62
555.412	66.62
555.535	57.62
555.658	68.62
555.781	78.62
555.904	76.62
556.027	67.62
556.15	79.62
556.272	56.62
556.395	67.62
556.518	56.62
556.641	47.62
556.764	65.62
556.887	75.62
557.01	62.62
557.132	46.62
557.255	57.62
557.378	74.62
557.501	54.62
557.624	76.62
557.747	74.62
557.869	72.62
557.992	78.62
558.115	87.62
558.238	76.62
558.361	73.62
558.483	88.62
558.606	67.62
558.729	43.62
558.852	59.62
558.975	65.62
559.098	33.62
559.22	50.62
559.343	35.62
559.466	48.62
559.589	24.62
559.712	34.62
559.834	46.62
559.957	42.62
560.08	35.62
560.203	67.62
560.325	43.62
560.448	62.62
560.571	51.62
560.694	50.62
560.817	59.62
560.939	58.62
561.062	49.62
561.185	40.62
561.308	36.62
561.43	69.62
561.553	65.62
561.676	50.62
561.799	65.62
561.921	38.62
562.044	59.62
562.167	40.62
562.29	94.62
562.413	80.62
562.535	66.62
562.658	36.62
562.781	48.62
562.903	78.62
563.026	104.62
563.149	141.62
563.272	127.62
563.394	102.62
563.517	96.62
563.64	62.62
563.763	46.62
563.885	46.62
564.008	48.62
564.131	47.62
564.254	44.62
564.376	32.62
564.499	18.62
564.622	43.62
564.744	39.62
564.867	28.62
564.99	30.62
565.113	30.62
565.235	48.62
565.358	31.62
565.481	18.62
565.603	27.62
565.726	28.62
565.849	47.62
565.971	45.62
566.094	16.62
566.217	34.62
566.34	36.62
566.462	19.62
566.585	27.62
566.708	59.62
566.83	38.62
566.953	66.62
567.076	35.62
567.198	23.62
567.321	12.62
567.444	22.62
567.566	24.62
567.689	14.62
567.812	11.62
567.934	20.62
568.057	22.62
568.18	33.62
568.302	39.62
568.425	23.62
568.548	35.62
568.67	43.62
568.793	26.62
568.916	22.62
569.038	11.62
569.161	31.62
569.283	32.62
569.406	38.62
569.529	35.62
569.651	23.62
569.774	14.62
569.897	18.62
570.019	35.62
570.142	38.62
570.265	25.62
570.387	11.62
570.51	26.62
570.632	36.62
570.755	25.62
570.878	27.62
571	38.62
571.123	23.62
571.246	25.62
571.368	14.62
571.491	26.62
571.613	36.62
571.736	11.62
571.859	34.62
571.981	4.62
572.104	25.62
572.226	18.62
572.349	21.62
572.472	31.62
572.594	30.62
572.717	7.62
572.839	5.62
572.962	28.62
573.085	35.62
573.207	21.62
573.33	23.62
573.452	54.62
573.575	37.62
573.697	39.62
573.82	22.62
573.943	17.62
574.065	32.62
574.188	36.62
574.31	45.62
574.433	7.62
574.555	24.62
574.678	8.62
574.801	38.62
574.923	14.62
575.046	38.62
575.168	26.62
575.291	32.62
575.413	34.62
575.536	36.62
575.659	48.62
575.781	44.62
575.904	53.62
576.026	66.62
576.149	79.62
576.271	136.62
576.394	195.62
576.516	518.62
576.639	3580.62
576.761	9976.62
576.884	8690.62
577.007	8495.62
577.129	7805.62
577.252	3638.62
577.374	1256.62
577.497	522.62
577.619	261.62
577.742	171.62
577.864	161.62
577.987	126.62
578.109	122.62
578.232	127.62
578.354	134.62
578.477	189.62
578.599	374.62
578.722	1897.62
578.844	8901.62
578.967	9466.62
579.089	8547.62
579.212	8878.62
579.334	5085.62
579.457	1848.62
579.579	699.62
579.702	318.62
579.824	189.62
579.947	121.62
580.069	103.62
580.192	72.62
580.314	80.62
580.437	78.62
580.559	71.62
580.682	59.62
580.804	68.62
580.927	65.62
581.049	65.62
581.172	53.62
581.294	55.62
581.417	44.62
581.539	34.62
581.662	51.62
581.784	49.62
581.907	46.62
582.029	38.62
582.152	24.62
582.274	42.62
582.396	31.62
582.519	53.62
582.641	15.62
582.764	20.62
582.886	52.62
583.009	38.62
583.131	37.62
583.254	43.62
583.376	31.62
583.499	18.62
583.621	35.62
583.743	30.62
583.866	35.62
583.988	13.62
584.111	30.62
584.233	41.62
584.356	20.62
584.478	44.62
584.601	25.62
584.723	44.62
584.845	28.62
584.968	19.62
585.09	8.62
585.213	48.62
585.335	17.62
585.458	21.62
585.58	9.62
585.702	38.62
585.825	38.62
585.947	19.62
586.07	30.62
586.192	15.62
586.315	22.62
586.437	8.62
586.559	18.62
586.682	7.62
586.804	26.62
586.927	25.62
587.049	12.62
587.171	24.62
587.294	19.62
587.416	32.62
587.539	20.62
587.661	16.62
587.783	23.62
587.906	21.62
588.028	29.62
588.151	32.62
588.273	31.62
588.395	10.62
588.518	14.62
588.64	20.62
588.763	27.62
588.885	30.62
589.007	24.62
589.13	6.62
589.252	10.62
589.375	26.62
589.497	12.62
589.619	19.62
589.742	39.62
589.864	43.62
589.986	23.62
590.109	5.62
590.231	9.62
590.354	23.62
590.476	10.62
590.598	23.62
590.721	9.62
590.843	28.62
590.965	20.62
591.088	16.62
591.21	28.62
591.332	19.62
591.455	7.62
591.577	16.62
591.7	23.62
591.822	22.62
591.944	25.62
592.067	21.62
592.189	15.62
592.311	25.62
592.434	28.62
592.556	30.62
592.678	14.62
592.801	21.62
592.923	15.62
593.045	20.62
593.168	12.62
593.29	6.62
593.412	14.62
593.535	21.62
593.657	6.62
593.779	-0.38
593.902	25.62
594.024	23.62
594.146	30.62
594.269	16.62
594.391	14.62
594.513	19.62
594.636	14.62
594.758	22.62
594.88	28.62
595.003	32.62
595.125	10.62
595.247	35.62
595.37	20.62
595.492	25.62
595.614	45.62
595.737	16.62
595.859	27.62
595.981	10.62
596.104	16.62
596.226	30.62
596.348	14.62
596.471	12.62
596.593	17.62
596.715	6.62
596.838	10.62
596.96	5.62
597.082	19.62
597.204	18.62
597.327	27.62
597.449	18.62
597.571	11.62
597.694	11.62
597.816	12.62
597.938	20.62
598.061	1.62
598.183	25.62
598.305	21.62
598.427	24.62
598.55	10.62
598.672	38.62
598.794	49.62
598.917	31.62
599.039	29.62
599.161	30.62
599.283	26.62
599.406	34.62
599.528	18.62
599.65	54.62
599.773	21.62
599.895	35.62
600.017	29.62
600.139	16.62
600.262	11.62
600.384	28.62
600.506	12.62
600.628	28.62
600.751	31.62
600.873	11.62
600.995	30.62
601.118	37.62
601.24	11.62
601.362	38.62
601.484	30.62
601.607	28.62
601.729	18.62
601.851	13.62
601.973	25.62
602.096	24.62
602.218	32.62
602.34	22.62
602.462	14.62
602.585	30.62
602.707	23.62
602.829	30.62
602.951	12.62
603.074	8.62
603.196	10.62
603.318	9.62
603.44	40.62
603.563	18.62
603.685	-8.38
603.807	19.62
603.929	4.62
604.052	32.62
604.174	38.62
604.296	19.62
604.418	27.62
604.541	34.62
604.663	11.62
604.785	17.62
604.907	36.62
605.03	17.62
605.152	29.62
605.274	9.62
605.396	18.62
605.519	10.62
605.641	2.62
605.763	7.62
605.885	24.62
606.008	11.62
606.13	28.62
606.252	43.62
606.374	-5.38
606.496	-1.38
606.619	0.62
606.741	12.62
606.863	36.62
606.985	23.62
607.108	20.62
607.23	14.62
607.352	18.62
607.474	7.62
607.596	19.62
607.719	13.62
607.841	12.62
607.963	16.62
608.085	3.62
608.207	26.62
608.33	-4.38
608.452	-10.38
608.574	29.62
608.696	26.62
608.819	18.62
608.941	17.62
609.063	28.62
609.185	9.62
609.307	9.62
609.43	26.62
609.552	16.62
609.674	-0.38
609.796	18.62
609.918	28.62
610.041	9.62
610.163	33.62
610.285	18.62
610.407	19.62
610.529	-0.38
610.652	20.62
610.774	18.62
610.896	11.62
611.018	16.62
611.14	15.62
611.263	12.62
611.385	13.62
611.507	45.62
611.629	24.62
611.751	28.62
611.873	27.62
611.996	27.62
612.118	34.62
612.24	2.62
612.362	34.62
612.484	35.62
612.607	31.62
612.729	37.62
612.851	22.62
612.973	23.62
613.095	8.62
613.218	16.62
613.34	34.62
613.462	14.62
613.584	6.62
613.706	-2.38
613.828	19.62
613.951	1.62
614.073	8.62
614.195	-8.38
614.317	19.62
614.439	28.62
614.561	10.62
614.684	21.62
614.806	27.62
614.928	24.62
615.05	16.62
615.172	40.62
615.294	42.62
615.417	21.62
615.539	11.62
615.661	22.62
615.783	28.62
615.905	10.62
616.027	13.62
616.15	23.62
616.272	19.62
616.394	-1.38
616.516	25.62
616.638	16.62
616.76	16.62
616.883	10.62
617.005	19.62
617.127	20.62
617.249	12.62
617.371	17.62
617.493	10.62
617.615	18.62
617.738	21.62
617.86	25.62
617.982	18.62
618.104	16.62
618.226	2.62
618.348	14.62
618.471	26.62
618.593	18.62
618.715	-5.38
618.837	10.62
618.959	16.62
619.081	26.62
619.203	12.62
619.326	9.62
619.448	8.62
619.57	23.62
619.692	26.62
619.814	45.62
619.936	23.62
620.058	15.62
620.181	16.62
620.303	11.62
620.425	29.62
620.547	-3.38
620.669	13.62
620.791	8.62
620.913	12.62
621.036	-0.38
621.158	16.62
621.28	18.62
621.402	2.62
621.524	14.62
621.646	28.62
621.768	18.62
621.891	0.62
622.013	20.62
622.135	3.62
622.257	-13.38
622.379	0.62
622.501	7.62
622.623	18.62
622.745	12.62
622.868	25.62
622.99	6.62
623.112	0.62
623.234	10.62
623.356	14.62
623.478	4.62
623.6	11.62
623.722	12.62
623.845	20.62
623.967	1.62
624.089	18.62
624.211	27.62
624.333	22.62
624.455	18.62
624.577	21.62
624.699	19.62
624.822	30.62
624.944	15.62
625.066	12.62
625.188	17.62
625.31	16.62
625.432	43.62
625.554	10.62
625.676	34.62
625.799	10.62
625.921	18.62
626.043	29.62
626.165	6.62
626.287	8.62
626.409	11.62
626.531	16.62
626.653	12.62
626.775	16.62
626.898	28.62
627.02	15.62
627.142	33.62
627.264	30.62
627.386	7.62
627.508	4.62
627.63	14.62
627.752	26.62
627.874	22.62
627.997	15.62
628.119	24.62
628.241	7.62
628.363	32.62
628.485	4.62
628.607	-7.38
628.729	1.62
628.851	-4.38
628.973	7.62
629.096	-7.38
629.218	8.62
629.34	-1.38
629.462	11.62
629.584	13.62
629.706	16.62
629.828	12.62
629.95	1.62
630.072	10.62
630.195	32.62
630.317	10.62
630.439	4.62
630.561	23.62
630.683	-11.38
630.805	4.62
630.927	22.62
631.049	8.62
631.171	-5.38
631.293	9.62
631.416	17.62
631.538	8.62
631.66	4.62
631.782	26.62
631.904	30.62
632.026	-1.38
632.148	7.62
632.27	11.62
632.392	11.62
632.514	19.62
632.637	6.62
632.759	6.62
632.881	8.62
633.003	-3.38
633.125	-1.38
633.247	17.62
633.369	6.62
633.491	1.62
633.613	11.62
633.735	13.62
633.858	9.62
633.98	11.62
634.102	-9.38
634.224	-1.38
634.346	17.62
634.468	7.62
634.59	14.62
634.712	11.62
634.834	20.62
634.956	3.62
635.078	-1.38
635.201	3.62
635.323	20.62
635.445	11.62
635.567	6.62
635.689	17.62
635.811	2.62
635.933	15.62
636.055	6.62
636.177	5.62
636.299	29.62
636.421	9.62
636.544	1.62
636.666	-1.38
636.788	-6.38
636.91	18.62
637.032	6.62
637.154	0.62
637.276	22.62
637.398	24.62
637.52	18.62
637.642	11.62
637.764	20.62
637.887	4.62
638.009	17.62
638.131	18.62
638.253	11.62
638.375	7.62
638.497	-10.38
638.619	-10.38
638.741	8.62
638.863	-20.38
638.985	3.62
639.107	2.62
639.23	-0.38
639.352	17.62
639.474	23.62
639.596	8.62
639.718	5.62
639.84	12.62
639.962	7.62
640.084	26.62
640.206	23.62
640.328	14.62
640.45	15.62
640.573	-4.38
640.695	-5.38
640.817	-0.38
640.939	14.62
641.061	0.62
641.183	-6.38
641.305	7.62
641.427	14.62
641.549	5.62
641.671	16.62
641.793	17.62
641.915	18.62
642.038	14.62
642.16	-5.38
642.282	16.62
642.404	11.62
642.526	28.62
642.648	9.62
642.77	14.62
642.892	-13.38
643.014	14.62
643.136	6.62
643.258	5.62
643.381	20.62
643.503	14.62
643.625	-3.38
643.747	8.62
643.869	18.62
643.991	14.62
644.113	18.62
644.235	8.62
644.357	14.62
644.479	9.62
644.601	-8.38
644.723	15.62
644.846	6.62
644.968	9.62
645.09	23.62
645.212	4.62
645.334	14.62
645.456	12.62
645.578	17.62
645.7	-0.38
645.822	19.62
645.944	13.62
646.066	-4.38
646.188	14.62
646.311	25.62
646.433	5.62
646.555	42.62
646.677	9.62
646.799	16.62
646.921	5.62
647.043	-0.38
647.165	2.62
647.287	2.62
647.409	0.62
647.531	7.62
647.654	-13.38
647.776	6.62
647.898	30.62
648.02	11.62
648.142	-7.38
648.264	4.62
648.386	4.62
648.508	7.62
648.63	4.62
648.752	5.62
648.874	10.62
648.997	17.62
649.119	24.62
649.241	15.62
649.363	26.62
649.485	10.62
649.607	1.62
649.729	9.62
649.851	26.62
649.973	12.62
650.095	18.62
650.217	-6.38
650.34	-9.38
650.462	14.62
650.584	14.62
650.706	-6.38
650.828	-3.38
650.95	-7.38
651.072	16.62
651.194	-5.38
651.316	-2.38
651.438	15.62
651.56	11.62
651.683	-1.38
651.805	3.62
651.927	11.62
652.049	20.62
652.171	5.62
652.293	6.62
652.415	-1.38
652.537	-0.38
652.659	-3.38
652.781	7.62
652.903	9.62
653.026	23.62
653.148	8.62
653.27	28.62
653.392	-1.38
653.514	7.62
653.636	0.62
653.758	-0.38
653.88	6.62
654.002	-1.38
654.124	6.62
654.247	5.62
654.369	12.62
654.491	14.62
654.613	6.62
654.735	-4.38
654.857	19.62
654.979	14.62
655.101	-10.38
655.223	34.62
655.345	14.62
655.468	15.62
655.59	3.62
655.712	16.62
655.834	25.62
655.956	34.62
656.078	0.62
656.2	8.62
656.322	11.62
656.444	-17.38
656.566	13.62
656.689	6.62
656.811	12.62
656.933	20.62
657.055	-1.38
657.177	0.62
657.299	-1.38
657.421	3.62
657.543	-3.38
657.665	19.62
657.787	0.62
657.91	-5.38
658.032	-12.38
658.154	8.62
658.276	0.62
658.398	-10.38
658.52	-3.38
658.642	10.62
658.764	-5.38
658.886	-8.38
659.009	8.62
659.131	26.62
659.253	-2.38
659.375	18.62
659.497	1.62
659.619	15.62
659.741	1.62
659.863	4.62
659.985	-11.38
660.108	14.62
660.23	7.62
660.352	-12.38
660.474	2.62
660.596	10.62
660.718	6.62
660.84	13.62
660.962	4.62
661.084	-15.38
661.207	0.62
661.329	19.62
661.451	17.62
661.573	16.62
661.695	24.62
661.817	23.62
661.939	4.62
662.061	23.62
662.184	-5.38
662.306	5.62
662.428	-13.38
662.55	10.62
662.672	12.62
662.794	3.62
662.916	3.62
663.038	2.62
663.161	23.62
663.283	18.62
663.405	27.62
663.527	-2.38
663.649	8.62
663.771	-1.38
663.893	3.62
664.015	8.62
664.138	7.62
664.26	13.62
664.382	1.62
664.504	8.62
664.626	10.62
664.748	-4.38
664.87	-9.38
664.992	8.62
665.115	7.62
665.237	10.62
665.359	-7.38
665.481	2.62
665.603	26.62
665.725	-1.38
665.847	-6.38
665.97	-3.38
666.092	9.62
666.214	-7.38
666.336	7.62
666.458	12.62
666.58	2.62
666.702	4.62
666.825	12.62
666.947	-1.38
667.069	-3.38
667.191	7.62
667.313	1.62
667.435	12.62
667.557	-5.38
667.68	-11.38
667.802	-0.38
667.924	9.62
668.046	15.62
668.168	12.62
668.29	4.62
668.412	13.62
668.535	9.62
668.657	-12.38
668.779	-8.38
668.901	14.62
669.023	21.62
669.145	-6.38
669.267	22.62
669.39	8.62
669.512	-5.38
669.634	4.62
669.756	-1.38
669.878	15.62
670	5.62
670.123	7.62
670.245	26.62
670.367	19.62
670.489	24.62
670.611	6.62
670.733	2.62
670.856	0.62
670.978	16.62
671.1	4.62
671.222	7.62
671.344	11.62
671.466	9.62
671.589	11.62
671.711	-8.38
671.833	2.62
671.955	4.62
672.077	-15.38
672.199	25.62
672.322	5.62
672.444	4.62
672.566	6.62
672.688	19.62
672.81	19.62
672.932	20.62
673.055	7.62
673.177	-17.38
673.299	-9.38
673.421	0.62
673.543	-5.38
673.665	14.62
673.788	20.62
673.91	0.62
674.032	-0.38
674.154	0.62
674.276	12.62
674.399	-2.38
674.521	2.62
674.643	7.62
674.765	-10.38
674.887	3.62
675.009	6.62
675.132	6.62
675.254	-12.38
675.376	2.62
675.498	5.62
675.62	9.62
675.743	-3.38
675.865	11.62
675.987	-3.38
676.109	6.62
676.231	6.62
676.354	15.62
676.476	-17.38
676.598	18.62
676.72	-14.38
676.842	16.62
676.965	2.62
677.087	2.62
677.209	-3.38
677.331	21.62
677.453	5.62
677.576	-5.38
677.698	5.62
677.82	2.62
677.942	-3.38
678.064	1.62
678.187	18.62
678.309	23.62
678.431	3.62
678.553	-16.38
678.675	14.62
678.798	9.62
678.92	14.62
679.042	17.62
679.164	-4.38
679.286	20.62
679.409	7.62
679.531	1.62
679.653	-7.38
679.775	10.62
679.898	-1.38
680.02	6.62
680.142	0.62
680.264	3.62
680.386	-11.38
680.509	19.62
680.631	13.62
680.753	-4.38
680.875	-13.38
680.998	12.62
681.12	-1.38
681.242	16.62
681.364	-7.38
681.486	2.62
681.609	-6.38
681.731	-19.38
681.853	3.62
681.975	-3.38
682.098	8.62
682.22	20.62
682.342	-0.38
682.464	14.62
682.587	9.62
682.709	-16.38
682.831	-22.38
682.953	-5.38
683.076	1.62
683.198	26.62
683.32	0.62
683.442	10.62
683.565	4.62
683.687	-3.38
683.809	-1.38
683.931	-4.38
684.054	6.62
684.176	3.62
684.298	15.62
684.42	4.62
684.543	0.62
684.665	6.62
684.787	-5.38
684.909	6.62
685.032	14.62
685.154	4.62
685.276	-2.38
685.398	-6.38
685.521	-13.38
685.643	15.62
685.765	5.62
685.887	23.62
686.01	11.62
686.132	5.62
686.254	9.62
686.377	1.62
686.499	4.62
686.621	16.62
686.743	8.62
686.866	-1.38
686.988	34.62
687.11	25.62
687.232	15.62
687.355	-14.38
687.477	8.62
687.599	-1.38
687.722	-6.38
687.844	6.62
687.966	10.62
688.088	8.62
688.211	32.62
688.333	6.62
688.455	15.62
688.578	18.62
688.7	18.62
688.822	17.62
688.944	20.62
689.067	40.62
689.189	3.62
689.311	-12.38
689.434	-5.38
689.556	4.62
689.678	1.62
689.801	1.62
689.923	20.62
690.045	27.62
690.167	18.62
690.29	15.62
690.412	9.62
690.534	11.62
690.657	2.62
690.779	9.62
690.901	-6.38
691.024	-13.38
691.146	12.62
691.268	10.62
691.391	21.62
691.513	-0.38
691.635	18.62
691.758	24.62
691.88	22.62
692.002	-5.38
692.125	4.62
692.247	4.62
692.369	-0.38
692.492	-11.38
692.614	-0.38
692.736	18.62
692.859	4.62
692.981	15.62
693.103	-13.38
693.226	11.62
693.348	12.62
693.47	0.62
693.593	6.62
693.715	20.62
693.837	27.62
693.96	7.62
694.082	-4.38
694.204	5.62
694.327	-8.38
694.449	-13.38
694.571	19.62
694.694	20.62
694.816	30.62
694.938	1.62
695.061	-1.38
695.183	10.62
695.305	2.62
695.428	11.62
695.55	2.62
695.672	0.62
695.795	26.62
695.917	25.62
696.04	4.62
696.162	7.62
696.284	-3.38
696.407	4.62
696.529	-2.38
696.651	20.62
696.774	-9.38
696.896	7.62
697.019	7.62
697.141	8.62
697.263	-5.38
697.386	-4.38
697.508	1.62
697.63	8.62
697.753	8.62
697.875	-3.38
697.998	-10.38
698.12	0.62
698.242	2.62
698.365	14.62
698.487	-1.38
698.61	7.62
698.732	1.62
698.854	0.62
698.977	13.62
699.099	19.62
699.221	7.62
699.344	1.62
699.466	9.62
699.589	11.62
699.711	0.62
699.834	6.62
699.956	8.62
700.078	8.62
700.201	5.62
700.323	7.62
700.446	25.62
700.568	-0.38
700.69	17.62
700.813	3.62
700.935	7.62
701.058	9.62
701.18	16.62
701.302	1.62
701.425	0.62
701.547	-7.38
701.67	-7.38
701.792	18.62
701.915	7.62
702.037	-0.38
702.159	6.62
702.282	10.62
702.404	13.62
702.527	16.62
702.649	8.62
702.772	8.62
702.894	8.62
703.017	-0.38
703.139	4.62
703.261	20.62
703.384	24.62
703.506	-8.38
703.629	-1.38
703.751	-13.38
703.874	6.62
703.996	1.62
704.119	0.62
704.241	8.62
704.364	-0.38
704.486	6.62
704.608	11.62
704.731	5.62
704.853	22.62
704.976	-13.38
705.098	10.62
705.221	7.62
705.343	3.62
705.466	25.62
705.588	25.62
705.711	12.62
705.833	19.62
705.956	-6.38
706.078	6.62
706.201	2.62
706.323	-9.38
706.446	-6.38
