Data from LowRes_mercury_15_20_11_07_2024_HR4C61881__60__15-23-38-270.txt Node

Date: Thu Nov 07 15:23:38 EST 2024
User: crc00042
Spectrometer: HR4C6188
Trigger mode: 4
Integration Time (sec): 1.000000E-1
Scans to average: 1
Electric dark correction enabled: true
Nonlinearity correction enabled: false
Boxcar width: 0
XAxis mode: Wavelengths
Number of Pixels in Spectrum: 3648
>>>>>Begin Spectral Data<<<<<
245.66	-73.54
245.797	-73.54
245.934	-73.54
246.071	-77.54
246.208	-13.54
246.344	18.46
246.481	2.46
246.618	5.46
246.755	17.46
246.892	-1.54
247.029	-23.54
247.165	-21.54
247.302	-8.54
247.439	3.46
247.576	8.46
247.713	-20.54
247.849	27.46
247.986	-7.54
248.123	9.46
248.26	-1.54
248.396	14.46
248.533	-3.54
248.67	-21.54
248.806	-3.54
248.943	-11.54
249.08	-5.54
249.216	14.46
249.353	-24.54
249.49	-19.54
249.626	8.46
249.763	-12.54
249.9	-3.54
250.036	3.46
250.173	12.46
250.309	6.46
250.446	-5.54
250.582	-9.54
250.719	-12.54
250.856	-8.54
250.992	-6.54
251.129	-2.54
251.265	-9.54
251.402	2.46
251.538	12.46
251.675	-13.54
251.811	6.46
251.948	10.46
252.084	8.46
252.221	-4.54
252.357	-13.54
252.493	27.46
252.63	2.46
252.766	-6.54
252.903	-10.54
253.039	6.46
253.175	-9.54
253.312	0.46
253.448	8.46
253.585	-11.54
253.721	13.46
253.857	-13.54
253.994	-1.54
254.13	-8.54
254.266	-2.54
254.403	2.46
254.539	-7.54
254.675	6.46
254.811	8.46
254.948	3.46
255.084	-14.54
255.22	-9.54
255.356	15.46
255.493	6.46
255.629	7.46
255.765	12.46
255.901	0.46
256.037	-3.54
256.174	-3.54
256.31	11.46
256.446	-2.54
256.582	-0.54
256.718	16.46
256.854	12.46
256.991	28.46
257.127	21.46
257.263	-7.54
257.399	5.46
257.535	4.46
257.671	7.46
257.807	-12.54
257.943	2.46
258.079	-2.54
258.215	-7.54
258.351	2.46
258.487	-11.54
258.623	20.46
258.759	0.46
258.895	-18.54
259.031	-1.54
259.167	5.46
259.303	9.46
259.439	0.46
259.575	-5.54
259.711	7.46
259.847	-15.54
259.983	6.46
260.119	-9.54
260.255	-7.54
260.391	-5.54
260.527	21.46
260.663	15.46
260.799	18.46
260.934	0.46
261.07	8.46
261.206	-4.54
261.342	-8.54
261.478	17.46
261.614	0.46
261.749	11.46
261.885	-0.54
262.021	18.46
262.157	28.46
262.293	-12.54
262.428	-8.54
262.564	-0.54
262.7	6.46
262.836	-11.54
262.971	25.46
263.107	1.46
263.243	24.46
263.378	14.46
263.514	-12.54
263.65	24.46
263.785	-24.54
263.921	-18.54
264.057	-7.54
264.192	-7.54
264.328	16.46
264.464	7.46
264.599	15.46
264.735	12.46
264.871	-10.54
265.006	1.46
265.142	-1.54
265.277	5.46
265.413	6.46
265.548	9.46
265.684	12.46
265.819	12.46
265.955	8.46
266.091	-16.54
266.226	-10.54
266.362	-10.54
266.497	11.46
266.633	1.46
266.768	8.46
266.903	15.46
267.039	23.46
267.174	1.46
267.31	2.46
267.445	9.46
267.581	-11.54
267.716	-10.54
267.851	13.46
267.987	18.46
268.122	14.46
268.258	4.46
268.393	4.46
268.528	20.46
268.664	-0.54
268.799	-14.54
268.934	5.46
269.07	2.46
269.205	-14.54
269.34	24.46
269.476	-1.54
269.611	-1.54
269.746	20.46
269.881	4.46
270.017	8.46
270.152	1.46
270.287	3.46
270.422	16.46
270.558	-8.54
270.693	-6.54
270.828	-9.54
270.963	-6.54
271.098	-9.54
271.234	-4.54
271.369	6.46
271.504	14.46
271.639	9.46
271.774	2.46
271.909	-1.54
272.045	-23.54
272.18	0.46
272.315	-1.54
272.45	20.46
272.585	-7.54
272.72	13.46
272.855	-9.54
272.99	35.46
273.125	2.46
273.26	-4.54
273.395	-10.54
273.53	-3.54
273.665	24.46
273.8	11.46
273.935	6.46
274.07	11.46
274.205	-12.54
274.34	-10.54
274.475	-13.54
274.61	27.46
274.745	1.46
274.88	23.46
275.015	-11.54
275.15	13.46
275.285	23.46
275.42	19.46
275.555	7.46
275.69	6.46
275.825	-13.54
275.959	-7.54
276.094	-13.54
276.229	-3.54
276.364	-15.54
276.499	-17.54
276.634	-3.54
276.768	-4.54
276.903	13.46
277.038	19.46
277.173	5.46
277.308	6.46
277.442	-4.54
277.577	-0.54
277.712	-19.54
277.847	-9.54
277.981	6.46
278.116	-12.54
278.251	15.46
278.386	12.46
278.52	1.46
278.655	4.46
278.79	25.46
278.924	-9.54
279.059	-6.54
279.194	-12.54
279.328	32.46
279.463	6.46
279.598	11.46
279.732	-8.54
279.867	12.46
280.001	14.46
280.136	-0.54
280.271	15.46
280.405	-0.54
280.54	8.46
280.674	10.46
280.809	28.46
280.943	16.46
281.078	-17.54
281.213	6.46
281.347	12.46
281.482	15.46
281.616	-10.54
281.751	1.46
281.885	-12.54
282.02	0.46
282.154	20.46
282.288	-15.54
282.423	7.46
282.557	-13.54
282.692	1.46
282.826	-3.54
282.961	8.46
283.095	0.46
283.229	2.46
283.364	-16.54
283.498	-19.54
283.633	10.46
283.767	3.46
283.901	14.46
284.036	12.46
284.17	-13.54
284.304	-12.54
284.439	4.46
284.573	6.46
284.707	37.46
284.842	2.46
284.976	-10.54
285.11	-4.54
285.244	-6.54
285.379	20.46
285.513	9.46
285.647	12.46
285.781	-8.54
285.916	3.46
286.05	-2.54
286.184	25.46
286.318	26.46
286.453	4.46
286.587	-2.54
286.721	-1.54
286.855	7.46
286.989	-7.54
287.123	-0.54
287.258	-6.54
287.392	-0.54
287.526	18.46
287.66	8.46
287.794	-10.54
287.928	-11.54
288.062	-21.54
288.196	-8.54
288.33	3.46
288.464	27.46
288.598	23.46
288.733	12.46
288.867	8.46
289.001	1.46
289.135	-12.54
289.269	-3.54
289.403	17.46
289.537	6.46
289.671	2.46
289.805	-7.54
289.939	3.46
290.073	-17.54
290.207	11.46
290.34	-12.54
290.474	22.46
290.608	15.46
290.742	5.46
290.876	-7.54
291.01	-6.54
291.144	18.46
291.278	23.46
291.412	13.46
291.546	10.46
291.679	-9.54
291.813	0.46
291.947	22.46
292.081	1.46
292.215	3.46
292.349	29.46
292.482	21.46
292.616	-9.54
292.75	6.46
292.884	21.46
293.018	-12.54
293.151	-14.54
293.285	10.46
293.419	-17.54
293.553	-0.54
293.686	-6.54
293.82	6.46
293.954	5.46
294.088	25.46
294.221	-0.54
294.355	2.46
294.489	3.46
294.622	12.46
294.756	-0.54
294.89	17.46
295.023	1.46
295.157	16.46
295.291	11.46
295.424	0.46
295.558	-13.54
295.691	-10.54
295.825	3.46
295.959	-17.54
296.092	14.46
296.226	4.46
296.359	-6.54
296.493	-10.54
296.627	-5.54
296.76	15.46
296.894	6.46
297.027	17.46
297.161	6.46
297.294	-4.54
297.428	8.46
297.561	15.46
297.695	2.46
297.828	4.46
297.962	-7.54
298.095	2.46
298.229	5.46
298.362	0.46
298.495	-28.54
298.629	-21.54
298.762	-0.54
298.896	-14.54
299.029	-1.54
299.162	6.46
299.296	0.46
299.429	-6.54
299.563	0.46
299.696	-8.54
299.829	8.46
299.963	16.46
300.096	-3.54
300.229	6.46
300.363	-4.54
300.496	0.46
300.629	-20.54
300.763	-12.54
300.896	-13.54
301.029	3.46
301.162	-18.54
301.296	-7.54
301.429	0.46
301.562	-13.54
301.695	-1.54
301.829	-0.54
301.962	19.46
302.095	7.46
302.228	-21.54
302.362	7.46
302.495	-3.54
302.628	-9.54
302.761	-6.54
302.894	15.46
303.027	13.46
303.161	-20.54
303.294	-4.54
303.427	10.46
303.56	-4.54
303.693	-15.54
303.826	-7.54
303.959	4.46
304.092	-7.54
304.225	2.46
304.359	3.46
304.492	2.46
304.625	-20.54
304.758	-0.54
304.891	1.46
305.024	11.46
305.157	-8.54
305.29	-4.54
305.423	0.46
305.556	-2.54
305.689	28.46
305.822	-2.54
305.955	3.46
306.088	-4.54
306.221	-12.54
306.354	-13.54
306.487	3.46
306.62	2.46
306.752	-12.54
306.885	12.46
307.018	4.46
307.151	-7.54
307.284	7.46
307.417	-11.54
307.55	13.46
307.683	11.46
307.816	-0.54
307.948	-14.54
308.081	8.46
308.214	8.46
308.347	7.46
308.48	-4.54
308.613	2.46
308.745	18.46
308.878	-4.54
309.011	8.46
309.144	22.46
309.277	-5.54
309.409	13.46
309.542	0.46
309.675	-0.54
309.808	0.46
309.94	10.46
310.073	-8.54
310.206	-11.54
310.339	17.46
310.471	-4.54
310.604	1.46
310.737	-12.54
310.869	-9.54
311.002	-3.54
311.135	6.46
311.267	-22.54
311.4	-8.54
311.533	16.46
311.665	-14.54
311.798	-4.54
311.93	19.46
312.063	24.46
312.196	64.46
312.328	78.46
312.461	47.46
312.593	8.46
312.726	54.46
312.859	102.46
312.991	147.46
313.124	31.46
313.256	16.46
313.389	19.46
313.521	1.46
313.654	9.46
313.786	-15.54
313.919	-12.54
314.051	-3.54
314.184	11.46
314.316	-7.54
314.449	-11.54
314.581	3.46
314.714	0.46
314.846	-7.54
314.978	-21.54
315.111	-10.54
315.243	-4.54
315.376	0.46
315.508	5.46
315.641	-1.54
315.773	2.46
315.905	3.46
316.038	-1.54
316.17	-6.54
316.302	12.46
316.435	-0.54
316.567	3.46
316.699	15.46
316.832	-2.54
316.964	-13.54
317.096	-1.54
317.229	-10.54
317.361	-19.54
317.493	-20.54
317.625	-9.54
317.758	-0.54
317.89	1.46
318.022	-3.54
318.155	-15.54
318.287	12.46
318.419	2.46
318.551	7.46
318.683	1.46
318.816	6.46
318.948	-7.54
319.08	-31.54
319.212	-5.54
319.344	2.46
319.477	-1.54
319.609	12.46
319.741	21.46
319.873	1.46
320.005	-0.54
320.137	-7.54
320.269	10.46
320.401	6.46
320.534	-12.54
320.666	-20.54
320.798	-3.54
320.93	-1.54
321.062	-20.54
321.194	-14.54
321.326	8.46
321.458	13.46
321.59	5.46
321.722	-23.54
321.854	6.46
321.986	8.46
322.118	5.46
322.25	-10.54
322.382	-1.54
322.514	6.46
322.646	-4.54
322.778	18.46
322.91	13.46
323.042	-1.54
323.174	-13.54
323.306	2.46
323.438	-27.54
323.57	-2.54
323.702	-19.54
323.834	-4.54
323.966	1.46
324.097	2.46
324.229	2.46
324.361	3.46
324.493	4.46
324.625	-0.54
324.757	17.46
324.889	6.46
325.021	16.46
325.152	9.46
325.284	18.46
325.416	4.46
325.548	19.46
325.68	-11.54
325.811	5.46
325.943	16.46
326.075	0.46
326.207	18.46
326.339	16.46
326.47	-19.54
326.602	2.46
326.734	20.46
326.866	18.46
326.997	-19.54
327.129	-3.54
327.261	-15.54
327.392	0.46
327.524	3.46
327.656	13.46
327.787	12.46
327.919	-11.54
328.051	-8.54
328.182	18.46
328.314	8.46
328.446	-0.54
328.577	11.46
328.709	0.46
328.841	-5.54
328.972	-13.54
329.104	-8.54
329.235	-0.54
329.367	-6.54
329.499	10.46
329.63	-5.54
329.762	20.46
329.893	23.46
330.025	19.46
330.156	-9.54
330.288	-0.54
330.419	22.46
330.551	22.46
330.683	24.46
330.814	8.46
330.946	20.46
331.077	3.46
331.208	-12.54
331.34	3.46
331.471	10.46
331.603	12.46
331.734	-15.54
331.866	15.46
331.997	18.46
332.129	12.46
332.26	4.46
332.392	35.46
332.523	1.46
332.654	-2.54
332.786	-12.54
332.917	4.46
333.048	22.46
333.18	27.46
333.311	2.46
333.443	14.46
333.574	-7.54
333.705	33.46
333.837	25.46
333.968	106.46
334.099	222.46
334.231	216.46
334.362	51.46
334.493	24.46
334.624	19.46
334.756	11.46
334.887	17.46
335.018	9.46
335.15	22.46
335.281	8.46
335.412	23.46
335.543	12.46
335.675	3.46
335.806	12.46
335.937	4.46
336.068	8.46
336.199	35.46
336.331	15.46
336.462	4.46
336.593	19.46
336.724	-7.54
336.855	-4.54
336.986	15.46
337.118	18.46
337.249	11.46
337.38	4.46
337.511	20.46
337.642	12.46
337.773	17.46
337.904	18.46
338.035	5.46
338.166	11.46
338.298	6.46
338.429	-5.54
338.56	3.46
338.691	21.46
338.822	17.46
338.953	6.46
339.084	16.46
339.215	12.46
339.346	9.46
339.477	14.46
339.608	-3.54
339.739	-3.54
339.87	10.46
340.001	18.46
340.132	21.46
340.263	22.46
340.394	12.46
340.525	8.46
340.656	-0.54
340.787	17.46
340.918	17.46
341.049	19.46
341.179	23.46
341.31	17.46
341.441	24.46
341.572	28.46
341.703	6.46
341.834	1.46
341.965	11.46
342.096	9.46
342.227	32.46
342.357	15.46
342.488	0.46
342.619	25.46
342.75	19.46
342.881	-2.54
343.012	30.46
343.142	10.46
343.273	21.46
343.404	25.46
343.535	43.46
343.666	37.46
343.796	27.46
343.927	34.46
344.058	37.46
344.189	23.46
344.319	21.46
344.45	19.46
344.581	13.46
344.712	16.46
344.842	28.46
344.973	27.46
345.104	24.46
345.234	26.46
345.365	17.46
345.496	13.46
345.626	40.46
345.757	42.46
345.888	8.46
346.018	39.46
346.149	28.46
346.28	40.46
346.41	22.46
346.541	33.46
346.672	16.46
346.802	27.46
346.933	21.46
347.063	29.46
347.194	40.46
347.325	36.46
347.455	40.46
347.586	19.46
347.716	16.46
347.847	32.46
347.977	44.46
348.108	39.46
348.238	33.46
348.369	32.46
348.499	53.46
348.63	50.46
348.76	40.46
348.891	54.46
349.021	56.46
349.152	37.46
349.282	65.46
349.413	49.46
349.543	67.46
349.674	24.46
349.804	42.46
349.935	17.46
350.065	16.46
350.196	30.46
350.326	41.46
350.456	23.46
350.587	26.46
350.717	21.46
350.848	32.46
350.978	32.46
351.108	7.46
351.239	44.46
351.369	15.46
351.499	12.46
351.63	7.46
351.76	16.46
351.89	14.46
352.021	21.46
352.151	26.46
352.281	24.46
352.412	42.46
352.542	15.46
352.672	29.46
352.803	8.46
352.933	21.46
353.063	11.46
353.193	25.46
353.324	2.46
353.454	24.46
353.584	39.46
353.714	28.46
353.845	34.46
353.975	14.46
354.105	-4.54
354.235	31.46
354.365	24.46
354.496	13.46
354.626	19.46
354.756	16.46
354.886	16.46
355.016	26.46
355.146	-3.54
355.277	22.46
355.407	24.46
355.537	38.46
355.667	35.46
355.797	30.46
355.927	27.46
356.057	22.46
356.187	7.46
356.318	6.46
356.448	28.46
356.578	23.46
356.708	32.46
356.838	34.46
356.968	21.46
357.098	28.46
357.228	23.46
357.358	32.46
357.488	20.46
357.618	56.46
357.748	29.46
357.878	33.46
358.008	20.46
358.138	33.46
358.268	28.46
358.398	60.46
358.528	4.46
358.658	21.46
358.788	24.46
358.918	25.46
359.048	16.46
359.178	53.46
359.308	32.46
359.438	35.46
359.568	32.46
359.698	20.46
359.827	37.46
359.957	27.46
360.087	35.46
360.217	15.46
360.347	28.46
360.477	62.46
360.607	23.46
360.737	32.46
360.866	25.46
360.996	11.46
361.126	8.46
361.256	37.46
361.386	52.46
361.516	43.46
361.645	-2.54
361.775	14.46
361.905	23.46
362.035	28.46
362.165	33.46
362.294	34.46
362.424	49.46
362.554	46.46
362.684	35.46
362.813	40.46
362.943	63.46
363.073	49.46
363.203	57.46
363.332	83.46
363.462	58.46
363.592	99.46
363.721	127.46
363.851	172.46
363.981	198.46
364.111	267.46
364.24	312.46
364.37	479.46
364.5	858.46
364.629	1795.46
364.759	3835.46
364.888	6185.46
365.018	9363.46
365.148	14779.46
365.277	12995.46
365.407	4734.46
365.537	3071.46
365.666	4014.46
365.796	1820.46
365.925	782.46
366.055	768.46
366.184	1036.46
366.314	1384.46
366.444	2447.46
366.573	2108.46
366.703	644.46
366.832	225.46
366.962	104.46
367.091	87.46
367.221	81.46
367.35	55.46
367.48	91.46
367.609	61.46
367.739	55.46
367.868	36.46
367.998	33.46
368.127	51.46
368.257	38.46
368.386	44.46
368.516	76.46
368.645	29.46
368.775	31.46
368.904	26.46
369.033	27.46
369.163	31.46
369.292	52.46
369.422	47.46
369.551	38.46
369.68	30.46
369.81	24.46
369.939	39.46
370.069	62.46
370.198	54.46
370.327	22.46
370.457	26.46
370.586	28.46
370.715	19.46
370.845	28.46
370.974	50.46
371.103	52.46
371.233	51.46
371.362	42.46
371.491	30.46
371.621	50.46
371.75	43.46
371.879	29.46
372.008	39.46
372.138	27.46
372.267	48.46
372.396	48.46
372.525	56.46
372.655	30.46
372.784	20.46
372.913	25.46
373.042	17.46
373.172	27.46
373.301	-4.54
373.43	-9.54
373.559	11.46
373.688	26.46
373.818	30.46
373.947	43.46
374.076	33.46
374.205	35.46
374.334	2.46
374.463	5.46
374.593	28.46
374.722	25.46
374.851	28.46
374.98	14.46
375.109	20.46
375.238	17.46
375.367	32.46
375.496	3.46
375.625	9.46
375.755	30.46
375.884	14.46
376.013	24.46
376.142	7.46
376.271	32.46
376.4	34.46
376.529	34.46
376.658	32.46
376.787	29.46
376.916	30.46
377.045	20.46
377.174	24.46
377.303	17.46
377.432	16.46
377.561	18.46
377.69	10.46
377.819	36.46
377.948	28.46
378.077	26.46
378.206	0.46
378.335	11.46
378.464	-2.54
378.593	17.46
378.722	9.46
378.851	6.46
378.98	22.46
379.108	-0.54
379.237	6.46
379.366	28.46
379.495	23.46
379.624	17.46
379.753	31.46
379.882	15.46
380.011	21.46
380.14	10.46
380.268	32.46
380.397	26.46
380.526	28.46
380.655	10.46
380.784	-2.54
380.913	14.46
381.041	12.46
381.17	-1.54
381.299	3.46
381.428	27.46
381.557	14.46
381.685	17.46
381.814	8.46
381.943	15.46
382.072	16.46
382.2	8.46
382.329	10.46
382.458	13.46
382.587	33.46
382.715	38.46
382.844	20.46
382.973	25.46
383.102	11.46
383.23	19.46
383.359	2.46
383.488	20.46
383.616	17.46
383.745	21.46
383.874	18.46
384.003	2.46
384.131	10.46
384.26	13.46
384.389	15.46
384.517	17.46
384.646	5.46
384.774	-4.54
384.903	27.46
385.032	33.46
385.16	28.46
385.289	9.46
385.418	26.46
385.546	15.46
385.675	29.46
385.803	13.46
385.932	25.46
386.06	13.46
386.189	19.46
386.318	30.46
386.446	19.46
386.575	18.46
386.703	31.46
386.832	29.46
386.96	-5.54
387.089	39.46
387.217	22.46
387.346	18.46
387.474	31.46
387.603	34.46
387.731	9.46
387.86	26.46
387.988	11.46
388.117	22.46
388.245	30.46
388.374	-2.54
388.502	14.46
388.631	-9.54
388.759	-0.54
388.888	15.46
389.016	9.46
389.144	22.46
389.273	15.46
389.401	18.46
389.53	-11.54
389.658	35.46
389.786	30.46
389.915	15.46
390.043	10.46
390.172	41.46
390.3	54.46
390.428	34.46
390.557	23.46
390.685	39.46
390.813	45.46
390.942	40.46
391.07	6.46
391.198	1.46
391.327	15.46
391.455	0.46
391.583	23.46
391.712	27.46
391.84	11.46
391.968	21.46
392.096	16.46
392.225	6.46
392.353	21.46
392.481	21.46
392.609	45.46
392.738	22.46
392.866	30.46
392.994	19.46
393.122	46.46
393.251	7.46
393.379	16.46
393.507	14.46
393.635	11.46
393.764	27.46
393.892	28.46
394.02	14.46
394.148	18.46
394.276	3.46
394.404	44.46
394.533	23.46
394.661	18.46
394.789	31.46
394.917	49.46
395.045	19.46
395.173	13.46
395.302	4.46
395.43	18.46
395.558	36.46
395.686	35.46
395.814	34.46
395.942	-1.54
396.07	12.46
396.198	34.46
396.326	25.46
396.454	35.46
396.582	22.46
396.711	35.46
396.839	12.46
396.967	32.46
397.095	22.46
397.223	30.46
397.351	52.46
397.479	51.46
397.607	42.46
397.735	43.46
397.863	43.46
397.991	30.46
398.119	29.46
398.247	51.46
398.375	50.46
398.503	25.46
398.631	55.46
398.759	54.46
398.887	51.46
399.015	60.46
399.143	63.46
399.271	61.46
399.399	71.46
399.526	81.46
399.654	74.46
399.782	53.46
399.91	104.46
400.038	87.46
400.166	75.46
400.294	89.46
400.422	86.46
400.55	113.46
400.678	105.46
400.805	117.46
400.933	125.46
401.061	126.46
401.189	120.46
401.317	138.46
401.445	92.46
401.573	78.46
401.7	36.46
401.828	45.46
401.956	52.46
402.084	35.46
402.212	31.46
402.34	22.46
402.467	24.46
402.595	15.46
402.723	36.46
402.851	61.46
402.978	47.46
403.106	78.46
403.234	73.46
403.362	102.46
403.489	111.46
403.617	166.46
403.745	214.46
403.873	281.46
404	553.46
404.128	1425.46
404.256	3889.46
404.384	5047.46
404.511	5412.46
404.639	7135.46
404.767	11321.46
404.894	14592.46
405.022	4899.46
405.15	1279.46
405.277	416.46
405.405	226.46
405.533	141.46
405.66	117.46
405.788	62.46
405.916	74.46
406.043	45.46
406.171	48.46
406.299	47.46
406.426	68.46
406.554	54.46
406.681	42.46
406.809	28.46
406.937	77.46
407.064	51.46
407.192	135.46
407.319	305.46
407.447	523.46
407.574	550.46
407.702	611.46
407.83	835.46
407.957	1597.46
408.085	924.46
408.212	266.46
408.34	110.46
408.467	42.46
408.595	52.46
408.722	52.46
408.85	48.46
408.977	36.46
409.105	14.46
409.232	36.46
409.36	36.46
409.487	26.46
409.615	36.46
409.742	40.46
409.87	28.46
409.997	48.46
410.125	37.46
410.252	22.46
410.379	14.46
410.507	26.46
410.634	29.46
410.762	21.46
410.889	26.46
411.017	34.46
411.144	44.46
411.271	29.46
411.399	36.46
411.526	33.46
411.653	19.46
411.781	28.46
411.908	10.46
412.036	12.46
412.163	29.46
412.29	29.46
412.418	18.46
412.545	24.46
412.672	32.46
412.8	55.46
412.927	26.46
413.054	52.46
413.182	19.46
413.309	35.46
413.436	15.46
413.564	26.46
413.691	38.46
413.818	48.46
413.945	20.46
414.073	19.46
414.2	17.46
414.327	38.46
414.454	36.46
414.582	24.46
414.709	27.46
414.836	10.46
414.963	18.46
415.091	29.46
415.218	21.46
415.345	30.46
415.472	12.46
415.6	4.46
415.727	33.46
415.854	20.46
415.981	24.46
416.108	9.46
416.236	18.46
416.363	18.46
416.49	16.46
416.617	13.46
416.744	31.46
416.871	22.46
416.998	24.46
417.126	21.46
417.253	27.46
417.38	21.46
417.507	27.46
417.634	40.46
417.761	44.46
417.888	32.46
418.015	23.46
418.143	16.46
418.27	40.46
418.397	31.46
418.524	26.46
418.651	14.46
418.778	43.46
418.905	50.46
419.032	22.46
419.159	27.46
419.286	64.46
419.413	32.46
419.54	45.46
419.667	31.46
419.794	38.46
419.921	49.46
420.048	44.46
420.175	50.46
420.302	48.46
420.429	47.46
420.556	37.46
420.683	47.46
420.81	38.46
420.937	69.46
421.064	55.46
421.191	54.46
421.318	64.46
421.445	79.46
421.572	55.46
421.699	44.46
421.826	39.46
421.953	59.46
422.08	14.46
422.207	8.46
422.334	9.46
422.461	28.46
422.588	16.46
422.714	10.46
422.841	36.46
422.968	38.46
423.095	2.46
423.222	8.46
423.349	26.46
423.476	24.46
423.603	-2.54
423.729	6.46
423.856	26.46
423.983	28.46
424.11	-6.54
424.237	19.46
424.364	20.46
424.491	18.46
424.617	10.46
424.744	25.46
424.871	37.46
424.998	12.46
425.125	9.46
425.251	6.46
425.378	15.46
425.505	18.46
425.632	24.46
425.758	7.46
425.885	24.46
426.012	38.46
426.139	43.46
426.266	26.46
426.392	42.46
426.519	11.46
426.646	11.46
426.772	26.46
426.899	9.46
427.026	4.46
427.153	22.46
427.279	36.46
427.406	34.46
427.533	7.46
427.659	30.46
427.786	20.46
427.913	35.46
428.039	16.46
428.166	21.46
428.293	18.46
428.419	37.46
428.546	24.46
428.673	20.46
428.799	7.46
428.926	27.46
429.053	49.46
429.179	30.46
429.306	23.46
429.433	42.46
429.559	36.46
429.686	-8.54
429.812	15.46
429.939	0.46
430.066	32.46
430.192	36.46
430.319	49.46
430.445	23.46
430.572	24.46
430.699	11.46
430.825	14.46
430.952	40.46
431.078	40.46
431.205	46.46
431.331	30.46
431.458	30.46
431.584	40.46
431.711	13.46
431.837	25.46
431.964	26.46
432.09	40.46
432.217	3.46
432.343	22.46
432.47	30.46
432.596	7.46
432.723	25.46
432.849	31.46
432.976	18.46
433.102	19.46
433.229	28.46
433.355	44.46
433.482	73.46
433.608	97.46
433.735	102.46
433.861	119.46
433.987	158.46
434.114	185.46
434.24	155.46
434.367	207.46
434.493	216.46
434.62	263.46
434.746	379.46
434.872	613.46
434.999	830.46
435.125	1724.46
435.252	5467.46
435.378	13341.46
435.504	15159.46
435.631	15389.46
435.757	15681.46
435.883	15681.46
436.01	15681.46
436.136	15681.46
436.262	15681.46
436.389	3441.46
436.515	2015.46
436.641	772.46
436.768	602.46
436.894	387.46
437.02	367.46
437.147	278.46
437.273	288.46
437.399	211.46
437.526	229.46
437.652	164.46
437.778	210.46
437.904	141.46
438.031	164.46
438.157	135.46
438.283	153.46
438.409	116.46
438.536	125.46
438.662	136.46
438.788	159.46
438.914	106.46
439.041	104.46
439.167	109.46
439.293	103.46
439.419	76.46
439.546	95.46
439.672	52.46
439.798	75.46
439.924	77.46
440.05	97.46
440.177	70.46
440.303	89.46
440.429	66.46
440.555	80.46
440.681	60.46
440.807	85.46
440.934	53.46
441.06	56.46
441.186	36.46
441.312	51.46
441.438	54.46
441.564	59.46
441.69	59.46
441.816	80.46
441.943	50.46
442.069	67.46
442.195	62.46
442.321	66.46
442.447	34.46
442.573	43.46
442.699	35.46
442.825	30.46
442.951	73.46
443.077	41.46
443.203	44.46
443.33	26.46
443.456	32.46
443.582	28.46
443.708	38.46
443.834	55.46
443.96	63.46
444.086	36.46
444.212	44.46
444.338	34.46
444.464	52.46
444.59	52.46
444.716	40.46
444.842	38.46
444.968	33.46
445.094	37.46
445.22	22.46
445.346	29.46
445.472	38.46
445.598	24.46
445.724	30.46
445.85	48.46
445.976	33.46
446.102	51.46
446.228	22.46
446.354	35.46
446.48	42.46
446.605	38.46
446.731	26.46
446.857	28.46
446.983	40.46
447.109	21.46
447.235	23.46
447.361	16.46
447.487	34.46
447.613	43.46
447.739	26.46
447.865	32.46
447.99	34.46
448.116	23.46
448.242	35.46
448.368	25.46
448.494	23.46
448.62	37.46
448.746	36.46
448.872	21.46
448.997	9.46
449.123	23.46
449.249	54.46
449.375	35.46
449.501	11.46
449.627	13.46
449.752	48.46
449.878	26.46
450.004	22.46
450.13	20.46
450.256	25.46
450.381	36.46
450.507	26.46
450.633	22.46
450.759	37.46
450.884	24.46
451.01	13.46
451.136	26.46
451.262	20.46
451.388	22.46
451.513	3.46
451.639	17.46
451.765	30.46
451.89	32.46
452.016	42.46
452.142	32.46
452.268	39.46
452.393	59.46
452.519	29.46
452.645	8.46
452.771	25.46
452.896	11.46
453.022	20.46
453.148	44.46
453.273	26.46
453.399	19.46
453.525	18.46
453.65	20.46
453.776	24.46
453.902	42.46
454.027	47.46
454.153	31.46
454.279	17.46
454.404	24.46
454.53	44.46
454.656	38.46
454.781	25.46
454.907	34.46
455.032	12.46
455.158	40.46
455.284	32.46
455.409	20.46
455.535	22.46
455.66	27.46
455.786	24.46
455.912	56.46
456.037	25.46
456.163	38.46
456.288	21.46
456.414	18.46
456.539	10.46
456.665	36.46
456.791	13.46
456.916	23.46
457.042	35.46
457.167	23.46
457.293	25.46
457.418	25.46
457.544	7.46
457.669	15.46
457.795	19.46
457.92	43.46
458.046	30.46
458.171	37.46
458.297	15.46
458.422	9.46
458.548	25.46
458.673	28.46
458.799	11.46
458.924	0.46
459.05	27.46
459.175	25.46
459.301	17.46
459.426	27.46
459.552	11.46
459.677	15.46
459.803	50.46
459.928	26.46
460.053	34.46
460.179	32.46
460.304	29.46
460.43	23.46
460.555	24.46
460.681	9.46
460.806	24.46
460.931	28.46
461.057	15.46
461.182	22.46
461.308	28.46
461.433	14.46
461.558	14.46
461.684	26.46
461.809	25.46
461.934	24.46
462.06	35.46
462.185	22.46
462.311	23.46
462.436	14.46
462.561	17.46
462.687	19.46
462.812	15.46
462.937	3.46
463.063	24.46
463.188	28.46
463.313	54.46
463.439	19.46
463.564	14.46
463.689	39.46
463.814	39.46
463.94	21.46
464.065	36.46
464.19	41.46
464.316	6.46
464.441	13.46
464.566	20.46
464.692	13.46
464.817	23.46
464.942	27.46
465.067	34.46
465.193	2.46
465.318	6.46
465.443	18.46
465.568	17.46
465.694	18.46
465.819	32.46
465.944	26.46
466.069	27.46
466.194	9.46
466.32	35.46
466.445	35.46
466.57	29.46
466.695	20.46
466.82	34.46
466.946	46.46
467.071	14.46
467.196	29.46
467.321	55.46
467.446	35.46
467.572	31.46
467.697	15.46
467.822	35.46
467.947	33.46
468.072	30.46
468.197	44.46
468.323	18.46
468.448	19.46
468.573	33.46
468.698	20.46
468.823	33.46
468.948	33.46
469.073	43.46
469.198	27.46
469.324	30.46
469.449	13.46
469.574	50.46
469.699	53.46
469.824	52.46
469.949	42.46
470.074	26.46
470.199	61.46
470.324	42.46
470.449	31.46
470.574	29.46
470.7	24.46
470.825	48.46
470.95	61.46
471.075	30.46
471.2	22.46
471.325	58.46
471.45	31.46
471.575	15.46
471.7	27.46
471.825	21.46
471.95	24.46
472.075	28.46
472.2	26.46
472.325	14.46
472.45	33.46
472.575	35.46
472.7	35.46
472.825	46.46
472.95	48.46
473.075	34.46
473.2	32.46
473.325	31.46
473.45	37.46
473.575	28.46
473.7	48.46
473.825	23.46
473.95	36.46
474.075	54.46
474.2	23.46
474.325	14.46
474.45	23.46
474.574	31.46
474.699	26.46
474.824	19.46
474.949	17.46
475.074	15.46
475.199	30.46
475.324	32.46
475.449	10.46
475.574	24.46
475.699	21.46
475.824	12.46
475.949	14.46
476.073	7.46
476.198	9.46
476.323	20.46
476.448	19.46
476.573	9.46
476.698	17.46
476.823	27.46
476.947	27.46
477.072	30.46
477.197	13.46
477.322	11.46
477.447	18.46
477.572	15.46
477.697	30.46
477.821	24.46
477.946	26.46
478.071	19.46
478.196	32.46
478.321	22.46
478.445	19.46
478.57	8.46
478.695	20.46
478.82	34.46
478.945	31.46
479.069	6.46
479.194	21.46
479.319	30.46
479.444	14.46
479.569	9.46
479.693	25.46
479.818	24.46
479.943	35.46
480.068	40.46
480.192	27.46
480.317	36.46
480.442	27.46
480.567	29.46
480.691	22.46
480.816	4.46
480.941	4.46
481.066	29.46
481.19	38.46
481.315	28.46
481.44	24.46
481.564	3.46
481.689	24.46
481.814	18.46
481.938	7.46
482.063	5.46
482.188	13.46
482.313	11.46
482.437	12.46
482.562	27.46
482.687	14.46
482.811	18.46
482.936	11.46
483.061	20.46
483.185	6.46
483.31	23.46
483.435	27.46
483.559	32.46
483.684	29.46
483.808	38.46
483.933	37.46
484.058	25.46
484.182	34.46
484.307	25.46
484.432	28.46
484.556	22.46
484.681	12.46
484.805	21.46
484.93	17.46
485.055	21.46
485.179	50.46
485.304	36.46
485.428	32.46
485.553	8.46
485.678	8.46
485.802	18.46
485.927	34.46
486.051	21.46
486.176	28.46
486.3	10.46
486.425	19.46
486.549	26.46
486.674	33.46
486.799	41.46
486.923	9.46
487.048	3.46
487.172	20.46
487.297	34.46
487.421	8.46
487.546	1.46
487.67	15.46
487.795	9.46
487.919	26.46
488.044	19.46
488.168	8.46
488.293	31.46
488.417	11.46
488.542	4.46
488.666	34.46
488.791	32.46
488.915	14.46
489.04	41.46
489.164	31.46
489.289	41.46
489.413	4.46
489.538	13.46
489.662	42.46
489.786	33.46
489.911	23.46
490.035	26.46
490.16	3.46
490.284	1.46
490.409	10.46
490.533	16.46
490.658	46.46
490.782	19.46
490.906	38.46
491.031	113.46
491.155	136.46
491.28	110.46
491.404	151.46
491.528	249.46
491.653	152.46
491.777	69.46
491.902	10.46
492.026	26.46
492.15	27.46
492.275	49.46
492.399	21.46
492.524	2.46
492.648	35.46
492.772	33.46
492.897	27.46
493.021	20.46
493.145	40.46
493.27	26.46
493.394	37.46
493.518	20.46
493.643	18.46
493.767	36.46
493.891	16.46
494.016	26.46
494.14	10.46
494.264	19.46
494.389	30.46
494.513	12.46
494.637	9.46
494.762	10.46
494.886	10.46
495.01	13.46
495.134	13.46
495.259	27.46
495.383	28.46
495.507	20.46
495.632	31.46
495.756	48.46
495.88	33.46
496.004	26.46
496.129	0.46
496.253	16.46
496.377	28.46
496.501	25.46
496.626	22.46
496.75	12.46
496.874	49.46
496.998	23.46
497.123	39.46
497.247	19.46
497.371	14.46
497.495	8.46
497.62	16.46
497.744	2.46
497.868	12.46
497.992	30.46
498.116	15.46
498.241	19.46
498.365	19.46
498.489	20.46
498.613	37.46
498.737	8.46
498.862	15.46
498.986	6.46
499.11	36.46
499.234	-3.54
499.358	-6.54
499.482	10.46
499.607	22.46
499.731	14.46
499.855	28.46
499.979	8.46
500.103	30.46
500.227	29.46
500.351	31.46
500.476	36.46
500.6	17.46
500.724	5.46
500.848	7.46
500.972	22.46
501.096	15.46
501.22	29.46
501.344	16.46
501.469	4.46
501.593	19.46
501.717	35.46
501.841	37.46
501.965	8.46
502.089	28.46
502.213	36.46
502.337	20.46
502.461	7.46
502.585	21.46
502.709	26.46
502.834	9.46
502.958	26.46
503.082	19.46
503.206	44.46
503.33	17.46
503.454	27.46
503.578	28.46
503.702	19.46
503.826	36.46
503.95	38.46
504.074	14.46
504.198	12.46
504.322	4.46
504.446	17.46
504.57	32.46
504.694	32.46
504.818	21.46
504.942	27.46
505.066	20.46
505.19	16.46
505.314	19.46
505.438	24.46
505.562	26.46
505.686	27.46
505.81	12.46
505.934	14.46
506.058	26.46
506.182	27.46
506.306	14.46
506.43	8.46
506.554	4.46
506.678	9.46
506.802	18.46
506.926	21.46
507.05	16.46
507.174	34.46
507.298	32.46
507.422	19.46
507.546	14.46
507.67	19.46
507.794	3.46
507.918	10.46
508.042	25.46
508.165	20.46
508.289	12.46
508.413	12.46
508.537	9.46
508.661	23.46
508.785	30.46
508.909	27.46
509.033	31.46
509.157	27.46
509.281	23.46
509.405	25.46
509.528	55.46
509.652	48.46
509.776	39.46
509.9	34.46
510.024	31.46
510.148	49.46
510.272	41.46
510.396	35.46
510.519	25.46
510.643	42.46
510.767	51.46
510.891	41.46
511.015	53.46
511.139	44.46
511.263	44.46
511.386	29.46
511.51	45.46
511.634	28.46
511.758	49.46
511.882	43.46
512.006	44.46
512.129	74.46
512.253	84.46
512.377	94.46
512.501	83.46
512.625	93.46
512.748	103.46
512.872	85.46
512.996	65.46
513.12	41.46
513.244	43.46
513.367	60.46
513.491	69.46
513.615	69.46
513.739	84.46
513.862	80.46
513.986	85.46
514.11	87.46
514.234	102.46
514.358	122.46
514.481	108.46
514.605	101.46
514.729	138.46
514.853	146.46
514.976	94.46
515.1	89.46
515.224	108.46
515.348	94.46
515.471	93.46
515.595	103.46
515.719	151.46
515.842	227.46
515.966	283.46
516.09	301.46
516.214	298.46
516.337	335.46
516.461	229.46
516.585	93.46
516.708	31.46
516.832	24.46
516.956	33.46
517.08	33.46
517.203	3.46
517.327	12.46
517.451	32.46
517.574	23.46
517.698	11.46
517.822	10.46
517.945	40.46
518.069	23.46
518.193	31.46
518.316	18.46
518.44	28.46
518.564	4.46
518.687	7.46
518.811	6.46
518.935	44.46
519.058	13.46
519.182	19.46
519.306	39.46
519.429	8.46
519.553	44.46
519.676	18.46
519.8	27.46
519.924	28.46
520.047	28.46
520.171	3.46
520.294	10.46
520.418	26.46
520.542	11.46
520.665	24.46
520.789	13.46
520.913	14.46
521.036	-0.54
521.16	12.46
521.283	18.46
521.407	14.46
521.53	27.46
521.654	-3.54
521.778	31.46
521.901	25.46
522.025	23.46
522.148	4.46
522.272	7.46
522.395	18.46
522.519	26.46
522.643	-1.54
522.766	26.46
522.89	19.46
523.013	28.46
523.137	18.46
523.26	-2.54
523.384	14.46
523.507	13.46
523.631	18.46
523.754	8.46
523.878	23.46
524.002	12.46
524.125	0.46
524.249	-0.54
524.372	23.46
524.496	18.46
524.619	18.46
524.743	10.46
524.866	9.46
524.99	19.46
525.113	0.46
525.237	26.46
525.36	21.46
525.484	21.46
525.607	-4.54
525.731	7.46
525.854	14.46
525.978	38.46
526.101	17.46
526.224	20.46
526.348	17.46
526.471	10.46
526.595	24.46
526.718	15.46
526.842	6.46
526.965	12.46
527.089	-6.54
527.212	9.46
527.336	7.46
527.459	13.46
527.582	15.46
527.706	34.46
527.829	21.46
527.953	41.46
528.076	6.46
528.2	-0.54
528.323	11.46
528.446	20.46
528.57	10.46
528.693	19.46
528.817	-7.54
528.94	12.46
529.064	35.46
529.187	16.46
529.31	12.46
529.434	11.46
529.557	7.46
529.68	18.46
529.804	2.46
529.927	20.46
530.051	16.46
530.174	0.46
530.297	3.46
530.421	9.46
530.544	18.46
530.668	11.46
530.791	11.46
530.914	28.46
531.038	6.46
531.161	12.46
531.284	16.46
531.408	23.46
531.531	20.46
531.654	23.46
531.778	21.46
531.901	0.46
532.024	5.46
532.148	6.46
532.271	13.46
532.394	12.46
532.518	16.46
532.641	8.46
532.764	2.46
532.888	18.46
533.011	-0.54
533.134	0.46
533.258	37.46
533.381	19.46
533.504	-0.54
533.628	12.46
533.751	17.46
533.874	0.46
533.997	3.46
534.121	7.46
534.244	13.46
534.367	-5.54
534.491	3.46
534.614	21.46
534.737	23.46
534.86	35.46
534.984	14.46
535.107	23.46
535.23	12.46
535.354	23.46
535.477	-10.54
535.6	2.46
535.723	7.46
535.847	2.46
535.97	0.46
536.093	14.46
536.216	1.46
536.34	6.46
536.463	-3.54
536.586	25.46
536.709	38.46
536.833	26.46
536.956	30.46
537.079	24.46
537.202	26.46
537.325	11.46
537.449	-2.54
537.572	32.46
537.695	20.46
537.818	5.46
537.941	3.46
538.065	23.46
538.188	6.46
538.311	25.46
538.434	28.46
538.558	12.46
538.681	25.46
538.804	22.46
538.927	26.46
539.05	26.46
539.173	33.46
539.297	19.46
539.42	8.46
539.543	10.46
539.666	15.46
539.789	38.46
539.913	23.46
540.036	32.46
540.159	29.46
540.282	16.46
540.405	13.46
540.528	24.46
540.651	5.46
540.775	35.46
540.898	28.46
541.021	23.46
541.144	38.46
541.267	32.46
541.39	24.46
541.513	39.46
541.637	42.46
541.76	32.46
541.883	24.46
542.006	48.46
542.129	50.46
542.252	43.46
542.375	40.46
542.498	41.46
542.622	47.46
542.745	50.46
542.868	45.46
542.991	57.46
543.114	54.46
543.237	47.46
543.36	70.46
543.483	73.46
543.606	73.46
543.73	85.46
543.853	65.46
543.976	86.46
544.099	99.46
544.222	135.46
544.345	126.46
544.468	160.46
544.591	211.46
544.714	252.46
544.837	373.46
544.96	446.46
545.083	650.46
545.206	1047.46
545.329	2388.46
545.453	10897.46
545.576	15243.46
545.699	15681.46
545.822	15681.46
545.945	15681.46
546.068	15681.46
546.191	15681.46
546.314	15681.46
546.437	15681.46
546.56	15681.46
546.683	15681.46
546.806	15681.46
546.929	15681.46
547.052	15681.46
547.175	15681.46
547.298	15681.46
547.421	15681.46
547.544	15681.46
547.667	3531.46
547.79	2228.46
547.913	967.46
548.036	855.46
548.159	642.46
548.282	635.46
548.405	486.46
548.528	482.46
548.651	389.46
548.774	402.46
548.897	349.46
549.02	348.46
549.143	310.46
549.266	285.46
549.389	263.46
549.512	262.46
549.635	259.46
549.758	235.46
549.881	223.46
550.004	215.46
550.127	195.46
550.25	182.46
550.373	148.46
550.496	177.46
550.619	163.46
550.742	159.46
550.865	141.46
550.988	146.46
551.111	171.46
551.234	145.46
551.356	120.46
551.479	121.46
551.602	121.46
551.725	142.46
551.848	133.46
551.971	126.46
552.094	109.46
552.217	115.46
552.34	104.46
552.463	103.46
552.586	119.46
552.709	99.46
552.832	92.46
552.955	112.46
553.077	114.46
553.2	103.46
553.323	85.46
553.446	90.46
553.569	100.46
553.692	96.46
553.815	95.46
553.938	100.46
554.061	100.46
554.184	94.46
554.306	90.46
554.429	88.46
554.552	76.46
554.675	76.46
554.798	77.46
554.921	94.46
555.044	60.46
555.167	73.46
555.29	80.46
555.412	69.46
555.535	73.46
555.658	72.46
555.781	78.46
555.904	89.46
556.027	88.46
556.15	79.46
556.272	74.46
556.395	73.46
556.518	79.46
556.641	74.46
556.764	92.46
556.887	82.46
557.01	52.46
557.132	43.46
557.255	74.46
557.378	66.46
557.501	59.46
557.624	72.46
557.747	75.46
557.869	76.46
557.992	83.46
558.115	89.46
558.238	82.46
558.361	115.46
558.483	96.46
558.606	55.46
558.729	43.46
558.852	70.46
558.975	72.46
559.098	66.46
559.22	48.46
559.343	45.46
559.466	40.46
559.589	32.46
559.712	47.46
559.834	62.46
559.957	36.46
560.08	51.46
560.203	53.46
560.325	66.46
560.448	46.46
560.571	44.46
560.694	36.46
560.817	57.46
560.939	57.46
561.062	59.46
561.185	51.46
561.308	72.46
561.43	61.46
561.553	53.46
561.676	70.46
561.799	70.46
561.921	62.46
562.044	58.46
562.167	44.46
562.29	76.46
562.413	66.46
562.535	63.46
562.658	44.46
562.781	49.46
562.903	56.46
563.026	105.46
563.149	123.46
563.272	111.46
563.394	113.46
563.517	87.46
563.64	62.46
563.763	41.46
563.885	53.46
564.008	47.46
564.131	48.46
564.254	23.46
564.376	44.46
564.499	24.46
564.622	23.46
564.744	38.46
564.867	31.46
564.99	26.46
565.113	41.46
565.235	34.46
565.358	31.46
565.481	21.46
565.603	34.46
565.726	19.46
565.849	37.46
565.971	52.46
566.094	21.46
566.217	34.46
566.34	24.46
566.462	33.46
566.585	24.46
566.708	40.46
566.83	25.46
566.953	41.46
567.076	35.46
567.198	40.46
567.321	38.46
567.444	46.46
567.566	42.46
567.689	25.46
567.812	20.46
567.934	40.46
568.057	52.46
568.18	42.46
568.302	23.46
568.425	19.46
568.548	17.46
568.67	23.46
568.793	39.46
568.916	48.46
569.038	43.46
569.161	24.46
569.283	33.46
569.406	40.46
569.529	30.46
569.651	18.46
569.774	29.46
569.897	47.46
570.019	43.46
570.142	50.46
570.265	34.46
570.387	34.46
570.51	32.46
570.632	53.46
570.755	26.46
570.878	31.46
571	41.46
571.123	29.46
571.246	39.46
571.368	33.46
571.491	26.46
571.613	50.46
571.736	17.46
571.859	49.46
571.981	27.46
572.104	13.46
572.226	39.46
572.349	15.46
572.472	29.46
572.594	29.46
572.717	30.46
572.839	32.46
572.962	20.46
573.085	37.46
573.207	18.46
573.33	37.46
573.452	40.46
573.575	47.46
573.697	15.46
573.82	34.46
573.943	27.46
574.065	30.46
574.188	33.46
574.31	40.46
574.433	28.46
574.555	58.46
574.678	33.46
574.801	45.46
574.923	43.46
575.046	35.46
575.168	43.46
575.291	17.46
575.413	27.46
575.536	36.46
575.659	44.46
575.781	30.46
575.904	54.46
576.026	70.46
576.149	75.46
576.271	130.46
576.394	197.46
576.516	533.46
576.639	3597.46
576.761	10157.46
576.884	8722.46
577.007	8676.46
577.129	7902.46
577.252	3693.46
577.374	1287.46
577.497	507.46
577.619	271.46
577.742	173.46
577.864	165.46
577.987	116.46
578.109	127.46
578.232	136.46
578.354	157.46
578.477	191.46
578.599	389.46
578.722	1946.46
578.844	9017.46
578.967	9755.46
579.089	8682.46
579.212	9066.46
579.334	5248.46
579.457	1909.46
579.579	702.46
579.702	327.46
579.824	207.46
579.947	123.46
580.069	114.46
580.192	90.46
580.314	101.46
580.437	66.46
580.559	84.46
580.682	52.46
580.804	62.46
580.927	60.46
581.049	67.46
581.172	58.46
581.294	39.46
581.417	48.46
581.539	67.46
581.662	48.46
581.784	60.46
581.907	51.46
582.029	50.46
582.152	24.46
582.274	36.46
582.396	20.46
582.519	45.46
582.641	25.46
582.764	43.46
582.886	50.46
583.009	45.46
583.131	13.46
583.254	29.46
583.376	59.46
583.499	37.46
583.621	41.46
583.743	48.46
583.866	34.46
583.988	15.46
584.111	25.46
584.233	51.46
584.356	39.46
584.478	32.46
584.601	22.46
584.723	13.46
584.845	36.46
584.968	14.46
585.09	14.46
585.213	24.46
585.335	30.46
585.458	34.46
585.58	23.46
585.702	31.46
585.825	42.46
585.947	29.46
586.07	11.46
586.192	27.46
586.315	33.46
586.437	22.46
586.559	31.46
586.682	33.46
586.804	39.46
586.927	28.46
587.049	34.46
587.171	36.46
587.294	29.46
587.416	44.46
587.539	43.46
587.661	13.46
587.783	21.46
587.906	11.46
588.028	35.46
588.151	40.46
588.273	36.46
588.395	31.46
588.518	24.46
588.64	20.46
588.763	26.46
588.885	19.46
589.007	26.46
589.13	11.46
589.252	25.46
589.375	32.46
589.497	31.46
589.619	30.46
589.742	22.46
589.864	54.46
589.986	22.46
590.109	3.46
590.231	21.46
590.354	22.46
590.476	-0.54
590.598	18.46
590.721	33.46
590.843	34.46
590.965	16.46
591.088	21.46
591.21	28.46
591.332	24.46
591.455	31.46
591.577	10.46
591.7	23.46
591.822	24.46
591.944	24.46
592.067	20.46
592.189	28.46
592.311	47.46
592.434	13.46
592.556	29.46
592.678	26.46
592.801	22.46
592.923	15.46
593.045	14.46
593.168	37.46
593.29	11.46
593.412	28.46
593.535	7.46
593.657	12.46
593.779	22.46
593.902	32.46
594.024	15.46
594.146	35.46
594.269	33.46
594.391	19.46
594.513	38.46
594.636	23.46
594.758	7.46
594.88	34.46
595.003	21.46
595.125	17.46
595.247	33.46
595.37	30.46
595.492	15.46
595.614	36.46
595.737	17.46
595.859	14.46
595.981	21.46
596.104	31.46
596.226	24.46
596.348	24.46
596.471	-1.54
596.593	19.46
596.715	2.46
596.838	25.46
596.96	6.46
597.082	21.46
597.204	34.46
597.327	30.46
597.449	16.46
597.571	19.46
597.694	33.46
597.816	37.46
597.938	11.46
598.061	6.46
598.183	8.46
598.305	41.46
598.427	20.46
598.55	5.46
598.672	30.46
598.794	32.46
598.917	12.46
599.039	26.46
599.161	20.46
599.283	15.46
599.406	35.46
599.528	29.46
599.65	44.46
599.773	17.46
599.895	44.46
600.017	36.46
600.139	34.46
600.262	8.46
600.384	21.46
600.506	23.46
600.628	33.46
600.751	31.46
600.873	19.46
600.995	24.46
601.118	40.46
601.24	28.46
601.362	37.46
601.484	36.46
601.607	16.46
601.729	8.46
601.851	23.46
601.973	18.46
602.096	21.46
602.218	16.46
602.34	20.46
602.462	36.46
602.585	39.46
602.707	14.46
602.829	12.46
602.951	14.46
603.074	-1.54
603.196	11.46
603.318	-5.54
603.44	31.46
603.563	30.46
603.685	13.46
603.807	34.46
603.929	23.46
604.052	20.46
604.174	14.46
604.296	23.46
604.418	41.46
604.541	34.46
604.663	12.46
604.785	12.46
604.907	14.46
605.03	6.46
605.152	40.46
605.274	18.46
605.396	14.46
605.519	19.46
605.641	10.46
605.763	9.46
605.885	22.46
606.008	15.46
606.13	32.46
606.252	49.46
606.374	18.46
606.496	2.46
606.619	19.46
606.741	9.46
606.863	25.46
606.985	38.46
607.108	18.46
607.23	16.46
607.352	30.46
607.474	38.46
607.596	26.46
607.719	11.46
607.841	22.46
607.963	27.46
608.085	11.46
608.207	18.46
608.33	16.46
608.452	11.46
608.574	10.46
608.696	28.46
608.819	26.46
608.941	26.46
609.063	6.46
609.185	3.46
609.307	20.46
609.43	27.46
609.552	19.46
609.674	14.46
609.796	27.46
609.918	32.46
610.041	0.46
610.163	25.46
610.285	12.46
610.407	21.46
610.529	12.46
610.652	30.46
610.774	27.46
610.896	18.46
611.018	23.46
611.14	26.46
611.263	26.46
611.385	12.46
611.507	19.46
611.629	4.46
611.751	11.46
611.873	37.46
611.996	35.46
612.118	25.46
612.24	7.46
612.362	28.46
612.484	54.46
612.607	50.46
612.729	43.46
612.851	24.46
612.973	29.46
613.095	15.46
613.218	30.46
613.34	24.46
613.462	13.46
613.584	9.46
613.706	6.46
613.828	42.46
613.951	18.46
614.073	29.46
614.195	4.46
614.317	37.46
614.439	24.46
614.561	16.46
614.684	15.46
614.806	19.46
614.928	28.46
615.05	22.46
615.172	40.46
615.294	31.46
615.417	22.46
615.539	14.46
615.661	22.46
615.783	32.46
615.905	24.46
616.027	8.46
616.15	14.46
616.272	28.46
616.394	28.46
616.516	19.46
616.638	11.46
616.76	24.46
616.883	28.46
617.005	21.46
617.127	21.46
617.249	18.46
617.371	27.46
617.493	25.46
617.615	30.46
617.738	20.46
617.86	29.46
617.982	20.46
618.104	14.46
618.226	8.46
618.348	18.46
618.471	27.46
618.593	15.46
618.715	9.46
618.837	34.46
618.959	21.46
619.081	34.46
619.203	7.46
619.326	23.46
619.448	43.46
619.57	32.46
619.692	28.46
619.814	39.46
619.936	29.46
620.058	36.46
620.181	33.46
620.303	19.46
620.425	11.46
620.547	12.46
620.669	16.46
620.791	32.46
620.913	20.46
621.036	34.46
621.158	21.46
621.28	35.46
621.402	5.46
621.524	8.46
621.646	23.46
621.768	3.46
621.891	-12.54
622.013	10.46
622.135	6.46
622.257	8.46
622.379	11.46
622.501	19.46
622.623	14.46
622.745	13.46
622.868	22.46
622.99	28.46
623.112	14.46
623.234	21.46
623.356	22.46
623.478	6.46
623.6	25.46
623.722	9.46
623.845	10.46
623.967	11.46
624.089	19.46
624.211	27.46
624.333	30.46
624.455	33.46
624.577	14.46
624.699	32.46
624.822	36.46
624.944	16.46
625.066	6.46
625.188	10.46
625.31	14.46
625.432	28.46
625.554	21.46
625.676	30.46
625.799	18.46
625.921	30.46
626.043	4.46
626.165	27.46
626.287	11.46
626.409	13.46
626.531	-5.54
626.653	26.46
626.775	24.46
626.898	30.46
627.02	25.46
627.142	38.46
627.264	15.46
627.386	11.46
627.508	26.46
627.63	16.46
627.752	29.46
627.874	34.46
627.997	19.46
628.119	15.46
628.241	22.46
628.363	28.46
628.485	19.46
628.607	11.46
628.729	9.46
628.851	2.46
628.973	6.46
629.096	2.46
629.218	20.46
629.34	31.46
629.462	16.46
629.584	5.46
629.706	16.46
629.828	41.46
629.95	26.46
630.072	20.46
630.195	-1.54
630.317	15.46
630.439	12.46
630.561	19.46
630.683	12.46
630.805	23.46
630.927	34.46
631.049	44.46
631.171	-9.54
631.293	22.46
631.416	14.46
631.538	16.46
631.66	23.46
631.782	23.46
631.904	31.46
632.026	18.46
632.148	12.46
632.27	13.46
632.392	24.46
632.514	10.46
632.637	10.46
632.759	7.46
632.881	0.46
633.003	14.46
633.125	8.46
633.247	7.46
633.369	22.46
633.491	15.46
633.613	15.46
633.735	-9.54
633.858	13.46
633.98	4.46
634.102	-3.54
634.224	6.46
634.346	12.46
634.468	9.46
634.59	15.46
634.712	16.46
634.834	21.46
634.956	6.46
635.078	5.46
635.201	8.46
635.323	9.46
635.445	10.46
635.567	-2.54
635.689	6.46
635.811	10.46
635.933	1.46
636.055	13.46
636.177	26.46
636.299	33.46
636.421	27.46
636.544	-0.54
636.666	27.46
636.788	25.46
636.91	29.46
637.032	16.46
637.154	28.46
637.276	22.46
637.398	23.46
637.52	14.46
637.642	6.46
637.764	10.46
637.887	8.46
638.009	10.46
638.131	6.46
638.253	2.46
638.375	23.46
638.497	18.46
638.619	2.46
638.741	15.46
638.863	0.46
638.985	10.46
639.107	19.46
639.23	2.46
639.352	27.46
639.474	10.46
639.596	18.46
639.718	12.46
639.84	4.46
639.962	2.46
640.084	28.46
640.206	23.46
640.328	4.46
640.45	13.46
640.573	2.46
640.695	8.46
640.817	-6.54
640.939	17.46
641.061	0.46
641.183	9.46
641.305	14.46
641.427	-0.54
641.549	-4.54
641.671	16.46
641.793	11.46
641.915	24.46
642.038	1.46
642.16	6.46
642.282	16.46
642.404	14.46
642.526	16.46
642.648	10.46
642.77	7.46
642.892	1.46
643.014	33.46
643.136	25.46
643.258	18.46
643.381	26.46
643.503	16.46
643.625	8.46
643.747	-9.54
643.869	5.46
643.991	16.46
644.113	8.46
644.235	7.46
644.357	11.46
644.479	22.46
644.601	0.46
644.723	8.46
644.846	6.46
644.968	4.46
645.09	4.46
645.212	4.46
645.334	16.46
645.456	19.46
645.578	9.46
645.7	4.46
645.822	18.46
645.944	9.46
646.066	12.46
646.188	21.46
646.311	20.46
646.433	3.46
646.555	36.46
646.677	11.46
646.799	9.46
646.921	7.46
647.043	10.46
647.165	8.46
647.287	17.46
647.409	-0.54
647.531	8.46
647.654	2.46
647.776	44.46
647.898	12.46
648.02	2.46
648.142	15.46
648.264	-0.54
648.386	-2.54
648.508	6.46
648.63	3.46
648.752	9.46
648.874	6.46
648.997	-4.54
649.119	23.46
649.241	15.46
649.363	24.46
649.485	15.46
649.607	-3.54
649.729	-12.54
649.851	9.46
649.973	7.46
650.095	9.46
650.217	-9.54
650.34	12.46
650.462	6.46
650.584	10.46
650.706	7.46
650.828	10.46
650.95	-16.54
651.072	18.46
651.194	-4.54
651.316	6.46
651.438	-1.54
651.56	-11.54
651.683	-0.54
651.805	12.46
651.927	33.46
652.049	8.46
652.171	7.46
652.293	4.46
652.415	-0.54
652.537	-1.54
652.659	2.46
652.781	3.46
652.903	11.46
653.026	40.46
653.148	8.46
653.27	20.46
653.392	42.46
653.514	-5.54
653.636	11.46
653.758	-8.54
653.88	-7.54
654.002	15.46
654.124	-2.54
654.247	-9.54
654.369	18.46
654.491	12.46
654.613	19.46
654.735	8.46
654.857	14.46
654.979	-9.54
655.101	15.46
655.223	37.46
655.345	22.46
655.468	24.46
655.59	14.46
655.712	2.46
655.834	8.46
655.956	11.46
656.078	7.46
656.2	1.46
656.322	12.46
656.444	-12.54
656.566	23.46
656.689	-0.54
656.811	13.46
656.933	12.46
657.055	-1.54
657.177	19.46
657.299	12.46
657.421	-0.54
657.543	5.46
657.665	6.46
657.787	10.46
657.91	21.46
658.032	13.46
658.154	3.46
658.276	12.46
658.398	4.46
658.52	14.46
658.642	3.46
658.764	6.46
658.886	-15.54
659.009	10.46
659.131	10.46
659.253	4.46
659.375	20.46
659.497	29.46
659.619	38.46
659.741	22.46
659.863	-5.54
659.985	-12.54
660.108	40.46
660.23	19.46
660.352	8.46
660.474	27.46
660.596	2.46
660.718	4.46
660.84	-13.54
660.962	15.46
661.084	6.46
661.207	14.46
661.329	14.46
661.451	2.46
661.573	-16.54
661.695	3.46
661.817	10.46
661.939	20.46
662.061	27.46
662.184	2.46
662.306	4.46
662.428	14.46
662.55	11.46
662.672	-5.54
662.794	2.46
662.916	-3.54
663.038	6.46
663.161	15.46
663.283	15.46
663.405	20.46
663.527	-12.54
663.649	18.46
663.771	2.46
663.893	2.46
664.015	-4.54
664.138	10.46
664.26	11.46
664.382	8.46
664.504	-4.54
664.626	-7.54
664.748	10.46
664.87	12.46
664.992	10.46
665.115	-3.54
665.237	-0.54
665.359	2.46
665.481	17.46
665.603	18.46
665.725	3.46
665.847	2.46
665.97	2.46
666.092	13.46
666.214	11.46
666.336	4.46
666.458	7.46
666.58	11.46
666.702	-5.54
666.825	-5.54
666.947	-11.54
667.069	16.46
667.191	13.46
667.313	18.46
667.435	-0.54
667.557	4.46
667.68	0.46
667.802	-13.54
667.924	5.46
668.046	18.46
668.168	24.46
668.29	4.46
668.412	-3.54
668.535	3.46
668.657	0.46
668.779	10.46
668.901	-0.54
669.023	24.46
669.145	7.46
669.267	19.46
669.39	6.46
669.512	12.46
669.634	1.46
669.756	6.46
669.878	18.46
670	27.46
670.123	5.46
670.245	32.46
670.367	11.46
670.489	21.46
670.611	3.46
670.733	-0.54
670.856	0.46
670.978	10.46
671.1	16.46
671.222	23.46
671.344	-4.54
671.466	8.46
671.589	-1.54
671.711	4.46
671.833	-20.54
671.955	18.46
672.077	10.46
672.199	22.46
672.322	27.46
672.444	-3.54
672.566	39.46
672.688	9.46
672.81	22.46
672.932	23.46
673.055	-1.54
673.177	-19.54
673.299	-1.54
673.421	16.46
673.543	20.46
673.665	2.46
673.788	14.46
673.91	8.46
674.032	-0.54
674.154	1.46
674.276	8.46
674.399	3.46
674.521	14.46
674.643	-0.54
674.765	10.46
674.887	13.46
675.009	4.46
675.132	9.46
675.254	18.46
675.376	11.46
675.498	12.46
675.62	15.46
675.743	12.46
675.865	15.46
675.987	2.46
676.109	0.46
676.231	12.46
676.354	26.46
676.476	7.46
676.598	25.46
676.72	7.46
676.842	-1.54
676.965	13.46
677.087	18.46
677.209	9.46
677.331	16.46
677.453	2.46
677.576	7.46
677.698	16.46
677.82	2.46
677.942	-12.54
678.064	0.46
678.187	18.46
678.309	0.46
678.431	-12.54
678.553	2.46
678.675	17.46
678.798	14.46
678.92	0.46
679.042	-1.54
679.164	-5.54
679.286	13.46
679.409	13.46
679.531	-0.54
679.653	3.46
679.775	-4.54
679.898	-3.54
680.02	-0.54
680.142	13.46
680.264	16.46
680.386	-20.54
680.509	14.46
680.631	18.46
680.753	5.46
680.875	0.46
680.998	4.46
681.12	-0.54
681.242	14.46
681.364	1.46
681.486	4.46
681.609	-7.54
681.731	-9.54
681.853	-6.54
681.975	15.46
682.098	10.46
682.22	19.46
682.342	14.46
682.464	14.46
682.587	18.46
682.709	-11.54
682.831	-2.54
682.953	-13.54
683.076	3.46
683.198	19.46
683.32	-1.54
683.442	18.46
683.565	20.46
683.687	6.46
683.809	6.46
683.931	-12.54
684.054	31.46
684.176	12.46
684.298	20.46
684.42	-1.54
684.543	4.46
684.665	0.46
684.787	10.46
684.909	-3.54
685.032	10.46
685.154	-6.54
685.276	15.46
685.398	3.46
685.521	7.46
685.643	8.46
685.765	21.46
685.887	-3.54
686.01	8.46
686.132	18.46
686.254	16.46
686.377	12.46
686.499	2.46
686.621	12.46
686.743	20.46
686.866	9.46
686.988	28.46
687.11	13.46
687.232	12.46
687.355	5.46
687.477	17.46
687.599	16.46
687.722	18.46
687.844	10.46
687.966	2.46
688.088	5.46
688.211	30.46
688.333	8.46
688.455	30.46
688.578	14.46
688.7	27.46
688.822	17.46
688.944	-4.54
689.067	42.46
689.189	13.46
689.311	-5.54
689.434	-4.54
689.556	14.46
689.678	5.46
689.801	-1.54
689.923	29.46
690.045	26.46
690.167	39.46
690.29	12.46
690.412	9.46
690.534	11.46
690.657	-4.54
690.779	15.46
690.901	13.46
691.024	2.46
691.146	8.46
691.268	6.46
691.391	9.46
691.513	4.46
691.635	30.46
691.758	19.46
691.88	21.46
692.002	14.46
692.125	16.46
692.247	-7.54
692.369	-9.54
692.492	-1.54
692.614	15.46
692.736	13.46
692.859	-9.54
692.981	-11.54
693.103	-3.54
693.226	1.46
693.348	30.46
693.47	28.46
693.593	28.46
693.715	30.46
693.837	12.46
693.96	11.46
694.082	3.46
694.204	12.46
694.327	2.46
694.449	3.46
694.571	13.46
694.694	6.46
694.816	24.46
694.938	5.46
695.061	-13.54
695.183	-2.54
695.305	7.46
695.428	10.46
695.55	2.46
695.672	-14.54
695.795	3.46
695.917	24.46
696.04	8.46
696.162	9.46
696.284	24.46
696.407	17.46
696.529	7.46
696.651	26.46
696.774	6.46
696.896	24.46
697.019	4.46
697.141	7.46
697.263	3.46
697.386	-1.54
697.508	9.46
697.63	6.46
697.753	22.46
697.875	10.46
697.998	1.46
698.12	11.46
698.242	-7.54
698.365	3.46
698.487	3.46
698.61	14.46
698.732	18.46
698.854	14.46
698.977	11.46
699.099	16.46
699.221	8.46
699.344	14.46
699.466	10.46
699.589	6.46
699.711	3.46
699.834	18.46
699.956	7.46
700.078	14.46
700.201	2.46
700.323	21.46
700.446	23.46
700.568	-1.54
700.69	8.46
700.813	11.46
700.935	-5.54
701.058	7.46
701.18	4.46
701.302	6.46
701.425	6.46
701.547	24.46
701.67	11.46
701.792	8.46
701.915	9.46
702.037	15.46
702.159	7.46
702.282	11.46
702.404	10.46
702.527	19.46
702.649	46.46
702.772	3.46
702.894	8.46
703.017	7.46
703.139	14.46
703.261	9.46
703.384	20.46
703.506	8.46
703.629	9.46
703.751	15.46
703.874	3.46
703.996	-5.54
704.119	-16.54
704.241	13.46
704.364	-7.54
704.486	7.46
704.608	-2.54
704.731	1.46
704.853	20.46
704.976	3.46
705.098	26.46
705.221	0.46
705.343	-8.54
705.466	17.46
705.588	9.46
705.711	15.46
705.833	25.46
705.956	2.46
706.078	16.46
706.201	21.46
706.323	15.46
706.446	4.46
