Data from LowRes_mercury_15_20_11_07_2024_HR4C61881__54__15-23-37-671.txt Node

Date: Thu Nov 07 15:23:37 EST 2024
User: crc00042
Spectrometer: HR4C6188
Trigger mode: 4
Integration Time (sec): 1.000000E-1
Scans to average: 1
Electric dark correction enabled: true
Nonlinearity correction enabled: false
Boxcar width: 0
XAxis mode: Wavelengths
Number of Pixels in Spectrum: 3648
>>>>>Begin Spectral Data<<<<<
245.66	-60.85
245.797	-60.85
245.934	-60.85
246.071	-58.85
246.208	1.15
246.344	10.15
246.481	-10.85
246.618	-8.85
246.755	1.15
246.892	-2.85
247.029	-23.85
247.165	-5.85
247.302	16.15
247.439	14.15
247.576	2.15
247.713	0.15
247.849	34.15
247.986	-25.85
248.123	-14.85
248.26	-9.85
248.396	7.15
248.533	-2.85
248.67	-13.85
248.806	-1.85
248.943	-25.85
249.08	-2.85
249.216	16.15
249.353	-3.85
249.49	-15.85
249.626	3.15
249.763	-6.85
249.9	-14.85
250.036	-6.85
250.173	-1.85
250.309	-8.85
250.446	3.15
250.582	-17.85
250.719	-20.85
250.856	-26.85
250.992	-14.85
251.129	-3.85
251.265	-7.85
251.402	5.15
251.538	16.15
251.675	17.15
251.811	16.15
251.948	35.15
252.084	-3.85
252.221	-13.85
252.357	-9.85
252.493	14.15
252.63	-2.85
252.766	3.15
252.903	-11.85
253.039	-8.85
253.175	-7.85
253.312	4.15
253.448	-18.85
253.585	-17.85
253.721	2.15
253.857	19.15
253.994	-1.85
254.13	-7.85
254.266	1.15
254.403	12.15
254.539	-0.85
254.675	9.15
254.811	10.15
254.948	-7.85
255.084	-6.85
255.22	-26.85
255.356	-1.85
255.493	-8.85
255.629	8.15
255.765	7.15
255.901	17.15
256.037	19.15
256.174	10.15
256.31	-16.85
256.446	-19.85
256.582	-0.85
256.718	-7.85
256.854	16.15
256.991	-2.85
257.127	10.15
257.263	-11.85
257.399	0.15
257.535	2.15
257.671	-7.85
257.807	-10.85
257.943	-2.85
258.079	1.15
258.215	-1.85
258.351	6.15
258.487	-7.85
258.623	15.15
258.759	17.15
258.895	-14.85
259.031	-12.85
259.167	-13.85
259.303	16.15
259.439	17.15
259.575	-5.85
259.711	-10.85
259.847	-15.85
259.983	-7.85
260.119	3.15
260.255	18.15
260.391	6.15
260.527	9.15
260.663	8.15
260.799	10.15
260.934	0.15
261.07	-7.85
261.206	2.15
261.342	-26.85
261.478	2.15
261.614	10.15
261.749	-4.85
261.885	-2.85
262.021	10.15
262.157	8.15
262.293	1.15
262.428	-18.85
262.564	-3.85
262.7	2.15
262.836	-2.85
262.971	-9.85
263.107	-10.85
263.243	7.15
263.378	-8.85
263.514	3.15
263.65	3.15
263.785	-1.85
263.921	12.15
264.057	1.15
264.192	-0.85
264.328	33.15
264.464	-2.85
264.599	9.15
264.735	30.15
264.871	-19.85
265.006	-7.85
265.142	-16.85
265.277	2.15
265.413	1.15
265.548	1.15
265.684	28.15
265.819	-4.85
265.955	-6.85
266.091	-7.85
266.226	-7.85
266.362	-8.85
266.497	6.15
266.633	-0.85
266.768	-4.85
266.903	7.15
267.039	28.15
267.174	14.15
267.31	2.15
267.445	14.15
267.581	3.15
267.716	15.15
267.851	10.15
267.987	11.15
268.122	8.15
268.258	6.15
268.393	-8.85
268.528	-6.85
268.664	-13.85
268.799	-18.85
268.934	-1.85
269.07	-9.85
269.205	-0.85
269.34	-2.85
269.476	-11.85
269.611	-7.85
269.746	17.15
269.881	13.15
270.017	12.15
270.152	-5.85
270.287	-5.85
270.422	7.15
270.558	2.15
270.693	3.15
270.828	-2.85
270.963	-3.85
271.098	-14.85
271.234	-4.85
271.369	24.15
271.504	8.15
271.639	-9.85
271.774	-9.85
271.909	6.15
272.045	-29.85
272.18	-11.85
272.315	-15.85
272.45	-13.85
272.585	-17.85
272.72	5.15
272.855	-5.85
272.99	23.15
273.125	-9.85
273.26	-14.85
273.395	-4.85
273.53	-22.85
273.665	9.15
273.8	-2.85
273.935	9.15
274.07	6.15
274.205	12.15
274.34	-6.85
274.475	4.15
274.61	6.15
274.745	-18.85
274.88	17.15
275.015	-20.85
275.15	7.15
275.285	8.15
275.42	3.15
275.555	10.15
275.69	5.15
275.825	3.15
275.959	3.15
276.094	-9.85
276.229	-10.85
276.364	-15.85
276.499	-1.85
276.634	-4.85
276.768	1.15
276.903	3.15
277.038	13.15
277.173	-2.85
277.308	-10.85
277.442	-11.85
277.577	6.15
277.712	-8.85
277.847	-7.85
277.981	11.15
278.116	-8.85
278.251	-2.85
278.386	9.15
278.52	4.15
278.655	14.15
278.79	19.15
278.924	-5.85
279.059	-0.85
279.194	-11.85
279.328	22.15
279.463	13.15
279.598	13.15
279.732	10.15
279.867	8.15
280.001	17.15
280.136	2.15
280.271	10.15
280.405	12.15
280.54	3.15
280.674	21.15
280.809	21.15
280.943	-6.85
281.078	15.15
281.213	17.15
281.347	-3.85
281.482	8.15
281.616	2.15
281.751	6.15
281.885	4.15
282.02	-0.85
282.154	11.15
282.288	-13.85
282.423	-2.85
282.557	-12.85
282.692	4.15
282.826	18.15
282.961	-5.85
283.095	-3.85
283.229	-3.85
283.364	-6.85
283.498	23.15
283.633	-12.85
283.767	10.15
283.901	-1.85
284.036	10.15
284.17	-11.85
284.304	5.15
284.439	-1.85
284.573	-1.85
284.707	7.15
284.842	2.15
284.976	-2.85
285.11	-4.85
285.244	-4.85
285.379	46.15
285.513	-22.85
285.647	-3.85
285.781	-3.85
285.916	-2.85
286.05	-2.85
286.184	32.15
286.318	28.15
286.453	-4.85
286.587	-19.85
286.721	-7.85
286.855	3.15
286.989	22.15
287.123	-0.85
287.258	-23.85
287.392	-16.85
287.526	-2.85
287.66	0.15
287.794	-13.85
287.928	-2.85
288.062	-9.85
288.196	7.15
288.33	11.15
288.464	15.15
288.598	9.15
288.733	-4.85
288.867	26.15
289.001	14.15
289.135	1.15
289.269	3.15
289.403	20.15
289.537	16.15
289.671	-4.85
289.805	-7.85
289.939	-2.85
290.073	-11.85
290.207	12.15
290.34	1.15
290.474	8.15
290.608	-4.85
290.742	-3.85
290.876	3.15
291.01	10.15
291.144	15.15
291.278	5.15
291.412	-7.85
291.546	-1.85
291.679	7.15
291.813	6.15
291.947	15.15
292.081	-0.85
292.215	-10.85
292.349	8.15
292.482	5.15
292.616	-20.85
292.75	-9.85
292.884	17.15
293.018	-5.85
293.151	-18.85
293.285	1.15
293.419	-5.85
293.553	-12.85
293.686	-16.85
293.82	3.15
293.954	12.15
294.088	9.15
294.221	-5.85
294.355	-3.85
294.489	7.15
294.622	-2.85
294.756	-4.85
294.89	4.15
295.023	2.15
295.157	19.15
295.291	3.15
295.424	6.15
295.558	2.15
295.691	-2.85
295.825	-6.85
295.959	23.15
296.092	-7.85
296.226	6.15
296.359	8.15
296.493	9.15
296.627	5.15
296.76	-5.85
296.894	6.15
297.027	-3.85
297.161	-17.85
297.294	-10.85
297.428	-6.85
297.561	8.15
297.695	5.15
297.828	-5.85
297.962	-10.85
298.095	-9.85
298.229	11.15
298.362	1.15
298.495	-18.85
298.629	-7.85
298.762	-13.85
298.896	-3.85
299.029	-18.85
299.162	9.15
299.296	9.15
299.429	2.15
299.563	3.15
299.696	-3.85
299.829	9.15
299.963	27.15
300.096	16.15
300.229	8.15
300.363	6.15
300.496	6.15
300.629	-19.85
300.763	6.15
300.896	5.15
301.029	6.15
301.162	3.15
301.296	-17.85
301.429	-7.85
301.562	-34.85
301.695	1.15
301.829	9.15
301.962	9.15
302.095	5.15
302.228	-8.85
302.362	-5.85
302.495	-4.85
302.628	-17.85
302.761	-8.85
302.894	7.15
303.027	-9.85
303.161	-17.85
303.294	-14.85
303.427	6.15
303.56	-4.85
303.693	-20.85
303.826	4.15
303.959	-8.85
304.092	-11.85
304.225	-4.85
304.359	-1.85
304.492	8.15
304.625	-1.85
304.758	5.15
304.891	-16.85
305.024	3.15
305.157	10.15
305.29	0.15
305.423	-4.85
305.556	23.15
305.689	25.15
305.822	-3.85
305.955	-0.85
306.088	-5.85
306.221	-11.85
306.354	-9.85
306.487	7.15
306.62	-11.85
306.752	-6.85
306.885	12.15
307.018	-7.85
307.151	-3.85
307.284	-15.85
307.417	5.15
307.55	15.15
307.683	15.15
307.816	16.15
307.948	5.15
308.081	9.15
308.214	-2.85
308.347	15.15
308.48	-0.85
308.613	-19.85
308.745	-2.85
308.878	-22.85
309.011	5.15
309.144	5.15
309.277	-17.85
309.409	-0.85
309.542	-3.85
309.675	18.15
309.808	2.15
309.94	18.15
310.073	-9.85
310.206	-11.85
310.339	9.15
310.471	-18.85
310.604	4.15
310.737	-6.85
310.869	-7.85
311.002	-14.85
311.135	9.15
311.267	-15.85
311.4	10.15
311.533	14.15
311.665	14.15
311.798	2.15
311.93	14.15
312.063	23.15
312.196	48.15
312.328	87.15
312.461	41.15
312.593	46.15
312.726	50.15
312.859	99.15
312.991	172.15
313.124	46.15
313.256	5.15
313.389	-4.85
313.521	-7.85
313.654	-9.85
313.786	-23.85
313.919	-14.85
314.051	11.15
314.184	14.15
314.316	3.15
314.449	-14.85
314.581	-2.85
314.714	4.15
314.846	-5.85
314.978	-21.85
315.111	-1.85
315.243	-0.85
315.376	6.15
315.508	-1.85
315.641	-2.85
315.773	32.15
315.905	13.15
316.038	-9.85
316.17	-13.85
316.302	-3.85
316.435	-7.85
316.567	8.15
316.699	25.15
316.832	-16.85
316.964	-0.85
317.096	-3.85
317.229	-8.85
317.361	-22.85
317.493	3.15
317.625	-19.85
317.758	17.15
317.89	22.15
318.022	-5.85
318.155	6.15
318.287	8.15
318.419	-6.85
318.551	-8.85
318.683	-10.85
318.816	-21.85
318.948	-13.85
319.08	-6.85
319.212	19.15
319.344	2.15
319.477	0.15
319.609	-5.85
319.741	-3.85
319.873	-15.85
320.005	-5.85
320.137	-12.85
320.269	6.15
320.401	14.15
320.534	6.15
320.666	-20.85
320.798	-4.85
320.93	-5.85
321.062	-11.85
321.194	12.15
321.326	18.15
321.458	1.15
321.59	3.15
321.722	11.15
321.854	11.15
321.986	2.15
322.118	-3.85
322.25	1.15
322.382	-7.85
322.514	0.15
322.646	-7.85
322.778	20.15
322.91	-4.85
323.042	-2.85
323.174	0.15
323.306	-14.85
323.438	-1.85
323.57	-7.85
323.702	-4.85
323.834	1.15
323.966	-6.85
324.097	-1.85
324.229	11.15
324.361	28.15
324.493	6.15
324.625	-19.85
324.757	7.15
324.889	7.15
325.021	7.15
325.152	19.15
325.284	21.15
325.416	-6.85
325.548	5.15
325.68	-10.85
325.811	19.15
325.943	15.15
326.075	-12.85
326.207	-0.85
326.339	15.15
326.47	-1.85
326.602	-3.85
326.734	17.15
326.866	26.15
326.997	-11.85
327.129	-0.85
327.261	3.15
327.392	-16.85
327.524	13.15
327.656	5.15
327.787	-5.85
327.919	19.15
328.051	0.15
328.182	29.15
328.314	45.15
328.446	7.15
328.577	13.15
328.709	15.15
328.841	-4.85
328.972	12.15
329.104	-26.85
329.235	-1.85
329.367	-8.85
329.499	8.15
329.63	15.15
329.762	14.15
329.893	9.15
330.025	-1.85
330.156	-22.85
330.288	13.15
330.419	18.15
330.551	0.15
330.683	4.15
330.814	-4.85
330.946	11.15
331.077	-13.85
331.208	-6.85
331.34	-1.85
331.471	-22.85
331.603	6.15
331.734	-7.85
331.866	12.15
331.997	3.15
332.129	10.15
332.26	3.15
332.392	15.15
332.523	6.15
332.654	-8.85
332.786	6.15
332.917	-1.85
333.048	9.15
333.18	31.15
333.311	15.15
333.443	19.15
333.574	11.15
333.705	41.15
333.837	48.15
333.968	105.15
334.099	223.15
334.231	212.15
334.362	74.15
334.493	21.15
334.624	17.15
334.756	14.15
334.887	9.15
335.018	8.15
335.15	18.15
335.281	12.15
335.412	19.15
335.543	-3.85
335.675	10.15
335.806	6.15
335.937	3.15
336.068	16.15
336.199	43.15
336.331	3.15
336.462	15.15
336.593	27.15
336.724	8.15
336.855	10.15
336.986	14.15
337.118	6.15
337.249	14.15
337.38	23.15
337.511	7.15
337.642	7.15
337.773	-0.85
337.904	5.15
338.035	13.15
338.166	11.15
338.298	8.15
338.429	-20.85
338.56	12.15
338.691	33.15
338.822	0.15
338.953	12.15
339.084	8.15
339.215	30.15
339.346	7.15
339.477	5.15
339.608	11.15
339.739	-2.85
339.87	5.15
340.001	0.15
340.132	26.15
340.263	7.15
340.394	11.15
340.525	10.15
340.656	-3.85
340.787	-0.85
340.918	42.15
341.049	-5.85
341.179	7.15
341.31	-1.85
341.441	5.15
341.572	9.15
341.703	5.15
341.834	-5.85
341.965	21.15
342.096	3.15
342.227	14.15
342.357	20.15
342.488	19.15
342.619	23.15
342.75	11.15
342.881	-2.85
343.012	21.15
343.142	11.15
343.273	9.15
343.404	17.15
343.535	47.15
343.666	35.15
343.796	31.15
343.927	38.15
344.058	36.15
344.189	40.15
344.319	40.15
344.45	29.15
344.581	21.15
344.712	8.15
344.842	10.15
344.973	24.15
345.104	31.15
345.234	22.15
345.365	18.15
345.496	2.15
345.626	28.15
345.757	23.15
345.888	-3.85
346.018	17.15
346.149	18.15
346.28	47.15
346.41	6.15
346.541	35.15
346.672	17.15
346.802	33.15
346.933	31.15
347.063	18.15
347.194	28.15
347.325	47.15
347.455	30.15
347.586	25.15
347.716	17.15
347.847	34.15
347.977	30.15
348.108	37.15
348.238	36.15
348.369	57.15
348.499	49.15
348.63	48.15
348.76	32.15
348.891	38.15
349.021	39.15
349.152	55.15
349.282	34.15
349.413	42.15
349.543	59.15
349.674	21.15
349.804	41.15
349.935	31.15
350.065	25.15
350.196	28.15
350.326	27.15
350.456	18.15
350.587	22.15
350.717	13.15
350.848	7.15
350.978	30.15
351.108	10.15
351.239	22.15
351.369	10.15
351.499	18.15
351.63	8.15
351.76	19.15
351.89	33.15
352.021	39.15
352.151	27.15
352.281	33.15
352.412	24.15
352.542	38.15
352.672	4.15
352.803	14.15
352.933	29.15
353.063	15.15
353.193	18.15
353.324	7.15
353.454	21.15
353.584	22.15
353.714	4.15
353.845	13.15
353.975	24.15
354.105	19.15
354.235	19.15
354.365	23.15
354.496	33.15
354.626	31.15
354.756	11.15
354.886	-1.85
355.016	20.15
355.146	18.15
355.277	38.15
355.407	20.15
355.537	14.15
355.667	12.15
355.797	23.15
355.927	19.15
356.057	17.15
356.187	16.15
356.318	20.15
356.448	14.15
356.578	30.15
356.708	23.15
356.838	20.15
356.968	28.15
357.098	17.15
357.228	24.15
357.358	16.15
357.488	14.15
357.618	56.15
357.748	45.15
357.878	24.15
358.008	18.15
358.138	14.15
358.268	8.15
358.398	30.15
358.528	11.15
358.658	18.15
358.788	36.15
358.918	34.15
359.048	14.15
359.178	44.15
359.308	40.15
359.438	42.15
359.568	29.15
359.698	33.15
359.827	16.15
359.957	28.15
360.087	22.15
360.217	30.15
360.347	41.15
360.477	42.15
360.607	7.15
360.737	26.15
360.866	27.15
360.996	7.15
361.126	6.15
361.256	38.15
361.386	35.15
361.516	33.15
361.645	11.15
361.775	38.15
361.905	17.15
362.035	37.15
362.165	35.15
362.294	53.15
362.424	41.15
362.554	34.15
362.684	19.15
362.813	42.15
362.943	55.15
363.073	30.15
363.203	57.15
363.332	68.15
363.462	69.15
363.592	106.15
363.721	129.15
363.851	158.15
363.981	204.15
364.111	245.15
364.24	293.15
364.37	504.15
364.5	847.15
364.629	1792.15
364.759	3843.15
364.888	6276.15
365.018	9397.15
365.148	14818.15
365.277	12989.15
365.407	4760.15
365.537	3098.15
365.666	4071.15
365.796	1827.15
365.925	806.15
366.055	738.15
366.184	1034.15
366.314	1400.15
366.444	2501.15
366.573	2091.15
366.703	626.15
366.832	193.15
366.962	96.15
367.091	79.15
367.221	91.15
367.35	45.15
367.48	88.15
367.609	54.15
367.739	61.15
367.868	30.15
367.998	47.15
368.127	37.15
368.257	42.15
368.386	53.15
368.516	33.15
368.645	14.15
368.775	53.15
368.904	51.15
369.033	28.15
369.163	20.15
369.292	50.15
369.422	48.15
369.551	39.15
369.68	30.15
369.81	29.15
369.939	24.15
370.069	42.15
370.198	39.15
370.327	30.15
370.457	37.15
370.586	38.15
370.715	29.15
370.845	22.15
370.974	35.15
371.103	42.15
371.233	60.15
371.362	38.15
371.491	46.15
371.621	59.15
371.75	51.15
371.879	38.15
372.008	39.15
372.138	40.15
372.267	55.15
372.396	49.15
372.525	25.15
372.655	31.15
372.784	18.15
372.913	33.15
373.042	37.15
373.172	39.15
373.301	8.15
373.43	9.15
373.559	13.15
373.688	33.15
373.818	17.15
373.947	31.15
374.076	25.15
374.205	30.15
374.334	5.15
374.463	16.15
374.593	31.15
374.722	27.15
374.851	25.15
374.98	-13.85
375.109	5.15
375.238	41.15
375.367	33.15
375.496	10.15
375.625	-7.85
375.755	14.15
375.884	37.15
376.013	35.15
376.142	3.15
376.271	-4.85
376.4	21.15
376.529	40.15
376.658	15.15
376.787	17.15
376.916	2.15
377.045	13.15
377.174	5.15
377.303	7.15
377.432	36.15
377.561	38.15
377.69	39.15
377.819	47.15
377.948	6.15
378.077	10.15
378.206	17.15
378.335	8.15
378.464	12.15
378.593	16.15
378.722	11.15
378.851	23.15
378.98	30.15
379.108	6.15
379.237	6.15
379.366	11.15
379.495	39.15
379.624	13.15
379.753	-0.85
379.882	14.15
380.011	9.15
380.14	18.15
380.268	26.15
380.397	25.15
380.526	39.15
380.655	-3.85
380.784	-22.85
380.913	10.15
381.041	11.15
381.17	11.15
381.299	15.15
381.428	20.15
381.557	27.15
381.685	2.15
381.814	16.15
381.943	-8.85
382.072	0.15
382.2	21.15
382.329	15.15
382.458	10.15
382.587	33.15
382.715	31.15
382.844	5.15
382.973	31.15
383.102	18.15
383.23	14.15
383.359	11.15
383.488	31.15
383.616	15.15
383.745	-12.85
383.874	11.15
384.003	8.15
384.131	-5.85
384.26	-6.85
384.389	30.15
384.517	9.15
384.646	11.15
384.774	14.15
384.903	20.15
385.032	42.15
385.16	8.15
385.289	14.15
385.418	22.15
385.546	33.15
385.675	23.15
385.803	31.15
385.932	29.15
386.06	9.15
386.189	10.15
386.318	20.15
386.446	8.15
386.575	19.15
386.703	11.15
386.832	12.15
386.96	5.15
387.089	19.15
387.217	17.15
387.346	-2.85
387.474	16.15
387.603	29.15
387.731	19.15
387.86	35.15
387.988	27.15
388.117	39.15
388.245	11.15
388.374	17.15
388.502	39.15
388.631	-2.85
388.759	20.15
388.888	36.15
389.016	9.15
389.144	11.15
389.273	17.15
389.401	3.15
389.53	11.15
389.658	33.15
389.786	-2.85
389.915	-8.85
390.043	15.15
390.172	14.15
390.3	49.15
390.428	43.15
390.557	39.15
390.685	40.15
390.813	42.15
390.942	32.15
391.07	26.15
391.198	5.15
391.327	-4.85
391.455	10.15
391.583	28.15
391.712	24.15
391.84	22.15
391.968	20.15
392.096	2.15
392.225	10.15
392.353	11.15
392.481	21.15
392.609	30.15
392.738	14.15
392.866	26.15
392.994	21.15
393.122	55.15
393.251	14.15
393.379	23.15
393.507	9.15
393.635	14.15
393.764	21.15
393.892	37.15
394.02	25.15
394.148	25.15
394.276	18.15
394.404	43.15
394.533	19.15
394.661	29.15
394.789	34.15
394.917	36.15
395.045	3.15
395.173	20.15
395.302	18.15
395.43	16.15
395.558	39.15
395.686	52.15
395.814	17.15
395.942	16.15
396.07	37.15
396.198	48.15
396.326	48.15
396.454	45.15
396.582	51.15
396.711	30.15
396.839	44.15
396.967	18.15
397.095	21.15
397.223	27.15
397.351	65.15
397.479	35.15
397.607	34.15
397.735	43.15
397.863	51.15
397.991	51.15
398.119	32.15
398.247	56.15
398.375	35.15
398.503	25.15
398.631	60.15
398.759	71.15
398.887	57.15
399.015	67.15
399.143	50.15
399.271	49.15
399.399	77.15
399.526	69.15
399.654	96.15
399.782	68.15
399.91	108.15
400.038	99.15
400.166	84.15
400.294	106.15
400.422	84.15
400.55	107.15
400.678	112.15
400.805	100.15
400.933	101.15
401.061	134.15
401.189	111.15
401.317	146.15
401.445	113.15
401.573	82.15
401.7	51.15
401.828	49.15
401.956	61.15
402.084	46.15
402.212	22.15
402.34	30.15
402.467	38.15
402.595	51.15
402.723	48.15
402.851	65.15
402.978	43.15
403.106	66.15
403.234	89.15
403.362	103.15
403.489	116.15
403.617	144.15
403.745	189.15
403.873	269.15
404	539.15
404.128	1416.15
404.256	3879.15
404.384	5076.15
404.511	5429.15
404.639	7184.15
404.767	11343.15
404.894	14639.15
405.022	4914.15
405.15	1293.15
405.277	412.15
405.405	232.15
405.533	134.15
405.66	114.15
405.788	57.15
405.916	66.15
406.043	40.15
406.171	51.15
406.299	66.15
406.426	67.15
406.554	62.15
406.681	70.15
406.809	34.15
406.937	45.15
407.064	65.15
407.192	136.15
407.319	312.15
407.447	518.15
407.574	526.15
407.702	631.15
407.83	832.15
407.957	1593.15
408.085	932.15
408.212	275.15
408.34	100.15
408.467	61.15
408.595	49.15
408.722	49.15
408.85	62.15
408.977	40.15
409.105	18.15
409.232	36.15
409.36	22.15
409.487	39.15
409.615	33.15
409.742	35.15
409.87	19.15
409.997	32.15
410.125	24.15
410.252	59.15
410.379	48.15
410.507	31.15
410.634	42.15
410.762	28.15
410.889	30.15
411.017	25.15
411.144	40.15
411.271	19.15
411.399	39.15
411.526	19.15
411.653	28.15
411.781	26.15
411.908	14.15
412.036	16.15
412.163	22.15
412.29	21.15
412.418	31.15
412.545	38.15
412.672	11.15
412.8	51.15
412.927	24.15
413.054	45.15
413.182	45.15
413.309	30.15
413.436	17.15
413.564	26.15
413.691	43.15
413.818	38.15
413.945	6.15
414.073	12.15
414.2	27.15
414.327	31.15
414.454	15.15
414.582	26.15
414.709	13.15
414.836	11.15
414.963	28.15
415.091	35.15
415.218	35.15
415.345	34.15
415.472	32.15
415.6	21.15
415.727	40.15
415.854	26.15
415.981	27.15
416.108	17.15
416.236	27.15
416.363	23.15
416.49	7.15
416.617	33.15
416.744	41.15
416.871	13.15
416.998	14.15
417.126	27.15
417.253	33.15
417.38	16.15
417.507	36.15
417.634	35.15
417.761	35.15
417.888	33.15
418.015	42.15
418.143	46.15
418.27	36.15
418.397	28.15
418.524	28.15
418.651	29.15
418.778	38.15
418.905	52.15
419.032	52.15
419.159	26.15
419.286	68.15
419.413	56.15
419.54	56.15
419.667	20.15
419.794	25.15
419.921	38.15
420.048	52.15
420.175	52.15
420.302	58.15
420.429	56.15
420.556	43.15
420.683	40.15
420.81	46.15
420.937	56.15
421.064	63.15
421.191	52.15
421.318	88.15
421.445	60.15
421.572	41.15
421.699	47.15
421.826	45.15
421.953	24.15
422.08	21.15
422.207	11.15
422.334	9.15
422.461	36.15
422.588	20.15
422.714	23.15
422.841	38.15
422.968	16.15
423.095	5.15
423.222	7.15
423.349	19.15
423.476	23.15
423.603	22.15
423.729	18.15
423.856	23.15
423.983	36.15
424.11	13.15
424.237	13.15
424.364	25.15
424.491	23.15
424.617	-1.85
424.744	15.15
424.871	25.15
424.998	23.15
425.125	10.15
425.251	8.15
425.378	9.15
425.505	29.15
425.632	26.15
425.758	11.15
425.885	30.15
426.012	25.15
426.139	38.15
426.266	-12.85
426.392	19.15
426.519	29.15
426.646	10.15
426.772	29.15
426.899	26.15
427.026	6.15
427.153	23.15
427.279	21.15
427.406	2.15
427.533	19.15
427.659	4.15
427.786	12.15
427.913	25.15
428.039	23.15
428.166	16.15
428.293	19.15
428.419	6.15
428.546	16.15
428.673	-4.85
428.799	4.15
428.926	1.15
429.053	34.15
429.179	29.15
429.306	17.15
429.433	35.15
429.559	49.15
429.686	17.15
429.812	20.15
429.939	14.15
430.066	21.15
430.192	25.15
430.319	25.15
430.445	25.15
430.572	21.15
430.699	-1.85
430.825	14.15
430.952	33.15
431.078	40.15
431.205	37.15
431.331	37.15
431.458	21.15
431.584	34.15
431.711	15.15
431.837	32.15
431.964	10.15
432.09	2.15
432.217	13.15
432.343	13.15
432.47	29.15
432.596	29.15
432.723	24.15
432.849	31.15
432.976	26.15
433.102	32.15
433.229	18.15
433.355	58.15
433.482	65.15
433.608	86.15
433.735	104.15
433.861	125.15
433.987	149.15
434.114	174.15
434.24	173.15
434.367	186.15
434.493	217.15
434.62	284.15
434.746	376.15
434.872	617.15
434.999	805.15
435.125	1722.15
435.252	5568.15
435.378	13388.15
435.504	15202.15
435.631	15388.15
435.757	15680.15
435.883	15680.15
436.01	15680.15
436.136	15680.15
436.262	15680.15
436.389	3465.15
436.515	2106.15
436.641	783.15
436.768	624.15
436.894	399.15
437.02	398.15
437.147	303.15
437.273	297.15
437.399	204.15
437.526	246.15
437.652	161.15
437.778	202.15
437.904	153.15
438.031	136.15
438.157	101.15
438.283	142.15
438.409	105.15
438.536	104.15
438.662	105.15
438.788	110.15
438.914	109.15
439.041	117.15
439.167	99.15
439.293	94.15
439.419	75.15
439.546	103.15
439.672	78.15
439.798	82.15
439.924	85.15
440.05	98.15
440.177	72.15
440.303	58.15
440.429	44.15
440.555	65.15
440.681	66.15
440.807	80.15
440.934	61.15
441.06	60.15
441.186	51.15
441.312	46.15
441.438	58.15
441.564	70.15
441.69	63.15
441.816	61.15
441.943	38.15
442.069	56.15
442.195	57.15
442.321	71.15
442.447	45.15
442.573	43.15
442.699	25.15
442.825	31.15
442.951	42.15
443.077	49.15
443.203	54.15
443.33	57.15
443.456	42.15
443.582	51.15
443.708	33.15
443.834	57.15
443.96	55.15
444.086	44.15
444.212	62.15
444.338	66.15
444.464	51.15
444.59	61.15
444.716	41.15
444.842	31.15
444.968	35.15
445.094	27.15
445.22	39.15
445.346	29.15
445.472	29.15
445.598	31.15
445.724	20.15
445.85	21.15
445.976	30.15
446.102	49.15
446.228	49.15
446.354	35.15
446.48	23.15
446.605	39.15
446.731	49.15
446.857	23.15
446.983	40.15
447.109	25.15
447.235	24.15
447.361	25.15
447.487	38.15
447.613	35.15
447.739	16.15
447.865	31.15
447.99	23.15
448.116	11.15
448.242	12.15
448.368	44.15
448.494	18.15
448.62	20.15
448.746	21.15
448.872	23.15
448.997	-0.85
449.123	29.15
449.249	43.15
449.375	58.15
449.501	13.15
449.627	23.15
449.752	5.15
449.878	20.15
450.004	31.15
450.13	27.15
450.256	34.15
450.381	17.15
450.507	33.15
450.633	15.15
450.759	33.15
450.884	19.15
451.01	28.15
451.136	8.15
451.262	13.15
451.388	24.15
451.513	26.15
451.639	24.15
451.765	17.15
451.89	37.15
452.016	32.15
452.142	17.15
452.268	21.15
452.393	18.15
452.519	5.15
452.645	23.15
452.771	4.15
452.896	1.15
453.022	23.15
453.148	19.15
453.273	14.15
453.399	14.15
453.525	16.15
453.65	14.15
453.776	25.15
453.902	23.15
454.027	24.15
454.153	37.15
454.279	26.15
454.404	32.15
454.53	31.15
454.656	41.15
454.781	29.15
454.907	14.15
455.032	12.15
455.158	39.15
455.284	30.15
455.409	27.15
455.535	38.15
455.66	35.15
455.786	32.15
455.912	27.15
456.037	12.15
456.163	32.15
456.288	38.15
456.414	18.15
456.539	24.15
456.665	45.15
456.791	23.15
456.916	16.15
457.042	15.15
457.167	1.15
457.293	32.15
457.418	39.15
457.544	34.15
457.669	19.15
457.795	14.15
457.92	2.15
458.046	13.15
458.171	36.15
458.297	16.15
458.422	15.15
458.548	11.15
458.673	30.15
458.799	25.15
458.924	15.15
459.05	27.15
459.175	21.15
459.301	19.15
459.426	35.15
459.552	3.15
459.677	16.15
459.803	33.15
459.928	18.15
460.053	14.15
460.179	28.15
460.304	33.15
460.43	13.15
460.555	18.15
460.681	22.15
460.806	15.15
460.931	27.15
461.057	40.15
461.182	34.15
461.308	46.15
461.433	36.15
461.558	18.15
461.684	8.15
461.809	27.15
461.934	19.15
462.06	26.15
462.185	18.15
462.311	17.15
462.436	34.15
462.561	17.15
462.687	30.15
462.812	27.15
462.937	16.15
463.063	3.15
463.188	10.15
463.313	27.15
463.439	34.15
463.564	27.15
463.689	22.15
463.814	13.15
463.94	22.15
464.065	21.15
464.19	28.15
464.316	15.15
464.441	8.15
464.566	-2.85
464.692	20.15
464.817	27.15
464.942	18.15
465.067	-2.85
465.193	-14.85
465.318	7.15
465.443	22.15
465.568	11.15
465.694	10.15
465.819	39.15
465.944	33.15
466.069	22.15
466.194	15.15
466.32	25.15
466.445	20.15
466.57	27.15
466.695	39.15
466.82	46.15
466.946	37.15
467.071	34.15
467.196	14.15
467.321	35.15
467.446	15.15
467.572	31.15
467.697	29.15
467.822	46.15
467.947	43.15
468.072	33.15
468.197	15.15
468.323	27.15
468.448	47.15
468.573	10.15
468.698	28.15
468.823	30.15
468.948	36.15
469.073	36.15
469.198	45.15
469.324	56.15
469.449	24.15
469.574	45.15
469.699	38.15
469.824	33.15
469.949	47.15
470.074	34.15
470.199	43.15
470.324	33.15
470.449	32.15
470.574	30.15
470.7	52.15
470.825	58.15
470.95	58.15
471.075	31.15
471.2	46.15
471.325	48.15
471.45	25.15
471.575	18.15
471.7	34.15
471.825	23.15
471.95	36.15
472.075	3.15
472.2	20.15
472.325	39.15
472.45	17.15
472.575	14.15
472.7	17.15
472.825	38.15
472.95	45.15
473.075	38.15
473.2	25.15
473.325	42.15
473.45	51.15
473.575	41.15
473.7	51.15
473.825	32.15
473.95	27.15
474.075	40.15
474.2	14.15
474.325	8.15
474.45	35.15
474.574	22.15
474.699	25.15
474.824	35.15
474.949	0.15
475.074	18.15
475.199	18.15
475.324	36.15
475.449	24.15
475.574	5.15
475.699	27.15
475.824	15.15
475.949	18.15
476.073	9.15
476.198	4.15
476.323	14.15
476.448	15.15
476.573	-5.85
476.698	20.15
476.823	1.15
476.947	25.15
477.072	-0.85
477.197	21.15
477.322	18.15
477.447	-0.85
477.572	27.15
477.697	26.15
477.821	21.15
477.946	31.15
478.071	33.15
478.196	26.15
478.321	16.15
478.445	9.15
478.57	6.15
478.695	-0.85
478.82	26.15
478.945	37.15
479.069	2.15
479.194	20.15
479.319	25.15
479.444	30.15
479.569	-0.85
479.693	32.15
479.818	30.15
479.943	40.15
480.068	12.15
480.192	11.15
480.317	22.15
480.442	19.15
480.567	8.15
480.691	26.15
480.816	7.15
480.941	-0.85
481.066	20.15
481.19	44.15
481.315	17.15
481.44	19.15
481.564	1.15
481.689	9.15
481.814	14.15
481.938	13.15
482.063	5.15
482.188	6.15
482.313	6.15
482.437	-0.85
482.562	7.15
482.687	16.15
482.811	1.15
482.936	8.15
483.061	27.15
483.185	17.15
483.31	20.15
483.435	22.15
483.559	23.15
483.684	16.15
483.808	38.15
483.933	11.15
484.058	19.15
484.182	22.15
484.307	21.15
484.432	13.15
484.556	7.15
484.681	13.15
484.805	29.15
484.93	26.15
485.055	23.15
485.179	43.15
485.304	46.15
485.428	24.15
485.553	13.15
485.678	39.15
485.802	14.15
485.927	19.15
486.051	9.15
486.176	14.15
486.3	2.15
486.425	20.15
486.549	23.15
486.674	17.15
486.799	18.15
486.923	6.15
487.048	25.15
487.172	5.15
487.297	23.15
487.421	35.15
487.546	32.15
487.67	15.15
487.795	14.15
487.919	4.15
488.044	28.15
488.168	23.15
488.293	-2.85
488.417	-1.85
488.542	32.15
488.666	24.15
488.791	19.15
488.915	29.15
489.04	38.15
489.164	32.15
489.289	30.15
489.413	28.15
489.538	21.15
489.662	31.15
489.786	25.15
489.911	23.15
490.035	13.15
490.16	15.15
490.284	9.15
490.409	-2.85
490.533	19.15
490.658	41.15
490.782	13.15
490.906	56.15
491.031	94.15
491.155	123.15
491.28	140.15
491.404	146.15
491.528	233.15
491.653	155.15
491.777	75.15
491.902	15.15
492.026	41.15
492.15	25.15
492.275	34.15
492.399	39.15
492.524	20.15
492.648	23.15
492.772	28.15
492.897	35.15
493.021	18.15
493.145	34.15
493.27	28.15
493.394	18.15
493.518	18.15
493.643	7.15
493.767	19.15
493.891	2.15
494.016	9.15
494.14	28.15
494.264	11.15
494.389	19.15
494.513	19.15
494.637	18.15
494.762	22.15
494.886	22.15
495.01	25.15
495.134	14.15
495.259	25.15
495.383	15.15
495.507	12.15
495.632	36.15
495.756	31.15
495.88	15.15
496.004	14.15
496.129	13.15
496.253	33.15
496.377	30.15
496.501	25.15
496.626	21.15
496.75	12.15
496.874	13.15
496.998	4.15
497.123	40.15
497.247	19.15
497.371	17.15
497.495	21.15
497.62	21.15
497.744	15.15
497.868	-2.85
497.992	17.15
498.116	11.15
498.241	35.15
498.365	19.15
498.489	19.15
498.613	28.15
498.737	9.15
498.862	16.15
498.986	13.15
499.11	19.15
499.234	26.15
499.358	11.15
499.482	21.15
499.607	22.15
499.731	23.15
499.855	40.15
499.979	22.15
500.103	17.15
500.227	17.15
500.351	21.15
500.476	31.15
500.6	14.15
500.724	18.15
500.848	22.15
500.972	34.15
501.096	23.15
501.22	50.15
501.344	26.15
501.469	15.15
501.593	32.15
501.717	22.15
501.841	23.15
501.965	20.15
502.089	4.15
502.213	27.15
502.337	22.15
502.461	12.15
502.585	15.15
502.709	14.15
502.834	8.15
502.958	23.15
503.082	18.15
503.206	17.15
503.33	35.15
503.454	22.15
503.578	29.15
503.702	28.15
503.826	18.15
503.95	30.15
504.074	4.15
504.198	38.15
504.322	14.15
504.446	8.15
504.57	23.15
504.694	28.15
504.818	10.15
504.942	33.15
505.066	10.15
505.19	6.15
505.314	34.15
505.438	33.15
505.562	16.15
505.686	20.15
505.81	15.15
505.934	28.15
506.058	23.15
506.182	18.15
506.306	29.15
506.43	19.15
506.554	22.15
506.678	12.15
506.802	7.15
506.926	24.15
507.05	22.15
507.174	43.15
507.298	31.15
507.422	21.15
507.546	26.15
507.67	46.15
507.794	7.15
507.918	34.15
508.042	19.15
508.165	11.15
508.289	9.15
508.413	27.15
508.537	19.15
508.661	28.15
508.785	25.15
508.909	17.15
509.033	29.15
509.157	36.15
509.281	31.15
509.405	25.15
509.528	48.15
509.652	41.15
509.776	30.15
509.9	52.15
510.024	28.15
510.148	29.15
510.272	37.15
510.396	42.15
510.519	29.15
510.643	31.15
510.767	43.15
510.891	27.15
511.015	31.15
511.139	46.15
511.263	58.15
511.386	51.15
511.51	48.15
511.634	32.15
511.758	55.15
511.882	30.15
512.006	52.15
512.129	45.15
512.253	96.15
512.377	74.15
512.501	84.15
512.625	98.15
512.748	87.15
512.872	56.15
512.996	52.15
513.12	56.15
513.244	55.15
513.367	69.15
513.491	76.15
513.615	56.15
513.739	57.15
513.862	77.15
513.986	76.15
514.11	85.15
514.234	81.15
514.358	116.15
514.481	113.15
514.605	107.15
514.729	104.15
514.853	111.15
514.976	95.15
515.1	104.15
515.224	86.15
515.348	98.15
515.471	85.15
515.595	114.15
515.719	129.15
515.842	217.15
515.966	285.15
516.09	316.15
516.214	311.15
516.337	324.15
516.461	233.15
516.585	97.15
516.708	53.15
516.832	44.15
516.956	22.15
517.08	36.15
517.203	7.15
517.327	8.15
517.451	23.15
517.574	37.15
517.698	2.15
517.822	25.15
517.945	41.15
518.069	4.15
518.193	38.15
518.316	26.15
518.44	33.15
518.564	6.15
518.687	8.15
518.811	22.15
518.935	37.15
519.058	15.15
519.182	12.15
519.306	27.15
519.429	10.15
519.553	40.15
519.676	27.15
519.8	9.15
519.924	6.15
520.047	23.15
520.171	22.15
520.294	-1.85
520.418	26.15
520.542	26.15
520.665	26.15
520.789	19.15
520.913	-2.85
521.036	7.15
521.16	10.15
521.283	17.15
521.407	13.15
521.53	3.15
521.654	-5.85
521.778	31.15
521.901	13.15
522.025	18.15
522.148	15.15
522.272	20.15
522.395	12.15
522.519	25.15
522.643	10.15
522.766	18.15
522.89	2.15
523.013	18.15
523.137	19.15
523.26	4.15
523.384	2.15
523.507	27.15
523.631	27.15
523.754	19.15
523.878	18.15
524.002	13.15
524.125	27.15
524.249	17.15
524.372	26.15
524.496	13.15
524.619	18.15
524.743	1.15
524.866	7.15
524.99	4.15
525.113	4.15
525.237	26.15
525.36	20.15
525.484	30.15
525.607	10.15
525.731	-11.85
525.854	6.15
525.978	39.15
526.101	11.15
526.224	0.15
526.348	14.15
526.471	9.15
526.595	7.15
526.718	29.15
526.842	11.15
526.965	11.15
527.089	-10.85
527.212	21.15
527.336	11.15
527.459	30.15
527.582	8.15
527.706	9.15
527.829	18.15
527.953	32.15
528.076	6.15
528.2	2.15
528.323	15.15
528.446	22.15
528.57	13.15
528.693	33.15
528.817	15.15
528.94	6.15
529.064	34.15
529.187	-0.85
529.31	6.15
529.434	-0.85
529.557	-0.85
529.68	3.15
529.804	14.15
529.927	10.15
530.051	2.15
530.174	10.15
530.297	19.15
530.421	10.15
530.544	35.15
530.668	26.15
530.791	5.15
530.914	19.15
531.038	16.15
531.161	6.15
531.284	22.15
531.408	30.15
531.531	29.15
531.654	12.15
531.778	3.15
531.901	2.15
532.024	19.15
532.148	6.15
532.271	9.15
532.394	18.15
532.518	31.15
532.641	5.15
532.764	23.15
532.888	2.15
533.011	-1.85
533.134	-4.85
533.258	37.15
533.381	10.15
533.504	20.15
533.628	17.15
533.751	26.15
533.874	13.15
533.997	15.15
534.121	4.15
534.244	12.15
534.367	5.15
534.491	-9.85
534.614	20.15
534.737	26.15
534.86	32.15
534.984	20.15
535.107	21.15
535.23	20.15
535.354	11.15
535.477	19.15
535.6	23.15
535.723	29.15
535.847	10.15
535.97	1.15
536.093	8.15
536.216	11.15
536.34	31.15
536.463	24.15
536.586	22.15
536.709	17.15
536.833	12.15
536.956	4.15
537.079	13.15
537.202	41.15
537.325	3.15
537.449	-1.85
537.572	9.15
537.695	14.15
537.818	14.15
537.941	16.15
538.065	10.15
538.188	17.15
538.311	39.15
538.434	18.15
538.558	11.15
538.681	25.15
538.804	24.15
538.927	27.15
539.05	-1.85
539.173	13.15
539.297	13.15
539.42	7.15
539.543	4.15
539.666	31.15
539.789	30.15
539.913	25.15
540.036	15.15
540.159	25.15
540.282	21.15
540.405	5.15
540.528	8.15
540.651	25.15
540.775	23.15
540.898	24.15
541.021	38.15
541.144	37.15
541.267	30.15
541.39	37.15
541.513	38.15
541.637	17.15
541.76	22.15
541.883	15.15
542.006	23.15
542.129	43.15
542.252	33.15
542.375	42.15
542.498	24.15
542.622	49.15
542.745	56.15
542.868	47.15
542.991	49.15
543.114	48.15
543.237	42.15
543.36	66.15
543.483	41.15
543.606	70.15
543.73	73.15
543.853	80.15
543.976	88.15
544.099	114.15
544.222	120.15
544.345	126.15
544.468	177.15
544.591	228.15
544.714	260.15
544.837	325.15
544.96	423.15
545.083	661.15
545.206	1058.15
545.329	2423.15
545.453	10998.15
545.576	15257.15
545.699	15680.15
545.822	15680.15
545.945	15680.15
546.068	15680.15
546.191	15680.15
546.314	15680.15
546.437	15680.15
546.56	15680.15
546.683	15680.15
546.806	15680.15
546.929	15680.15
547.052	15680.15
547.175	15680.15
547.298	15680.15
547.421	15680.15
547.544	15680.15
547.667	3501.15
547.79	2191.15
547.913	993.15
548.036	897.15
548.159	630.15
548.282	612.15
548.405	484.15
548.528	495.15
548.651	397.15
548.774	401.15
548.897	335.15
549.02	341.15
549.143	288.15
549.266	283.15
549.389	272.15
549.512	259.15
549.635	243.15
549.758	268.15
549.881	198.15
550.004	237.15
550.127	199.15
550.25	185.15
550.373	151.15
550.496	186.15
550.619	143.15
550.742	131.15
550.865	130.15
550.988	165.15
551.111	155.15
551.234	139.15
551.356	114.15
551.479	138.15
551.602	124.15
551.725	126.15
551.848	131.15
551.971	125.15
552.094	113.15
552.217	127.15
552.34	96.15
552.463	93.15
552.586	113.15
552.709	103.15
552.832	86.15
552.955	108.15
553.077	98.15
553.2	97.15
553.323	84.15
553.446	75.15
553.569	102.15
553.692	106.15
553.815	86.15
553.938	94.15
554.061	101.15
554.184	84.15
554.306	70.15
554.429	85.15
554.552	83.15
554.675	61.15
554.798	91.15
554.921	84.15
555.044	70.15
555.167	78.15
555.29	87.15
555.412	68.15
555.535	55.15
555.658	71.15
555.781	75.15
555.904	90.15
556.027	93.15
556.15	75.15
556.272	60.15
556.395	79.15
556.518	75.15
556.641	58.15
556.764	81.15
556.887	73.15
557.01	74.15
557.132	42.15
557.255	70.15
557.378	80.15
557.501	74.15
557.624	61.15
557.747	77.15
557.869	57.15
557.992	80.15
558.115	101.15
558.238	79.15
558.361	72.15
558.483	103.15
558.606	72.15
558.729	57.15
558.852	69.15
558.975	69.15
559.098	54.15
559.22	68.15
559.343	42.15
559.466	50.15
559.589	46.15
559.712	48.15
559.834	49.15
559.957	58.15
560.08	66.15
560.203	53.15
560.325	48.15
560.448	59.15
560.571	44.15
560.694	56.15
560.817	56.15
560.939	31.15
561.062	48.15
561.185	70.15
561.308	80.15
561.43	53.15
561.553	56.15
561.676	62.15
561.799	74.15
561.921	67.15
562.044	69.15
562.167	48.15
562.29	59.15
562.413	73.15
562.535	63.15
562.658	55.15
562.781	43.15
562.903	66.15
563.026	83.15
563.149	126.15
563.272	111.15
563.394	93.15
563.517	97.15
563.64	57.15
563.763	59.15
563.885	50.15
564.008	41.15
564.131	45.15
564.254	28.15
564.376	22.15
564.499	25.15
564.622	23.15
564.744	53.15
564.867	19.15
564.99	25.15
565.113	30.15
565.235	40.15
565.358	25.15
565.481	4.15
565.603	42.15
565.726	31.15
565.849	37.15
565.971	55.15
566.094	47.15
566.217	30.15
566.34	31.15
566.462	33.15
566.585	37.15
566.708	54.15
566.83	43.15
566.953	64.15
567.076	42.15
567.198	35.15
567.321	26.15
567.444	36.15
567.566	27.15
567.689	20.15
567.812	10.15
567.934	14.15
568.057	29.15
568.18	29.15
568.302	14.15
568.425	25.15
568.548	33.15
568.67	21.15
568.793	29.15
568.916	23.15
569.038	19.15
569.161	16.15
569.283	15.15
569.406	25.15
569.529	34.15
569.651	22.15
569.774	17.15
569.897	18.15
570.019	26.15
570.142	31.15
570.265	25.15
570.387	32.15
570.51	34.15
570.632	50.15
570.755	44.15
570.878	29.15
571	37.15
571.123	30.15
571.246	41.15
571.368	25.15
571.491	26.15
571.613	23.15
571.736	29.15
571.859	24.15
571.981	23.15
572.104	18.15
572.226	36.15
572.349	-2.85
572.472	23.15
572.594	22.15
572.717	24.15
572.839	18.15
572.962	27.15
573.085	21.15
573.207	15.15
573.33	19.15
573.452	43.15
573.575	49.15
573.697	27.15
573.82	15.15
573.943	26.15
574.065	42.15
574.188	36.15
574.31	39.15
574.433	31.15
574.555	45.15
574.678	28.15
574.801	28.15
574.923	26.15
575.046	27.15
575.168	26.15
575.291	36.15
575.413	28.15
575.536	28.15
575.659	33.15
575.781	34.15
575.904	43.15
576.026	70.15
576.149	71.15
576.271	125.15
576.394	207.15
576.516	526.15
576.639	3614.15
576.761	10130.15
576.884	8741.15
577.007	8748.15
577.129	7960.15
577.252	3714.15
577.374	1284.15
577.497	518.15
577.619	279.15
577.742	163.15
577.864	143.15
577.987	126.15
578.109	124.15
578.232	115.15
578.354	160.15
578.477	183.15
578.599	389.15
578.722	1960.15
578.844	9099.15
578.967	9799.15
579.089	8727.15
579.212	9111.15
579.334	5301.15
579.457	1909.15
579.579	708.15
579.702	329.15
579.824	205.15
579.947	134.15
580.069	104.15
580.192	91.15
580.314	90.15
580.437	76.15
580.559	92.15
580.682	61.15
580.804	69.15
580.927	57.15
581.049	60.15
581.172	50.15
581.294	42.15
581.417	53.15
581.539	55.15
581.662	43.15
581.784	43.15
581.907	30.15
582.029	53.15
582.152	36.15
582.274	47.15
582.396	38.15
582.519	49.15
582.641	30.15
582.764	27.15
582.886	44.15
583.009	23.15
583.131	27.15
583.254	39.15
583.376	52.15
583.499	37.15
583.621	34.15
583.743	48.15
583.866	38.15
583.988	50.15
584.111	43.15
584.233	39.15
584.356	33.15
584.478	35.15
584.601	21.15
584.723	25.15
584.845	51.15
584.968	19.15
585.09	2.15
585.213	36.15
585.335	19.15
585.458	41.15
585.58	22.15
585.702	44.15
585.825	36.15
585.947	17.15
586.07	18.15
586.192	30.15
586.315	58.15
586.437	24.15
586.559	17.15
586.682	14.15
586.804	28.15
586.927	17.15
587.049	26.15
587.171	42.15
587.294	38.15
587.416	51.15
587.539	28.15
587.661	13.15
587.783	11.15
587.906	23.15
588.028	38.15
588.151	32.15
588.273	40.15
588.395	20.15
588.518	1.15
588.64	3.15
588.763	23.15
588.885	50.15
589.007	41.15
589.13	6.15
589.252	23.15
589.375	21.15
589.497	10.15
589.619	32.15
589.742	23.15
589.864	25.15
589.986	35.15
590.109	24.15
590.231	13.15
590.354	17.15
590.476	9.15
590.598	19.15
590.721	16.15
590.843	39.15
590.965	26.15
591.088	37.15
591.21	25.15
591.332	25.15
591.455	19.15
591.577	17.15
591.7	27.15
591.822	28.15
591.944	31.15
592.067	19.15
592.189	20.15
592.311	32.15
592.434	30.15
592.556	45.15
592.678	8.15
592.801	10.15
592.923	15.15
593.045	-1.85
593.168	20.15
593.29	17.15
593.412	28.15
593.535	3.15
593.657	10.15
593.779	12.15
593.902	34.15
594.024	31.15
594.146	21.15
594.269	18.15
594.391	19.15
594.513	18.15
594.636	12.15
594.758	12.15
594.88	27.15
595.003	18.15
595.125	10.15
595.247	20.15
595.37	26.15
595.492	5.15
595.614	26.15
595.737	-2.85
595.859	29.15
595.981	19.15
596.104	3.15
596.226	19.15
596.348	19.15
596.471	19.15
596.593	29.15
596.715	23.15
596.838	28.15
596.96	6.15
597.082	12.15
597.204	10.15
597.327	13.15
597.449	5.15
597.571	7.15
597.694	37.15
597.816	31.15
597.938	28.15
598.061	31.15
598.183	22.15
598.305	27.15
598.427	22.15
598.55	18.15
598.672	28.15
598.794	17.15
598.917	21.15
599.039	22.15
599.161	27.15
599.283	17.15
599.406	25.15
599.528	34.15
599.65	36.15
599.773	25.15
599.895	29.15
600.017	47.15
600.139	27.15
600.262	9.15
600.384	19.15
600.506	37.15
600.628	34.15
600.751	38.15
600.873	19.15
600.995	9.15
601.118	17.15
601.24	29.15
601.362	38.15
601.484	25.15
601.607	24.15
601.729	21.15
601.851	23.15
601.973	24.15
602.096	31.15
602.218	31.15
602.34	24.15
602.462	25.15
602.585	41.15
602.707	8.15
602.829	17.15
602.951	27.15
603.074	0.15
603.196	17.15
603.318	25.15
603.44	28.15
603.563	14.15
603.685	9.15
603.807	22.15
603.929	30.15
604.052	30.15
604.174	31.15
604.296	13.15
604.418	26.15
604.541	36.15
604.663	19.15
604.785	8.15
604.907	5.15
605.03	5.15
605.152	34.15
605.274	25.15
605.396	14.15
605.519	19.15
605.641	14.15
605.763	8.15
605.885	7.15
606.008	9.15
606.13	29.15
606.252	27.15
606.374	9.15
606.496	5.15
606.619	23.15
606.741	8.15
606.863	42.15
606.985	35.15
607.108	27.15
607.23	31.15
607.352	37.15
607.474	25.15
607.596	31.15
607.719	7.15
607.841	25.15
607.963	22.15
608.085	23.15
608.207	49.15
608.33	20.15
608.452	15.15
608.574	1.15
608.696	22.15
608.819	22.15
608.941	14.15
609.063	17.15
609.185	11.15
609.307	36.15
609.43	52.15
609.552	25.15
609.674	6.15
609.796	29.15
609.918	31.15
610.041	25.15
610.163	27.15
610.285	37.15
610.407	15.15
610.529	10.15
610.652	24.15
610.774	29.15
610.896	17.15
611.018	26.15
611.14	12.15
611.263	20.15
611.385	17.15
611.507	14.15
611.629	14.15
611.751	31.15
611.873	35.15
611.996	33.15
612.118	34.15
612.24	22.15
612.362	24.15
612.484	47.15
612.607	28.15
612.729	34.15
612.851	34.15
612.973	18.15
613.095	9.15
613.218	13.15
613.34	10.15
613.462	31.15
613.584	10.15
613.706	13.15
613.828	41.15
613.951	7.15
614.073	-1.85
614.195	9.15
614.317	24.15
614.439	26.15
614.561	36.15
614.684	39.15
614.806	18.15
614.928	21.15
615.05	30.15
615.172	28.15
615.294	26.15
615.417	31.15
615.539	14.15
615.661	21.15
615.783	29.15
615.905	13.15
616.027	15.15
616.15	37.15
616.272	22.15
616.394	7.15
616.516	14.15
616.638	21.15
616.76	13.15
616.883	7.15
617.005	16.15
617.127	-0.85
617.249	25.15
617.371	4.15
617.493	21.15
617.615	22.15
617.738	27.15
617.86	15.15
617.982	35.15
618.104	2.15
618.226	6.15
618.348	11.15
618.471	28.15
618.593	30.15
618.715	1.15
618.837	25.15
618.959	22.15
619.081	27.15
619.203	22.15
619.326	25.15
619.448	40.15
619.57	39.15
619.692	37.15
619.814	27.15
619.936	14.15
620.058	18.15
620.181	21.15
620.303	14.15
620.425	34.15
620.547	20.15
620.669	13.15
620.791	7.15
620.913	11.15
621.036	22.15
621.158	19.15
621.28	14.15
621.402	18.15
621.524	5.15
621.646	29.15
621.768	10.15
621.891	-10.85
622.013	23.15
622.135	12.15
622.257	-6.85
622.379	9.15
622.501	6.15
622.623	1.15
622.745	8.15
622.868	18.15
622.99	8.15
623.112	34.15
623.234	18.15
623.356	23.15
623.478	26.15
623.6	31.15
623.722	28.15
623.845	27.15
623.967	5.15
624.089	39.15
624.211	22.15
624.333	21.15
624.455	21.15
624.577	11.15
624.699	27.15
624.822	21.15
624.944	10.15
625.066	26.15
625.188	18.15
625.31	19.15
625.432	26.15
625.554	8.15
625.676	26.15
625.799	17.15
625.921	13.15
626.043	17.15
626.165	29.15
626.287	-9.85
626.409	26.15
626.531	9.15
626.653	11.15
626.775	25.15
626.898	13.15
627.02	17.15
627.142	22.15
627.264	33.15
627.386	16.15
627.508	14.15
627.63	-5.85
627.752	25.15
627.874	13.15
627.997	18.15
628.119	9.15
628.241	25.15
628.363	26.15
628.485	16.15
628.607	15.15
628.729	11.15
628.851	-8.85
628.973	15.15
629.096	1.15
629.218	11.15
629.34	13.15
629.462	16.15
629.584	4.15
629.706	13.15
629.828	38.15
629.95	18.15
630.072	1.15
630.195	14.15
630.317	20.15
630.439	17.15
630.561	6.15
630.683	12.15
630.805	11.15
630.927	2.15
631.049	15.15
631.171	1.15
631.293	9.15
631.416	17.15
631.538	13.15
631.66	9.15
631.782	9.15
631.904	25.15
632.026	-4.85
632.148	4.15
632.27	14.15
632.392	20.15
632.514	15.15
632.637	18.15
632.759	0.15
632.881	-0.85
633.003	14.15
633.125	-0.85
633.247	16.15
633.369	13.15
633.491	24.15
633.613	29.15
633.735	4.15
633.858	12.15
633.98	6.15
634.102	3.15
634.224	-1.85
634.346	25.15
634.468	15.15
634.59	2.15
634.712	18.15
634.834	29.15
634.956	-9.85
635.078	5.15
635.201	16.15
635.323	21.15
635.445	-3.85
635.567	-3.85
635.689	2.15
635.811	18.15
635.933	12.15
636.055	20.15
636.177	3.15
636.299	27.15
636.421	1.15
636.544	5.15
636.666	22.15
636.788	9.15
636.91	13.15
637.032	4.15
637.154	31.15
637.276	18.15
637.398	17.15
637.52	18.15
637.642	22.15
637.764	6.15
637.887	-1.85
638.009	-8.85
638.131	3.15
638.253	3.15
638.375	15.15
638.497	25.15
638.619	-9.85
638.741	9.15
638.863	-18.85
638.985	1.15
639.107	3.15
639.23	16.15
639.352	20.15
639.474	13.15
639.596	18.15
639.718	13.15
639.84	19.15
639.962	14.15
640.084	24.15
640.206	17.15
640.328	2.15
640.45	5.15
640.573	11.15
640.695	9.15
640.817	7.15
640.939	22.15
641.061	5.15
641.183	3.15
641.305	15.15
641.427	17.15
641.549	12.15
641.671	19.15
641.793	11.15
641.915	27.15
642.038	8.15
642.16	17.15
642.282	-5.85
642.404	-2.85
642.526	15.15
642.648	2.15
642.77	8.15
642.892	9.15
643.014	11.15
643.136	33.15
643.258	4.15
643.381	28.15
643.503	31.15
643.625	13.15
643.747	-4.85
643.869	9.15
643.991	9.15
644.113	26.15
644.235	22.15
644.357	10.15
644.479	17.15
644.601	5.15
644.723	-2.85
644.846	7.15
644.968	1.15
645.09	4.15
645.212	2.15
645.334	27.15
645.456	18.15
645.578	35.15
645.7	19.15
645.822	19.15
645.944	18.15
646.066	30.15
646.188	11.15
646.311	45.15
646.433	10.15
646.555	14.15
646.677	8.15
646.799	9.15
646.921	5.15
647.043	38.15
647.165	-6.85
647.287	14.15
647.409	4.15
647.531	24.15
647.654	-4.85
647.776	9.15
647.898	5.15
648.02	1.15
648.142	15.15
648.264	1.15
648.386	9.15
648.508	10.15
648.63	15.15
648.752	6.15
648.874	9.15
648.997	10.15
649.119	24.15
649.241	21.15
649.363	43.15
649.485	19.15
649.607	-0.85
649.729	13.15
649.851	16.15
649.973	16.15
650.095	17.15
650.217	23.15
650.34	2.15
650.462	22.15
650.584	7.15
650.706	7.15
650.828	15.15
650.95	13.15
651.072	34.15
651.194	-0.85
651.316	2.15
651.438	8.15
651.56	-4.85
651.683	4.15
651.805	5.15
651.927	7.15
652.049	-9.85
652.171	-8.85
652.293	-4.85
652.415	-2.85
652.537	-11.85
652.659	-13.85
652.781	6.15
652.903	17.15
653.026	18.15
653.148	13.15
653.27	4.15
653.392	9.15
653.514	18.15
653.636	-4.85
653.758	7.15
653.88	18.15
654.002	-9.85
654.124	-15.85
654.247	6.15
654.369	19.15
654.491	14.15
654.613	-0.85
654.735	13.15
654.857	24.15
654.979	8.15
655.101	6.15
655.223	23.15
655.345	-2.85
655.468	23.15
655.59	8.15
655.712	8.15
655.834	18.15
655.956	3.15
656.078	27.15
656.2	2.15
656.322	6.15
656.444	-1.85
656.566	10.15
656.689	6.15
656.811	5.15
656.933	31.15
657.055	-2.85
657.177	9.15
657.299	5.15
657.421	-4.85
657.543	11.15
657.665	1.15
657.787	-4.85
657.91	14.15
658.032	4.15
658.154	-4.85
658.276	25.15
658.398	1.15
658.52	14.15
658.642	1.15
658.764	17.15
658.886	-3.85
659.009	-0.85
659.131	25.15
659.253	16.15
659.375	6.15
659.497	5.15
659.619	4.15
659.741	-0.85
659.863	2.15
659.985	-5.85
660.108	14.15
660.23	-19.85
660.352	7.15
660.474	15.15
660.596	16.15
660.718	10.15
660.84	17.15
660.962	17.15
661.084	2.15
661.207	8.15
661.329	20.15
661.451	10.15
661.573	4.15
661.695	22.15
661.817	14.15
661.939	22.15
662.061	25.15
662.184	-1.85
662.306	7.15
662.428	6.15
662.55	11.15
662.672	9.15
662.794	21.15
662.916	11.15
663.038	-6.85
663.161	11.15
663.283	35.15
663.405	12.15
663.527	6.15
663.649	21.15
663.771	6.15
663.893	2.15
664.015	3.15
664.138	1.15
664.26	21.15
664.382	-1.85
664.504	10.15
664.626	-7.85
664.748	1.15
664.87	-6.85
664.992	28.15
665.115	6.15
665.237	16.15
665.359	3.15
665.481	14.15
665.603	17.15
665.725	-9.85
665.847	-13.85
665.97	13.15
666.092	21.15
666.214	24.15
666.336	-6.85
666.458	25.15
666.58	0.15
666.702	-6.85
666.825	10.15
666.947	4.15
667.069	3.15
667.191	6.15
667.313	9.15
667.435	20.15
667.557	1.15
667.68	4.15
667.802	3.15
667.924	9.15
668.046	-2.85
668.168	4.15
668.29	20.15
668.412	-10.85
668.535	7.15
668.657	17.15
668.779	-10.85
668.901	17.15
669.023	27.15
669.145	7.15
669.267	19.15
669.39	18.15
669.512	6.15
669.634	6.15
669.756	8.15
669.878	12.15
670	5.15
670.123	-1.85
670.245	37.15
670.367	16.15
670.489	19.15
670.611	-2.85
670.733	5.15
670.856	1.15
670.978	15.15
671.1	7.15
671.222	18.15
671.344	9.15
671.466	-13.85
671.589	-0.85
671.711	1.15
671.833	25.15
671.955	2.15
672.077	-0.85
672.199	1.15
672.322	32.15
672.444	13.15
672.566	11.15
672.688	6.15
672.81	3.15
672.932	7.15
673.055	-6.85
673.177	-8.85
673.299	9.15
673.421	-4.85
673.543	1.15
673.665	16.15
673.788	25.15
673.91	22.15
674.032	-1.85
674.154	17.15
674.276	2.15
674.399	6.15
674.521	14.15
674.643	-9.85
674.765	-3.85
674.887	13.15
675.009	5.15
675.132	-6.85
675.254	9.15
675.376	5.15
675.498	18.15
675.62	13.15
675.743	7.15
675.865	19.15
675.987	-4.85
676.109	-7.85
676.231	6.15
676.354	21.15
676.476	-1.85
676.598	22.15
676.72	6.15
676.842	11.15
676.965	1.15
677.087	16.15
677.209	14.15
677.331	5.15
677.453	18.15
677.576	4.15
677.698	19.15
677.82	6.15
677.942	7.15
678.064	5.15
678.187	3.15
678.309	1.15
678.431	6.15
678.553	7.15
678.675	31.15
678.798	34.15
678.92	24.15
679.042	2.15
679.164	2.15
679.286	1.15
679.409	-5.85
679.531	-13.85
679.653	-2.85
679.775	-1.85
679.898	2.15
680.02	15.15
680.142	-3.85
680.264	12.15
680.386	1.15
680.509	4.15
680.631	11.15
680.753	23.15
680.875	-0.85
680.998	17.15
681.12	3.15
681.242	23.15
681.364	-12.85
681.486	9.15
681.609	2.15
681.731	-0.85
681.853	-1.85
681.975	1.15
682.098	20.15
682.22	33.15
682.342	19.15
682.464	-4.85
682.587	23.15
682.709	10.15
682.831	-9.85
682.953	-16.85
683.076	17.15
683.198	3.15
683.32	26.15
683.442	11.15
683.565	17.15
683.687	-3.85
683.809	6.15
683.931	-2.85
684.054	17.15
684.176	10.15
684.298	22.15
684.42	13.15
684.543	17.15
684.665	20.15
684.787	1.15
684.909	-5.85
685.032	11.15
685.154	5.15
685.276	-2.85
685.398	-17.85
685.521	-22.85
685.643	1.15
685.765	9.15
685.887	10.15
686.01	3.15
686.132	-1.85
686.254	19.15
686.377	22.15
686.499	15.15
686.621	7.15
686.743	16.15
686.866	17.15
686.988	7.15
687.11	16.15
687.232	13.15
687.355	2.15
687.477	-3.85
687.599	23.15
687.722	16.15
687.844	-1.85
687.966	8.15
688.088	23.15
688.211	38.15
688.333	21.15
688.455	1.15
688.578	1.15
688.7	17.15
688.822	21.15
688.944	2.15
689.067	35.15
689.189	14.15
689.311	1.15
689.434	-1.85
689.556	19.15
689.678	11.15
689.801	-1.85
689.923	11.15
690.045	11.15
690.167	19.15
690.29	22.15
690.412	4.15
690.534	7.15
690.657	10.15
690.779	18.15
690.901	10.15
691.024	11.15
691.146	7.15
691.268	-0.85
691.391	4.15
691.513	11.15
691.635	15.15
691.758	9.15
691.88	18.15
692.002	7.15
692.125	9.15
692.247	-13.85
692.369	9.15
692.492	-1.85
692.614	5.15
692.736	3.15
692.859	-5.85
692.981	13.15
693.103	20.15
693.226	15.15
693.348	27.15
693.47	6.15
693.593	25.15
693.715	33.15
693.837	21.15
693.96	23.15
694.082	12.15
694.204	17.15
694.327	13.15
694.449	6.15
694.571	14.15
694.694	12.15
694.816	19.15
694.938	-0.85
695.061	4.15
695.183	-1.85
695.305	1.15
695.428	22.15
695.55	10.15
695.672	8.15
695.795	22.15
695.917	24.15
696.04	3.15
696.162	5.15
696.284	2.15
696.407	1.15
696.529	6.15
696.651	20.15
696.774	22.15
696.896	2.15
697.019	2.15
697.141	1.15
697.263	17.15
697.386	-1.85
697.508	-0.85
697.63	9.15
697.753	26.15
697.875	4.15
697.998	7.15
698.12	27.15
698.242	22.15
698.365	2.15
698.487	12.15
698.61	10.15
698.732	5.15
698.854	18.15
698.977	9.15
699.099	18.15
699.221	-5.85
699.344	10.15
699.466	14.15
699.589	19.15
699.711	13.15
699.834	4.15
699.956	0.15
700.078	11.15
700.201	12.15
700.323	3.15
700.446	6.15
700.568	18.15
700.69	5.15
700.813	7.15
700.935	3.15
701.058	-7.85
701.18	1.15
701.302	2.15
701.425	2.15
701.547	19.15
701.67	10.15
701.792	6.15
701.915	-6.85
702.037	11.15
702.159	9.15
702.282	-1.85
702.404	2.15
702.527	39.15
702.649	28.15
702.772	12.15
702.894	22.15
703.017	21.15
703.139	14.15
703.261	14.15
703.384	11.15
703.506	-2.85
703.629	12.15
703.751	8.15
703.874	19.15
703.996	4.15
704.119	6.15
704.241	20.15
704.364	-0.85
704.486	9.15
704.608	14.15
704.731	2.15
704.853	9.15
704.976	9.15
705.098	7.15
705.221	12.15
705.343	15.15
705.466	19.15
705.588	18.15
705.711	26.15
705.833	4.15
705.956	1.15
706.078	18.15
706.201	2.15
706.323	23.15
706.446	4.15
