Data from LowRes_mercury_15_20_11_07_2024_HR4C61881__68__15-23-39-070.txt Node

Date: Thu Nov 07 15:23:39 EST 2024
User: crc00042
Spectrometer: HR4C6188
Trigger mode: 4
Integration Time (sec): 1.000000E-1
Scans to average: 1
Electric dark correction enabled: true
Nonlinearity correction enabled: false
Boxcar width: 0
XAxis mode: Wavelengths
Number of Pixels in Spectrum: 3648
>>>>>Begin Spectral Data<<<<<
245.66	-55.85
245.797	-55.85
245.934	-55.85
246.071	-87.85
246.208	-1.85
246.344	-0.85
246.481	-6.85
246.618	-6.85
246.755	25.15
246.892	-4.85
247.029	-11.85
247.165	-22.85
247.302	15.15
247.439	12.15
247.576	4.15
247.713	-16.85
247.849	37.15
247.986	-22.85
248.123	7.15
248.26	2.15
248.396	-2.85
248.533	-10.85
248.67	-18.85
248.806	10.15
248.943	-11.85
249.08	0.15
249.216	-2.85
249.353	-17.85
249.49	-16.85
249.626	8.15
249.763	3.15
249.9	5.15
250.036	-0.85
250.173	8.15
250.309	-10.85
250.446	2.15
250.582	21.15
250.719	7.15
250.856	-10.85
250.992	-9.85
251.129	3.15
251.265	3.15
251.402	-7.85
251.538	-1.85
251.675	3.15
251.811	10.15
251.948	16.15
252.084	12.15
252.221	6.15
252.357	-8.85
252.493	12.15
252.63	-7.85
252.766	13.15
252.903	4.15
253.039	2.15
253.175	19.15
253.312	8.15
253.448	-12.85
253.585	-11.85
253.721	4.15
253.857	-2.85
253.994	5.15
254.13	6.15
254.266	4.15
254.403	-3.85
254.539	-2.85
254.675	8.15
254.811	-1.85
254.948	1.15
255.084	-6.85
255.22	-4.85
255.356	-11.85
255.493	17.15
255.629	2.15
255.765	-3.85
255.901	13.15
256.037	-1.85
256.174	12.15
256.31	2.15
256.446	9.15
256.582	-3.85
256.718	22.15
256.854	23.15
256.991	7.15
257.127	21.15
257.263	9.15
257.399	0.15
257.535	-22.85
257.671	-4.85
257.807	1.15
257.943	-0.85
258.079	-29.85
258.215	3.15
258.351	15.15
258.487	11.15
258.623	34.15
258.759	11.15
258.895	10.15
259.031	5.15
259.167	1.15
259.303	-2.85
259.439	-0.85
259.575	-2.85
259.711	0.15
259.847	-6.85
259.983	15.15
260.119	-10.85
260.255	-3.85
260.391	18.15
260.527	16.15
260.663	9.15
260.799	-8.85
260.934	-0.85
261.07	-7.85
261.206	-8.85
261.342	-12.85
261.478	12.15
261.614	2.15
261.749	-1.85
261.885	1.15
262.021	-5.85
262.157	0.15
262.293	3.15
262.428	5.15
262.564	-4.85
262.7	11.15
262.836	3.15
262.971	-7.85
263.107	-4.85
263.243	9.15
263.378	23.15
263.514	-7.85
263.65	13.15
263.785	-13.85
263.921	6.15
264.057	-12.85
264.192	8.15
264.328	16.15
264.464	-18.85
264.599	-4.85
264.735	13.15
264.871	-6.85
265.006	19.15
265.142	4.15
265.277	12.15
265.413	9.15
265.548	24.15
265.684	11.15
265.819	6.15
265.955	-12.85
266.091	-11.85
266.226	-15.85
266.362	2.15
266.497	6.15
266.633	-7.85
266.768	-3.85
266.903	16.15
267.039	22.15
267.174	26.15
267.31	14.15
267.445	-4.85
267.581	-15.85
267.716	-15.85
267.851	-10.85
267.987	1.15
268.122	26.15
268.258	-4.85
268.393	-5.85
268.528	15.15
268.664	-3.85
268.799	8.15
268.934	6.15
269.07	5.15
269.205	4.15
269.34	11.15
269.476	14.15
269.611	-3.85
269.746	16.15
269.881	5.15
270.017	11.15
270.152	0.15
270.287	-5.85
270.422	-0.85
270.558	10.15
270.693	-0.85
270.828	4.15
270.963	1.15
271.098	0.15
271.234	-12.85
271.369	22.15
271.504	-7.85
271.639	-10.85
271.774	2.15
271.909	8.15
272.045	-10.85
272.18	-1.85
272.315	2.15
272.45	9.15
272.585	0.15
272.72	-3.85
272.855	13.15
272.99	13.15
273.125	8.15
273.26	-15.85
273.395	-14.85
273.53	-2.85
273.665	21.15
273.8	-8.85
273.935	7.15
274.07	-11.85
274.205	-8.85
274.34	18.15
274.475	1.15
274.61	3.15
274.745	-3.85
274.88	16.15
275.015	-7.85
275.15	0.15
275.285	5.15
275.42	1.15
275.555	11.15
275.69	3.15
275.825	4.15
275.959	9.15
276.094	1.15
276.229	-2.85
276.364	-6.85
276.499	2.15
276.634	14.15
276.768	-5.85
276.903	-9.85
277.038	10.15
277.173	8.15
277.308	0.15
277.442	5.15
277.577	-2.85
277.712	4.15
277.847	-4.85
277.981	23.15
278.116	-8.85
278.251	13.15
278.386	-0.85
278.52	5.15
278.655	-6.85
278.79	5.15
278.924	5.15
279.059	7.15
279.194	-4.85
279.328	24.15
279.463	12.15
279.598	17.15
279.732	10.15
279.867	19.15
280.001	21.15
280.136	-11.85
280.271	12.15
280.405	4.15
280.54	7.15
280.674	4.15
280.809	0.15
280.943	2.15
281.078	14.15
281.213	22.15
281.347	28.15
281.482	8.15
281.616	-16.85
281.751	8.15
281.885	-13.85
282.02	-2.85
282.154	-6.85
282.288	-19.85
282.423	-19.85
282.557	-13.85
282.692	-0.85
282.826	-8.85
282.961	8.15
283.095	6.15
283.229	-6.85
283.364	-13.85
283.498	-11.85
283.633	13.15
283.767	10.15
283.901	5.15
284.036	13.15
284.17	-0.85
284.304	-14.85
284.439	-6.85
284.573	5.15
284.707	13.15
284.842	13.15
284.976	10.15
285.11	-14.85
285.244	6.15
285.379	37.15
285.513	-11.85
285.647	7.15
285.781	17.15
285.916	9.15
286.05	20.15
286.184	19.15
286.318	5.15
286.453	-1.85
286.587	-9.85
286.721	8.15
286.855	10.15
286.989	21.15
287.123	5.15
287.258	-2.85
287.392	-0.85
287.526	12.15
287.66	1.15
287.794	3.15
287.928	1.15
288.062	9.15
288.196	-11.85
288.33	17.15
288.464	19.15
288.598	7.15
288.733	13.15
288.867	16.15
289.001	-4.85
289.135	7.15
289.269	-0.85
289.403	-7.85
289.537	1.15
289.671	22.15
289.805	-15.85
289.939	27.15
290.073	6.15
290.207	8.15
290.34	6.15
290.474	24.15
290.608	12.15
290.742	-2.85
290.876	-3.85
291.01	5.15
291.144	24.15
291.278	22.15
291.412	2.15
291.546	-0.85
291.679	19.15
291.813	0.15
291.947	11.15
292.081	2.15
292.215	18.15
292.349	17.15
292.482	12.15
292.616	-7.85
292.75	-3.85
292.884	4.15
293.018	5.15
293.151	-22.85
293.285	5.15
293.419	-15.85
293.553	1.15
293.686	-17.85
293.82	0.15
293.954	25.15
294.088	32.15
294.221	0.15
294.355	-17.85
294.489	-1.85
294.622	-4.85
294.756	2.15
294.89	17.15
295.023	16.15
295.157	-2.85
295.291	1.15
295.424	24.15
295.558	0.15
295.691	1.15
295.825	-10.85
295.959	0.15
296.092	1.15
296.226	-12.85
296.359	-8.85
296.493	16.15
296.627	-5.85
296.76	-3.85
296.894	-6.85
297.027	1.15
297.161	2.15
297.294	-28.85
297.428	11.15
297.561	23.15
297.695	5.15
297.828	-3.85
297.962	0.15
298.095	11.15
298.229	1.15
298.362	-27.85
298.495	-10.85
298.629	-2.85
298.762	18.15
298.896	7.15
299.029	-2.85
299.162	-1.85
299.296	-1.85
299.429	-3.85
299.563	-1.85
299.696	3.15
299.829	0.15
299.963	25.15
300.096	13.15
300.229	5.15
300.363	15.15
300.496	-3.85
300.629	-19.85
300.763	-19.85
300.896	-5.85
301.029	1.15
301.162	-7.85
301.296	-4.85
301.429	-6.85
301.562	0.15
301.695	13.15
301.829	26.15
301.962	20.15
302.095	7.15
302.228	-14.85
302.362	12.15
302.495	-8.85
302.628	0.15
302.761	15.15
302.894	20.15
303.027	28.15
303.161	6.15
303.294	0.15
303.427	15.15
303.56	-2.85
303.693	3.15
303.826	5.15
303.959	-11.85
304.092	1.15
304.225	-8.85
304.359	8.15
304.492	5.15
304.625	15.15
304.758	-0.85
304.891	-16.85
305.024	-4.85
305.157	-14.85
305.29	-9.85
305.423	-6.85
305.556	24.15
305.689	22.15
305.822	17.15
305.955	-7.85
306.088	0.15
306.221	-6.85
306.354	-4.85
306.487	-2.85
306.62	-23.85
306.752	-8.85
306.885	-8.85
307.018	-2.85
307.151	9.15
307.284	20.15
307.417	1.15
307.55	-4.85
307.683	1.15
307.816	16.15
307.948	-2.85
308.081	10.15
308.214	19.15
308.347	19.15
308.48	-12.85
308.613	0.15
308.745	16.15
308.878	-16.85
309.011	-2.85
309.144	11.15
309.277	-2.85
309.409	18.15
309.542	-2.85
309.675	10.15
309.808	0.15
309.94	20.15
310.073	0.15
310.206	-5.85
310.339	-1.85
310.471	5.15
310.604	30.15
310.737	1.15
310.869	-0.85
311.002	-13.85
311.135	1.15
311.267	-6.85
311.4	-11.85
311.533	17.15
311.665	5.15
311.798	6.15
311.93	-7.85
312.063	21.15
312.196	33.15
312.328	71.15
312.461	53.15
312.593	48.15
312.726	50.15
312.859	99.15
312.991	159.15
313.124	40.15
313.256	12.15
313.389	-3.85
313.521	-13.85
313.654	-30.85
313.786	-20.85
313.919	8.15
314.051	-0.85
314.184	24.15
314.316	13.15
314.449	-10.85
314.581	-7.85
314.714	0.15
314.846	-4.85
314.978	-17.85
315.111	3.15
315.243	1.15
315.376	15.15
315.508	10.15
315.641	1.15
315.773	0.15
315.905	1.15
316.038	-5.85
316.17	22.15
316.302	9.15
316.435	8.15
316.567	-2.85
316.699	30.15
316.832	-3.85
316.964	-14.85
317.096	-7.85
317.229	-3.85
317.361	-12.85
317.493	-8.85
317.625	-11.85
317.758	-0.85
317.89	21.15
318.022	-2.85
318.155	-1.85
318.287	1.15
318.419	-7.85
318.551	10.15
318.683	9.15
318.816	-8.85
318.948	3.15
319.08	-2.85
319.212	3.15
319.344	-14.85
319.477	-11.85
319.609	1.15
319.741	14.15
319.873	6.15
320.005	5.15
320.137	11.15
320.269	12.15
320.401	11.15
320.534	-9.85
320.666	-6.85
320.798	-24.85
320.93	-6.85
321.062	-5.85
321.194	8.15
321.326	0.15
321.458	10.15
321.59	10.15
321.722	-13.85
321.854	17.15
321.986	1.15
322.118	8.15
322.25	-12.85
322.382	-5.85
322.514	-4.85
322.646	-0.85
322.778	10.15
322.91	0.15
323.042	0.15
323.174	-0.85
323.306	3.15
323.438	-20.85
323.57	-1.85
323.702	9.15
323.834	1.15
323.966	-3.85
324.097	4.15
324.229	-0.85
324.361	2.15
324.493	-1.85
324.625	20.15
324.757	21.15
324.889	7.15
325.021	9.15
325.152	26.15
325.284	26.15
325.416	4.15
325.548	6.15
325.68	-14.85
325.811	16.15
325.943	16.15
326.075	-11.85
326.207	7.15
326.339	13.15
326.47	1.15
326.602	19.15
326.734	19.15
326.866	-6.85
326.997	-11.85
327.129	-0.85
327.261	-14.85
327.392	2.15
327.524	7.15
327.656	1.15
327.787	20.15
327.919	19.15
328.051	15.15
328.182	12.15
328.314	32.15
328.446	24.15
328.577	19.15
328.709	2.15
328.841	-2.85
328.972	-0.85
329.104	5.15
329.235	9.15
329.367	4.15
329.499	20.15
329.63	10.15
329.762	-0.85
329.893	27.15
330.025	-7.85
330.156	-11.85
330.288	-3.85
330.419	19.15
330.551	12.15
330.683	0.15
330.814	12.15
330.946	9.15
331.077	9.15
331.208	-2.85
331.34	7.15
331.471	-2.85
331.603	0.15
331.734	0.15
331.866	17.15
331.997	10.15
332.129	3.15
332.26	9.15
332.392	39.15
332.523	13.15
332.654	-16.85
332.786	5.15
332.917	0.15
333.048	19.15
333.18	18.15
333.311	-3.85
333.443	8.15
333.574	0.15
333.705	23.15
333.837	46.15
333.968	108.15
334.099	210.15
334.231	215.15
334.362	59.15
334.493	24.15
334.624	13.15
334.756	16.15
334.887	22.15
335.018	-13.85
335.15	16.15
335.281	1.15
335.412	18.15
335.543	-2.85
335.675	6.15
335.806	1.15
335.937	10.15
336.068	34.15
336.199	37.15
336.331	22.15
336.462	8.15
336.593	19.15
336.724	20.15
336.855	17.15
336.986	25.15
337.118	6.15
337.249	10.15
337.38	18.15
337.511	7.15
337.642	10.15
337.773	8.15
337.904	-6.85
338.035	16.15
338.166	11.15
338.298	14.15
338.429	-10.85
338.56	13.15
338.691	8.15
338.822	17.15
338.953	5.15
339.084	23.15
339.215	21.15
339.346	11.15
339.477	8.15
339.608	22.15
339.739	13.15
339.87	0.15
340.001	-2.85
340.132	22.15
340.263	-4.85
340.394	39.15
340.525	36.15
340.656	17.15
340.787	7.15
340.918	28.15
341.049	3.15
341.179	-4.85
341.31	16.15
341.441	24.15
341.572	29.15
341.703	6.15
341.834	0.15
341.965	27.15
342.096	10.15
342.227	17.15
342.357	5.15
342.488	13.15
342.619	12.15
342.75	14.15
342.881	13.15
343.012	32.15
343.142	38.15
343.273	15.15
343.404	29.15
343.535	55.15
343.666	42.15
343.796	29.15
343.927	25.15
344.058	31.15
344.189	16.15
344.319	7.15
344.45	12.15
344.581	28.15
344.712	7.15
344.842	18.15
344.973	11.15
345.104	13.15
345.234	7.15
345.365	18.15
345.496	10.15
345.626	12.15
345.757	23.15
345.888	-1.85
346.018	23.15
346.149	36.15
346.28	32.15
346.41	26.15
346.541	33.15
346.672	11.15
346.802	38.15
346.933	30.15
347.063	29.15
347.194	30.15
347.325	36.15
347.455	45.15
347.586	44.15
347.716	33.15
347.847	19.15
347.977	32.15
348.108	28.15
348.238	42.15
348.369	37.15
348.499	40.15
348.63	32.15
348.76	60.15
348.891	56.15
349.021	59.15
349.152	40.15
349.282	62.15
349.413	45.15
349.543	69.15
349.674	36.15
349.804	47.15
349.935	36.15
350.065	18.15
350.196	8.15
350.326	41.15
350.456	20.15
350.587	45.15
350.717	26.15
350.848	36.15
350.978	25.15
351.108	15.15
351.239	29.15
351.369	10.15
351.499	34.15
351.63	22.15
351.76	12.15
351.89	19.15
352.021	12.15
352.151	-0.85
352.281	18.15
352.412	37.15
352.542	21.15
352.672	9.15
352.803	33.15
352.933	33.15
353.063	38.15
353.193	33.15
353.324	35.15
353.454	19.15
353.584	30.15
353.714	9.15
353.845	25.15
353.975	10.15
354.105	-3.85
354.235	34.15
354.365	29.15
354.496	42.15
354.626	14.15
354.756	29.15
354.886	-6.85
355.016	27.15
355.146	17.15
355.277	9.15
355.407	27.15
355.537	30.15
355.667	23.15
355.797	16.15
355.927	8.15
356.057	38.15
356.187	23.15
356.318	2.15
356.448	28.15
356.578	29.15
356.708	23.15
356.838	14.15
356.968	40.15
357.098	19.15
357.228	31.15
357.358	42.15
357.488	28.15
357.618	36.15
357.748	32.15
357.878	28.15
358.008	31.15
358.138	38.15
358.268	36.15
358.398	27.15
358.528	24.15
358.658	45.15
358.788	36.15
358.918	32.15
359.048	30.15
359.178	24.15
359.308	20.15
359.438	54.15
359.568	56.15
359.698	40.15
359.827	16.15
359.957	27.15
360.087	16.15
360.217	20.15
360.347	40.15
360.477	24.15
360.607	16.15
360.737	19.15
360.866	33.15
360.996	7.15
361.126	14.15
361.256	31.15
361.386	43.15
361.516	50.15
361.645	11.15
361.775	16.15
361.905	-1.85
362.035	21.15
362.165	30.15
362.294	24.15
362.424	50.15
362.554	55.15
362.684	13.15
362.813	42.15
362.943	58.15
363.073	52.15
363.203	50.15
363.332	69.15
363.462	78.15
363.592	102.15
363.721	117.15
363.851	167.15
363.981	203.15
364.111	246.15
364.24	301.15
364.37	477.15
364.5	866.15
364.629	1821.15
364.759	3900.15
364.888	6296.15
365.018	9509.15
365.148	14826.15
365.277	13020.15
365.407	4738.15
365.537	3084.15
365.666	4037.15
365.796	1834.15
365.925	812.15
366.055	775.15
366.184	1039.15
366.314	1369.15
366.444	2455.15
366.573	2144.15
366.703	669.15
366.832	196.15
366.962	117.15
367.091	80.15
367.221	75.15
367.35	55.15
367.48	105.15
367.609	57.15
367.739	48.15
367.868	42.15
367.998	50.15
368.127	28.15
368.257	51.15
368.386	71.15
368.516	51.15
368.645	57.15
368.775	46.15
368.904	29.15
369.033	11.15
369.163	37.15
369.292	23.15
369.422	50.15
369.551	42.15
369.68	40.15
369.81	21.15
369.939	34.15
370.069	63.15
370.198	33.15
370.327	23.15
370.457	37.15
370.586	48.15
370.715	23.15
370.845	22.15
370.974	45.15
371.103	49.15
371.233	49.15
371.362	48.15
371.491	34.15
371.621	42.15
371.75	40.15
371.879	47.15
372.008	40.15
372.138	49.15
372.267	71.15
372.396	45.15
372.525	39.15
372.655	23.15
372.784	17.15
372.913	14.15
373.042	14.15
373.172	25.15
373.301	-0.85
373.43	11.15
373.559	20.15
373.688	50.15
373.818	39.15
373.947	38.15
374.076	24.15
374.205	33.15
374.334	9.15
374.463	17.15
374.593	28.15
374.722	29.15
374.851	43.15
374.98	15.15
375.109	27.15
375.238	28.15
375.367	33.15
375.496	13.15
375.625	6.15
375.755	20.15
375.884	29.15
376.013	27.15
376.142	2.15
376.271	10.15
376.4	20.15
376.529	15.15
376.658	24.15
376.787	5.15
376.916	28.15
377.045	20.15
377.174	31.15
377.303	32.15
377.432	44.15
377.561	25.15
377.69	15.15
377.819	36.15
377.948	18.15
378.077	1.15
378.206	-4.85
378.335	13.15
378.464	9.15
378.593	23.15
378.722	8.15
378.851	6.15
378.98	27.15
379.108	26.15
379.237	0.15
379.366	20.15
379.495	20.15
379.624	14.15
379.753	33.15
379.882	29.15
380.011	-0.85
380.14	10.15
380.268	17.15
380.397	19.15
380.526	19.15
380.655	29.15
380.784	5.15
380.913	-7.85
381.041	19.15
381.17	0.15
381.299	10.15
381.428	21.15
381.557	20.15
381.685	3.15
381.814	23.15
381.943	-2.85
382.072	0.15
382.2	-5.85
382.329	7.15
382.458	15.15
382.587	32.15
382.715	23.15
382.844	26.15
382.973	23.15
383.102	25.15
383.23	21.15
383.359	9.15
383.488	29.15
383.616	10.15
383.745	-5.85
383.874	16.15
384.003	15.15
384.131	16.15
384.26	20.15
384.389	22.15
384.517	1.15
384.646	13.15
384.774	13.15
384.903	47.15
385.032	32.15
385.16	13.15
385.289	14.15
385.418	16.15
385.546	12.15
385.675	25.15
385.803	17.15
385.932	2.15
386.06	2.15
386.189	13.15
386.318	18.15
386.446	11.15
386.575	7.15
386.703	40.15
386.832	9.15
386.96	5.15
387.089	28.15
387.217	12.15
387.346	3.15
387.474	23.15
387.603	25.15
387.731	19.15
387.86	38.15
387.988	12.15
388.117	44.15
388.245	25.15
388.374	4.15
388.502	20.15
388.631	9.15
388.759	8.15
388.888	19.15
389.016	-5.85
389.144	18.15
389.273	17.15
389.401	15.15
389.53	14.15
389.658	40.15
389.786	14.15
389.915	4.15
390.043	12.15
390.172	26.15
390.3	42.15
390.428	40.15
390.557	25.15
390.685	40.15
390.813	47.15
390.942	38.15
391.07	23.15
391.198	13.15
391.327	28.15
391.455	9.15
391.583	48.15
391.712	36.15
391.84	23.15
391.968	22.15
392.096	16.15
392.225	23.15
392.353	30.15
392.481	14.15
392.609	36.15
392.738	36.15
392.866	40.15
392.994	17.15
393.122	26.15
393.251	25.15
393.379	27.15
393.507	7.15
393.635	26.15
393.764	53.15
393.892	38.15
394.02	21.15
394.148	15.15
394.276	17.15
394.404	54.15
394.533	16.15
394.661	28.15
394.789	50.15
394.917	46.15
395.045	18.15
395.173	7.15
395.302	11.15
395.43	13.15
395.558	37.15
395.686	40.15
395.814	46.15
395.942	31.15
396.07	36.15
396.198	37.15
396.326	32.15
396.454	37.15
396.582	50.15
396.711	34.15
396.839	47.15
396.967	23.15
397.095	14.15
397.223	46.15
397.351	48.15
397.479	39.15
397.607	37.15
397.735	49.15
397.863	52.15
397.991	34.15
398.119	31.15
398.247	49.15
398.375	49.15
398.503	73.15
398.631	64.15
398.759	56.15
398.887	54.15
399.015	34.15
399.143	48.15
399.271	72.15
399.399	75.15
399.526	81.15
399.654	81.15
399.782	78.15
399.91	93.15
400.038	97.15
400.166	91.15
400.294	92.15
400.422	91.15
400.55	108.15
400.678	99.15
400.805	104.15
400.933	121.15
401.061	116.15
401.189	119.15
401.317	139.15
401.445	94.15
401.573	65.15
401.7	42.15
401.828	60.15
401.956	49.15
402.084	39.15
402.212	35.15
402.34	35.15
402.467	37.15
402.595	34.15
402.723	40.15
402.851	55.15
402.978	66.15
403.106	80.15
403.234	91.15
403.362	126.15
403.489	110.15
403.617	150.15
403.745	190.15
403.873	268.15
404	565.15
404.128	1453.15
404.256	3880.15
404.384	5062.15
404.511	5482.15
404.639	7214.15
404.767	11446.15
404.894	14607.15
405.022	4928.15
405.15	1283.15
405.277	406.15
405.405	269.15
405.533	131.15
405.66	103.15
405.788	59.15
405.916	43.15
406.043	46.15
406.171	58.15
406.299	60.15
406.426	58.15
406.554	38.15
406.681	78.15
406.809	63.15
406.937	73.15
407.064	69.15
407.192	122.15
407.319	312.15
407.447	535.15
407.574	551.15
407.702	640.15
407.83	851.15
407.957	1587.15
408.085	910.15
408.212	271.15
408.34	92.15
408.467	55.15
408.595	35.15
408.722	48.15
408.85	72.15
408.977	32.15
409.105	28.15
409.232	29.15
409.36	18.15
409.487	23.15
409.615	40.15
409.742	49.15
409.87	17.15
409.997	45.15
410.125	35.15
410.252	44.15
410.379	41.15
410.507	30.15
410.634	21.15
410.762	23.15
410.889	44.15
411.017	26.15
411.144	35.15
411.271	13.15
411.399	36.15
411.526	31.15
411.653	53.15
411.781	46.15
411.908	26.15
412.036	16.15
412.163	45.15
412.29	45.15
412.418	31.15
412.545	22.15
412.672	35.15
412.8	53.15
412.927	24.15
413.054	37.15
413.182	26.15
413.309	26.15
413.436	21.15
413.564	24.15
413.691	32.15
413.818	20.15
413.945	17.15
414.073	12.15
414.2	27.15
414.327	22.15
414.454	23.15
414.582	26.15
414.709	30.15
414.836	34.15
414.963	17.15
415.091	28.15
415.218	15.15
415.345	29.15
415.472	37.15
415.6	18.15
415.727	30.15
415.854	32.15
415.981	16.15
416.108	31.15
416.236	30.15
416.363	36.15
416.49	7.15
416.617	21.15
416.744	40.15
416.871	36.15
416.998	20.15
417.126	30.15
417.253	33.15
417.38	25.15
417.507	19.15
417.634	31.15
417.761	27.15
417.888	28.15
418.015	36.15
418.143	40.15
418.27	58.15
418.397	37.15
418.524	37.15
418.651	25.15
418.778	46.15
418.905	44.15
419.032	31.15
419.159	43.15
419.286	55.15
419.413	58.15
419.54	55.15
419.667	31.15
419.794	27.15
419.921	52.15
420.048	50.15
420.175	53.15
420.302	46.15
420.429	57.15
420.556	66.15
420.683	60.15
420.81	54.15
420.937	76.15
421.064	73.15
421.191	45.15
421.318	61.15
421.445	81.15
421.572	44.15
421.699	48.15
421.826	44.15
421.953	39.15
422.08	32.15
422.207	16.15
422.334	20.15
422.461	33.15
422.588	6.15
422.714	36.15
422.841	30.15
422.968	32.15
423.095	32.15
423.222	26.15
423.349	17.15
423.476	38.15
423.603	9.15
423.729	3.15
423.856	18.15
423.983	29.15
424.11	23.15
424.237	20.15
424.364	24.15
424.491	20.15
424.617	-2.85
424.744	20.15
424.871	32.15
424.998	13.15
425.125	17.15
425.251	27.15
425.378	15.15
425.505	19.15
425.632	11.15
425.758	27.15
425.885	28.15
426.012	28.15
426.139	38.15
426.266	23.15
426.392	30.15
426.519	24.15
426.646	31.15
426.772	19.15
426.899	17.15
427.026	20.15
427.153	20.15
427.279	31.15
427.406	17.15
427.533	25.15
427.659	12.15
427.786	10.15
427.913	45.15
428.039	16.15
428.166	28.15
428.293	17.15
428.419	43.15
428.546	19.15
428.673	2.15
428.799	19.15
428.926	14.15
429.053	35.15
429.179	32.15
429.306	29.15
429.433	22.15
429.559	19.15
429.686	21.15
429.812	17.15
429.939	17.15
430.066	16.15
430.192	5.15
430.319	29.15
430.445	25.15
430.572	29.15
430.699	18.15
430.825	11.15
430.952	27.15
431.078	27.15
431.205	35.15
431.331	39.15
431.458	37.15
431.584	34.15
431.711	21.15
431.837	20.15
431.964	26.15
432.09	27.15
432.217	13.15
432.343	22.15
432.47	39.15
432.596	20.15
432.723	15.15
432.849	18.15
432.976	32.15
433.102	34.15
433.229	20.15
433.355	56.15
433.482	67.15
433.608	108.15
433.735	102.15
433.861	120.15
433.987	161.15
434.114	197.15
434.24	174.15
434.367	205.15
434.493	216.15
434.62	298.15
434.746	360.15
434.872	614.15
434.999	828.15
435.125	1718.15
435.252	5442.15
435.378	13398.15
435.504	15206.15
435.631	15428.15
435.757	15682.15
435.883	15682.15
436.01	15682.15
436.136	15682.15
436.262	15682.15
436.389	3427.15
436.515	2033.15
436.641	772.15
436.768	615.15
436.894	398.15
437.02	388.15
437.147	276.15
437.273	289.15
437.399	235.15
437.526	224.15
437.652	176.15
437.778	210.15
437.904	148.15
438.031	174.15
438.157	128.15
438.283	155.15
438.409	126.15
438.536	111.15
438.662	105.15
438.788	123.15
438.914	114.15
439.041	111.15
439.167	124.15
439.293	103.15
439.419	74.15
439.546	91.15
439.672	90.15
439.798	86.15
439.924	77.15
440.05	103.15
440.177	78.15
440.303	59.15
440.429	54.15
440.555	71.15
440.681	60.15
440.807	72.15
440.934	58.15
441.06	68.15
441.186	53.15
441.312	71.15
441.438	45.15
441.564	71.15
441.69	79.15
441.816	71.15
441.943	39.15
442.069	45.15
442.195	59.15
442.321	73.15
442.447	52.15
442.573	40.15
442.699	40.15
442.825	37.15
442.951	61.15
443.077	62.15
443.203	66.15
443.33	57.15
443.456	31.15
443.582	55.15
443.708	52.15
443.834	38.15
443.96	48.15
444.086	61.15
444.212	52.15
444.338	54.15
444.464	52.15
444.59	51.15
444.716	28.15
444.842	45.15
444.968	40.15
445.094	37.15
445.22	16.15
445.346	36.15
445.472	33.15
445.598	23.15
445.724	48.15
445.85	22.15
445.976	31.15
446.102	44.15
446.228	45.15
446.354	39.15
446.48	23.15
446.605	35.15
446.731	26.15
446.857	23.15
446.983	31.15
447.109	21.15
447.235	30.15
447.361	25.15
447.487	29.15
447.613	34.15
447.739	33.15
447.865	30.15
447.99	33.15
448.116	25.15
448.242	31.15
448.368	27.15
448.494	12.15
448.62	33.15
448.746	33.15
448.872	36.15
448.997	36.15
449.123	22.15
449.249	59.15
449.375	38.15
449.501	17.15
449.627	17.15
449.752	40.15
449.878	4.15
450.004	14.15
450.13	46.15
450.256	26.15
450.381	40.15
450.507	20.15
450.633	23.15
450.759	36.15
450.884	37.15
451.01	26.15
451.136	21.15
451.262	37.15
451.388	34.15
451.513	23.15
451.639	28.15
451.765	27.15
451.89	31.15
452.016	30.15
452.142	25.15
452.268	32.15
452.393	28.15
452.519	23.15
452.645	29.15
452.771	8.15
452.896	6.15
453.022	12.15
453.148	58.15
453.273	33.15
453.399	15.15
453.525	16.15
453.65	12.15
453.776	27.15
453.902	43.15
454.027	41.15
454.153	42.15
454.279	47.15
454.404	19.15
454.53	18.15
454.656	47.15
454.781	14.15
454.907	-3.85
455.032	14.15
455.158	41.15
455.284	41.15
455.409	24.15
455.535	29.15
455.66	29.15
455.786	29.15
455.912	20.15
456.037	13.15
456.163	32.15
456.288	42.15
456.414	9.15
456.539	1.15
456.665	29.15
456.791	29.15
456.916	15.15
457.042	34.15
457.167	14.15
457.293	19.15
457.418	28.15
457.544	30.15
457.669	16.15
457.795	22.15
457.92	21.15
458.046	27.15
458.171	30.15
458.297	24.15
458.422	27.15
458.548	12.15
458.673	33.15
458.799	21.15
458.924	29.15
459.05	29.15
459.175	12.15
459.301	31.15
459.426	36.15
459.552	7.15
459.677	15.15
459.803	28.15
459.928	33.15
460.053	24.15
460.179	33.15
460.304	25.15
460.43	17.15
460.555	12.15
460.681	19.15
460.806	33.15
460.931	20.15
461.057	32.15
461.182	14.15
461.308	47.15
461.433	38.15
461.558	13.15
461.684	25.15
461.809	28.15
461.934	17.15
462.06	26.15
462.185	7.15
462.311	21.15
462.436	33.15
462.561	45.15
462.687	19.15
462.812	18.15
462.937	7.15
463.063	20.15
463.188	25.15
463.313	23.15
463.439	14.15
463.564	11.15
463.689	29.15
463.814	35.15
463.94	7.15
464.065	30.15
464.19	27.15
464.316	25.15
464.441	15.15
464.566	11.15
464.692	26.15
464.817	33.15
464.942	22.15
465.067	26.15
465.193	18.15
465.318	0.15
465.443	27.15
465.568	19.15
465.694	30.15
465.819	36.15
465.944	29.15
466.069	36.15
466.194	21.15
466.32	35.15
466.445	34.15
466.57	36.15
466.695	17.15
466.82	42.15
466.946	42.15
467.071	20.15
467.196	29.15
467.321	41.15
467.446	19.15
467.572	15.15
467.697	13.15
467.822	37.15
467.947	54.15
468.072	24.15
468.197	21.15
468.323	13.15
468.448	25.15
468.573	29.15
468.698	26.15
468.823	41.15
468.948	35.15
469.073	49.15
469.198	51.15
469.324	37.15
469.449	31.15
469.574	24.15
469.699	59.15
469.824	60.15
469.949	24.15
470.074	19.15
470.199	53.15
470.324	32.15
470.449	30.15
470.574	20.15
470.7	32.15
470.825	19.15
470.95	57.15
471.075	36.15
471.2	42.15
471.325	55.15
471.45	46.15
471.575	28.15
471.7	39.15
471.825	4.15
471.95	23.15
472.075	15.15
472.2	32.15
472.325	23.15
472.45	40.15
472.575	19.15
472.7	24.15
472.825	45.15
472.95	25.15
473.075	34.15
473.2	27.15
473.325	39.15
473.45	36.15
473.575	53.15
473.7	48.15
473.825	36.15
473.95	39.15
474.075	35.15
474.2	-6.85
474.325	9.15
474.45	40.15
474.574	11.15
474.699	24.15
474.824	13.15
474.949	5.15
475.074	14.15
475.199	27.15
475.324	25.15
475.449	17.15
475.574	8.15
475.699	15.15
475.824	15.15
475.949	28.15
476.073	16.15
476.198	16.15
476.323	9.15
476.448	10.15
476.573	10.15
476.698	13.15
476.823	23.15
476.947	25.15
477.072	9.15
477.197	38.15
477.322	20.15
477.447	23.15
477.572	19.15
477.697	8.15
477.821	13.15
477.946	14.15
478.071	21.15
478.196	27.15
478.321	20.15
478.445	9.15
478.57	20.15
478.695	9.15
478.82	29.15
478.945	36.15
479.069	5.15
479.194	9.15
479.319	24.15
479.444	28.15
479.569	1.15
479.693	22.15
479.818	21.15
479.943	24.15
480.068	10.15
480.192	27.15
480.317	22.15
480.442	31.15
480.567	8.15
480.691	24.15
480.816	35.15
480.941	26.15
481.066	9.15
481.19	38.15
481.315	30.15
481.44	20.15
481.564	3.15
481.689	20.15
481.814	17.15
481.938	15.15
482.063	-2.85
482.188	19.15
482.313	17.15
482.437	14.15
482.562	23.15
482.687	24.15
482.811	9.15
482.936	14.15
483.061	25.15
483.185	23.15
483.31	43.15
483.435	34.15
483.559	10.15
483.684	15.15
483.808	32.15
483.933	40.15
484.058	14.15
484.182	25.15
484.307	17.15
484.432	21.15
484.556	13.15
484.681	25.15
484.805	27.15
484.93	28.15
485.055	15.15
485.179	35.15
485.304	31.15
485.428	26.15
485.553	7.15
485.678	17.15
485.802	26.15
485.927	25.15
486.051	18.15
486.176	23.15
486.3	25.15
486.425	16.15
486.549	17.15
486.674	29.15
486.799	26.15
486.923	19.15
487.048	18.15
487.172	10.15
487.297	16.15
487.421	6.15
487.546	15.15
487.67	28.15
487.795	7.15
487.919	16.15
488.044	26.15
488.168	32.15
488.293	17.15
488.417	13.15
488.542	26.15
488.666	23.15
488.791	26.15
488.915	8.15
489.04	33.15
489.164	34.15
489.289	32.15
489.413	23.15
489.538	41.15
489.662	34.15
489.786	3.15
489.911	28.15
490.035	23.15
490.16	20.15
490.284	8.15
490.409	-2.85
490.533	3.15
490.658	38.15
490.782	27.15
490.906	39.15
491.031	113.15
491.155	126.15
491.28	156.15
491.404	160.15
491.528	243.15
491.653	153.15
491.777	69.15
491.902	30.15
492.026	38.15
492.15	27.15
492.275	40.15
492.399	10.15
492.524	28.15
492.648	39.15
492.772	5.15
492.897	29.15
493.021	11.15
493.145	17.15
493.27	20.15
493.394	23.15
493.518	21.15
493.643	-4.85
493.767	36.15
493.891	24.15
494.016	21.15
494.14	13.15
494.264	19.15
494.389	34.15
494.513	14.15
494.637	21.15
494.762	27.15
494.886	30.15
495.01	22.15
495.134	24.15
495.259	21.15
495.383	27.15
495.507	28.15
495.632	35.15
495.756	52.15
495.88	30.15
496.004	13.15
496.129	19.15
496.253	13.15
496.377	13.15
496.501	34.15
496.626	15.15
496.75	17.15
496.874	26.15
496.998	11.15
497.123	34.15
497.247	19.15
497.371	27.15
497.495	20.15
497.62	18.15
497.744	28.15
497.868	27.15
497.992	28.15
498.116	20.15
498.241	14.15
498.365	19.15
498.489	6.15
498.613	36.15
498.737	44.15
498.862	13.15
498.986	7.15
499.11	-0.85
499.234	3.15
499.358	5.15
499.482	2.15
499.607	13.15
499.731	20.15
499.855	30.15
499.979	28.15
500.103	36.15
500.227	27.15
500.351	29.15
500.476	20.15
500.6	10.15
500.724	23.15
500.848	16.15
500.972	37.15
501.096	28.15
501.22	39.15
501.344	3.15
501.469	17.15
501.593	5.15
501.717	24.15
501.841	0.15
501.965	12.15
502.089	3.15
502.213	41.15
502.337	21.15
502.461	19.15
502.585	15.15
502.709	16.15
502.834	28.15
502.958	25.15
503.082	19.15
503.206	21.15
503.33	26.15
503.454	29.15
503.578	25.15
503.702	0.15
503.826	28.15
503.95	28.15
504.074	18.15
504.198	-3.85
504.322	1.15
504.446	23.15
504.57	8.15
504.694	17.15
504.818	13.15
504.942	19.15
505.066	18.15
505.19	28.15
505.314	24.15
505.438	26.15
505.562	22.15
505.686	37.15
505.81	15.15
505.934	30.15
506.058	13.15
506.182	35.15
506.306	31.15
506.43	9.15
506.554	14.15
506.678	19.15
506.802	29.15
506.926	36.15
507.05	18.15
507.174	32.15
507.298	24.15
507.422	21.15
507.546	34.15
507.67	20.15
507.794	26.15
507.918	27.15
508.042	10.15
508.165	-0.85
508.289	8.15
508.413	14.15
508.537	31.15
508.661	20.15
508.785	33.15
508.909	39.15
509.033	12.15
509.157	23.15
509.281	21.15
509.405	22.15
509.528	63.15
509.652	32.15
509.776	23.15
509.9	35.15
510.024	22.15
510.148	24.15
510.272	19.15
510.396	22.15
510.519	37.15
510.643	48.15
510.767	32.15
510.891	41.15
511.015	44.15
511.139	41.15
511.263	62.15
511.386	30.15
511.51	37.15
511.634	41.15
511.758	28.15
511.882	34.15
512.006	42.15
512.129	57.15
512.253	90.15
512.377	88.15
512.501	107.15
512.625	81.15
512.748	77.15
512.872	63.15
512.996	49.15
513.12	60.15
513.244	32.15
513.367	72.15
513.491	78.15
513.615	84.15
513.739	69.15
513.862	80.15
513.986	69.15
514.11	89.15
514.234	89.15
514.358	122.15
514.481	123.15
514.605	102.15
514.729	135.15
514.853	126.15
514.976	92.15
515.1	99.15
515.224	111.15
515.348	93.15
515.471	76.15
515.595	110.15
515.719	131.15
515.842	211.15
515.966	276.15
516.09	315.15
516.214	325.15
516.337	328.15
516.461	237.15
516.585	89.15
516.708	44.15
516.832	22.15
516.956	21.15
517.08	23.15
517.203	-2.85
517.327	12.15
517.451	31.15
517.574	30.15
517.698	7.15
517.822	19.15
517.945	30.15
518.069	42.15
518.193	31.15
518.316	33.15
518.44	13.15
518.564	13.15
518.687	16.15
518.811	16.15
518.935	39.15
519.058	22.15
519.182	19.15
519.306	21.15
519.429	3.15
519.553	49.15
519.676	21.15
519.8	19.15
519.924	8.15
520.047	27.15
520.171	21.15
520.294	19.15
520.418	40.15
520.542	16.15
520.665	10.15
520.789	15.15
520.913	-0.85
521.036	5.15
521.16	13.15
521.283	24.15
521.407	20.15
521.53	17.15
521.654	1.15
521.778	36.15
521.901	20.15
522.025	11.15
522.148	12.15
522.272	24.15
522.395	13.15
522.519	12.15
522.643	12.15
522.766	12.15
522.89	17.15
523.013	23.15
523.137	17.15
523.26	20.15
523.384	23.15
523.507	26.15
523.631	16.15
523.754	44.15
523.878	40.15
524.002	16.15
524.125	-0.85
524.249	-3.85
524.372	20.15
524.496	23.15
524.619	26.15
524.743	16.15
524.866	9.15
524.99	3.15
525.113	28.15
525.237	36.15
525.36	16.15
525.484	25.15
525.607	5.15
525.731	3.15
525.854	11.15
525.978	36.15
526.101	12.15
526.224	18.15
526.348	5.15
526.471	16.15
526.595	4.15
526.718	6.15
526.842	11.15
526.965	35.15
527.089	13.15
527.212	17.15
527.336	17.15
527.459	18.15
527.582	19.15
527.706	17.15
527.829	22.15
527.953	17.15
528.076	0.15
528.2	3.15
528.323	33.15
528.446	23.15
528.57	12.15
528.693	36.15
528.817	8.15
528.94	22.15
529.064	44.15
529.187	12.15
529.31	10.15
529.434	-3.85
529.557	4.15
529.68	10.15
529.804	10.15
529.927	8.15
530.051	3.15
530.174	-0.85
530.297	19.15
530.421	31.15
530.544	19.15
530.668	14.15
530.791	12.15
530.914	36.15
531.038	6.15
531.161	9.15
531.284	20.15
531.408	17.15
531.531	20.15
531.654	15.15
531.778	8.15
531.901	13.15
532.024	22.15
532.148	16.15
532.271	29.15
532.394	13.15
532.518	37.15
532.641	8.15
532.764	33.15
532.888	31.15
533.011	3.15
533.134	3.15
533.258	33.15
533.381	14.15
533.504	33.15
533.628	11.15
533.751	31.15
533.874	13.15
533.997	19.15
534.121	8.15
534.244	5.15
534.367	1.15
534.491	13.15
534.614	8.15
534.737	19.15
534.86	38.15
534.984	7.15
535.107	-3.85
535.23	5.15
535.354	-3.85
535.477	-1.85
535.6	1.15
535.723	23.15
535.847	21.15
535.97	15.15
536.093	15.15
536.216	-3.85
536.34	29.15
536.463	19.15
536.586	34.15
536.709	25.15
536.833	36.15
536.956	12.15
537.079	24.15
537.202	25.15
537.325	15.15
537.449	-2.85
537.572	39.15
537.695	33.15
537.818	16.15
537.941	11.15
538.065	7.15
538.188	7.15
538.311	32.15
538.434	33.15
538.558	31.15
538.681	27.15
538.804	24.15
538.927	15.15
539.05	16.15
539.173	25.15
539.297	7.15
539.42	9.15
539.543	13.15
539.666	46.15
539.789	14.15
539.913	29.15
540.036	20.15
540.159	29.15
540.282	13.15
540.405	12.15
540.528	8.15
540.651	30.15
540.775	16.15
540.898	41.15
541.021	30.15
541.144	29.15
541.267	25.15
541.39	30.15
541.513	25.15
541.637	36.15
541.76	31.15
541.883	36.15
542.006	51.15
542.129	47.15
542.252	35.15
542.375	59.15
542.498	58.15
542.622	35.15
542.745	27.15
542.868	27.15
542.991	38.15
543.114	60.15
543.237	55.15
543.36	46.15
543.483	44.15
543.606	61.15
543.73	79.15
543.853	80.15
543.976	77.15
544.099	115.15
544.222	121.15
544.345	119.15
544.468	152.15
544.591	213.15
544.714	273.15
544.837	340.15
544.96	444.15
545.083	665.15
545.206	1104.15
545.329	2441.15
545.453	10957.15
545.576	15250.15
545.699	15682.15
545.822	15682.15
545.945	15682.15
546.068	15682.15
546.191	15682.15
546.314	15682.15
546.437	15682.15
546.56	15682.15
546.683	15682.15
546.806	15682.15
546.929	15682.15
547.052	15682.15
547.175	15682.15
547.298	15682.15
547.421	15682.15
547.544	15682.15
547.667	3558.15
547.79	2393.15
547.913	1036.15
548.036	871.15
548.159	652.15
548.282	631.15
548.405	479.15
548.528	489.15
548.651	398.15
548.774	405.15
548.897	340.15
549.02	363.15
549.143	312.15
549.266	300.15
549.389	281.15
549.512	255.15
549.635	265.15
549.758	253.15
549.881	180.15
550.004	222.15
550.127	227.15
550.25	213.15
550.373	172.15
550.496	187.15
550.619	161.15
550.742	153.15
550.865	115.15
550.988	138.15
551.111	152.15
551.234	136.15
551.356	131.15
551.479	129.15
551.602	135.15
551.725	137.15
551.848	133.15
551.971	136.15
552.094	132.15
552.217	118.15
552.34	128.15
552.463	103.15
552.586	103.15
552.709	102.15
552.832	94.15
552.955	117.15
553.077	104.15
553.2	103.15
553.323	85.15
553.446	103.15
553.569	99.15
553.692	89.15
553.815	89.15
553.938	109.15
554.061	101.15
554.184	102.15
554.306	86.15
554.429	101.15
554.552	101.15
554.675	78.15
554.798	79.15
554.921	79.15
555.044	72.15
555.167	69.15
555.29	67.15
555.412	57.15
555.535	75.15
555.658	72.15
555.781	83.15
555.904	83.15
556.027	72.15
556.15	71.15
556.272	49.15
556.395	80.15
556.518	78.15
556.641	81.15
556.764	84.15
556.887	84.15
557.01	81.15
557.132	46.15
557.255	46.15
557.378	84.15
557.501	60.15
557.624	67.15
557.747	58.15
557.869	79.15
557.992	93.15
558.115	96.15
558.238	84.15
558.361	89.15
558.483	75.15
558.606	59.15
558.729	59.15
558.852	83.15
558.975	74.15
559.098	75.15
559.22	62.15
559.343	46.15
559.466	53.15
559.589	35.15
559.712	59.15
559.834	55.15
559.957	62.15
560.08	51.15
560.203	58.15
560.325	69.15
560.448	72.15
560.571	47.15
560.694	57.15
560.817	74.15
560.939	52.15
561.062	50.15
561.185	41.15
561.308	73.15
561.43	69.15
561.553	51.15
561.676	51.15
561.799	72.15
561.921	63.15
562.044	68.15
562.167	68.15
562.29	79.15
562.413	60.15
562.535	51.15
562.658	39.15
562.781	59.15
562.903	47.15
563.026	78.15
563.149	142.15
563.272	134.15
563.394	111.15
563.517	95.15
563.64	60.15
563.763	44.15
563.885	43.15
564.008	75.15
564.131	47.15
564.254	43.15
564.376	47.15
564.499	25.15
564.622	27.15
564.744	39.15
564.867	38.15
564.99	52.15
565.113	40.15
565.235	58.15
565.358	25.15
565.481	10.15
565.603	35.15
565.726	15.15
565.849	60.15
565.971	46.15
566.094	37.15
566.217	62.15
566.34	43.15
566.462	31.15
566.585	35.15
566.708	53.15
566.83	35.15
566.953	39.15
567.076	35.15
567.198	43.15
567.321	35.15
567.444	44.15
567.566	37.15
567.689	26.15
567.812	13.15
567.934	46.15
568.057	42.15
568.18	31.15
568.302	31.15
568.425	12.15
568.548	41.15
568.67	32.15
568.793	33.15
568.916	39.15
569.038	44.15
569.161	19.15
569.283	49.15
569.406	28.15
569.529	26.15
569.651	22.15
569.774	36.15
569.897	24.15
570.019	41.15
570.142	29.15
570.265	34.15
570.387	19.15
570.51	41.15
570.632	34.15
570.755	39.15
570.878	21.15
571	37.15
571.123	21.15
571.246	30.15
571.368	36.15
571.491	13.15
571.613	32.15
571.736	20.15
571.859	24.15
571.981	21.15
572.104	12.15
572.226	22.15
572.349	7.15
572.472	30.15
572.594	39.15
572.717	21.15
572.839	31.15
572.962	28.15
573.085	32.15
573.207	21.15
573.33	34.15
573.452	32.15
573.575	49.15
573.697	24.15
573.82	37.15
573.943	34.15
574.065	37.15
574.188	31.15
574.31	34.15
574.433	36.15
574.555	32.15
574.678	23.15
574.801	32.15
574.923	29.15
575.046	33.15
575.168	38.15
575.291	33.15
575.413	35.15
575.536	37.15
575.659	53.15
575.781	44.15
575.904	56.15
576.026	77.15
576.149	78.15
576.271	136.15
576.394	203.15
576.516	551.15
576.639	3636.15
576.761	10209.15
576.884	8816.15
577.007	8757.15
577.129	7961.15
577.252	3709.15
577.374	1329.15
577.497	525.15
577.619	285.15
577.742	166.15
577.864	152.15
577.987	140.15
578.109	139.15
578.232	131.15
578.354	145.15
578.477	197.15
578.599	382.15
578.722	1919.15
578.844	9087.15
578.967	9857.15
579.089	8760.15
579.212	9105.15
579.334	5226.15
579.457	1906.15
579.579	711.15
579.702	320.15
579.824	206.15
579.947	138.15
580.069	114.15
580.192	79.15
580.314	112.15
580.437	73.15
580.559	95.15
580.682	62.15
580.804	63.15
580.927	72.15
581.049	80.15
581.172	62.15
581.294	71.15
581.417	53.15
581.539	53.15
581.662	61.15
581.784	49.15
581.907	42.15
582.029	43.15
582.152	20.15
582.274	44.15
582.396	42.15
582.519	45.15
582.641	15.15
582.764	40.15
582.886	53.15
583.009	35.15
583.131	34.15
583.254	28.15
583.376	45.15
583.499	34.15
583.621	36.15
583.743	41.15
583.866	44.15
583.988	38.15
584.111	42.15
584.233	32.15
584.356	48.15
584.478	34.15
584.601	29.15
584.723	37.15
584.845	43.15
584.968	11.15
585.09	14.15
585.213	27.15
585.335	16.15
585.458	16.15
585.58	20.15
585.702	31.15
585.825	42.15
585.947	20.15
586.07	11.15
586.192	19.15
586.315	34.15
586.437	11.15
586.559	16.15
586.682	30.15
586.804	42.15
586.927	19.15
587.049	32.15
587.171	42.15
587.294	36.15
587.416	40.15
587.539	19.15
587.661	12.15
587.783	17.15
587.906	16.15
588.028	37.15
588.151	44.15
588.273	56.15
588.395	24.15
588.518	24.15
588.64	20.15
588.763	36.15
588.885	33.15
589.007	32.15
589.13	20.15
589.252	19.15
589.375	22.15
589.497	35.15
589.619	44.15
589.742	25.15
589.864	31.15
589.986	33.15
590.109	21.15
590.231	24.15
590.354	23.15
590.476	16.15
590.598	27.15
590.721	21.15
590.843	20.15
590.965	24.15
591.088	21.15
591.21	24.15
591.332	30.15
591.455	19.15
591.577	22.15
591.7	31.15
591.822	17.15
591.944	26.15
592.067	34.15
592.189	38.15
592.311	35.15
592.434	32.15
592.556	27.15
592.678	28.15
592.801	20.15
592.923	30.15
593.045	28.15
593.168	22.15
593.29	26.15
593.412	34.15
593.535	23.15
593.657	21.15
593.779	16.15
593.902	36.15
594.024	11.15
594.146	16.15
594.269	34.15
594.391	16.15
594.513	33.15
594.636	44.15
594.758	38.15
594.88	35.15
595.003	23.15
595.125	31.15
595.247	22.15
595.37	32.15
595.492	18.15
595.614	45.15
595.737	14.15
595.859	24.15
595.981	28.15
596.104	26.15
596.226	19.15
596.348	36.15
596.471	13.15
596.593	21.15
596.715	19.15
596.838	23.15
596.96	11.15
597.082	31.15
597.204	33.15
597.327	33.15
597.449	14.15
597.571	22.15
597.694	35.15
597.816	26.15
597.938	19.15
598.061	28.15
598.183	22.15
598.305	28.15
598.427	28.15
598.55	31.15
598.672	30.15
598.794	31.15
598.917	35.15
599.039	33.15
599.161	22.15
599.283	16.15
599.406	17.15
599.528	38.15
599.65	41.15
599.773	45.15
599.895	54.15
600.017	26.15
600.139	27.15
600.262	-2.85
600.384	14.15
600.506	38.15
600.628	41.15
600.751	30.15
600.873	8.15
600.995	16.15
601.118	22.15
601.24	15.15
601.362	47.15
601.484	23.15
601.607	35.15
601.729	12.15
601.851	21.15
601.973	23.15
602.096	47.15
602.218	33.15
602.34	31.15
602.462	38.15
602.585	32.15
602.707	20.15
602.829	13.15
602.951	29.15
603.074	11.15
603.196	27.15
603.318	12.15
603.44	6.15
603.563	16.15
603.685	10.15
603.807	33.15
603.929	11.15
604.052	21.15
604.174	26.15
604.296	15.15
604.418	36.15
604.541	27.15
604.663	10.15
604.785	16.15
604.907	21.15
605.03	13.15
605.152	41.15
605.274	13.15
605.396	17.15
605.519	18.15
605.641	10.15
605.763	24.15
605.885	32.15
606.008	24.15
606.13	34.15
606.252	27.15
606.374	4.15
606.496	12.15
606.619	8.15
606.741	18.15
606.863	22.15
606.985	48.15
607.108	27.15
607.23	-5.85
607.352	14.15
607.474	7.15
607.596	10.15
607.719	10.15
607.841	23.15
607.963	20.15
608.085	25.15
608.207	30.15
608.33	8.15
608.452	9.15
608.574	10.15
608.696	46.15
608.819	30.15
608.941	26.15
609.063	29.15
609.185	28.15
609.307	15.15
609.43	46.15
609.552	19.15
609.674	-0.85
609.796	21.15
609.918	31.15
610.041	15.15
610.163	31.15
610.285	26.15
610.407	23.15
610.529	8.15
610.652	35.15
610.774	38.15
610.896	36.15
611.018	27.15
611.14	19.15
611.263	13.15
611.385	6.15
611.507	23.15
611.629	14.15
611.751	19.15
611.873	43.15
611.996	12.15
612.118	23.15
612.24	9.15
612.362	31.15
612.484	32.15
612.607	41.15
612.729	50.15
612.851	28.15
612.973	16.15
613.095	10.15
613.218	23.15
613.34	37.15
613.462	14.15
613.584	12.15
613.706	28.15
613.828	47.15
613.951	5.15
614.073	19.15
614.195	11.15
614.317	35.15
614.439	21.15
614.561	31.15
614.684	20.15
614.806	28.15
614.928	24.15
615.05	20.15
615.172	23.15
615.294	36.15
615.417	27.15
615.539	7.15
615.661	26.15
615.783	34.15
615.905	23.15
616.027	19.15
616.15	44.15
616.272	15.15
616.394	14.15
616.516	17.15
616.638	20.15
616.76	3.15
616.883	19.15
617.005	5.15
617.127	13.15
617.249	23.15
617.371	14.15
617.493	23.15
617.615	24.15
617.738	5.15
617.86	15.15
617.982	25.15
618.104	10.15
618.226	5.15
618.348	13.15
618.471	27.15
618.593	8.15
618.715	1.15
618.837	24.15
618.959	31.15
619.081	25.15
619.203	22.15
619.326	40.15
619.448	35.15
619.57	32.15
619.692	25.15
619.814	40.15
619.936	31.15
620.058	32.15
620.181	28.15
620.303	16.15
620.425	28.15
620.547	7.15
620.669	25.15
620.791	36.15
620.913	31.15
621.036	9.15
621.158	9.15
621.28	17.15
621.402	-10.85
621.524	-0.85
621.646	23.15
621.768	9.15
621.891	7.15
622.013	20.15
622.135	13.15
622.257	4.15
622.379	25.15
622.501	14.15
622.623	24.15
622.745	13.15
622.868	19.15
622.99	-3.85
623.112	-5.85
623.234	10.15
623.356	8.15
623.478	21.15
623.6	26.15
623.722	21.15
623.845	16.15
623.967	28.15
624.089	27.15
624.211	19.15
624.333	17.15
624.455	5.15
624.577	13.15
624.699	47.15
624.822	27.15
624.944	12.15
625.066	18.15
625.188	21.15
625.31	-1.85
625.432	20.15
625.554	9.15
625.676	44.15
625.799	34.15
625.921	32.15
626.043	12.15
626.165	22.15
626.287	15.15
626.409	33.15
626.531	8.15
626.653	0.15
626.775	16.15
626.898	20.15
627.02	32.15
627.142	33.15
627.264	37.15
627.386	14.15
627.508	23.15
627.63	3.15
627.752	23.15
627.874	8.15
627.997	21.15
628.119	32.15
628.241	23.15
628.363	18.15
628.485	21.15
628.607	17.15
628.729	7.15
628.851	4.15
628.973	23.15
629.096	-3.85
629.218	8.15
629.34	17.15
629.462	12.15
629.584	20.15
629.706	15.15
629.828	37.15
629.95	20.15
630.072	14.15
630.195	11.15
630.317	35.15
630.439	19.15
630.561	5.15
630.683	19.15
630.805	21.15
630.927	36.15
631.049	21.15
631.171	16.15
631.293	5.15
631.416	16.15
631.538	12.15
631.66	23.15
631.782	25.15
631.904	32.15
632.026	15.15
632.148	21.15
632.27	14.15
632.392	22.15
632.514	6.15
632.637	13.15
632.759	17.15
632.881	4.15
633.003	24.15
633.125	20.15
633.247	13.15
633.369	33.15
633.491	17.15
633.613	31.15
633.735	0.15
633.858	23.15
633.98	13.15
634.102	3.15
634.224	11.15
634.346	3.15
634.468	16.15
634.59	7.15
634.712	12.15
634.834	16.15
634.956	4.15
635.078	-7.85
635.201	2.15
635.323	21.15
635.445	5.15
635.567	-0.85
635.689	13.15
635.811	25.15
635.933	11.15
636.055	22.15
636.177	6.15
636.299	29.15
636.421	2.15
636.544	-8.85
636.666	12.15
636.788	24.15
636.91	28.15
637.032	34.15
637.154	36.15
637.276	29.15
637.398	21.15
637.52	4.15
637.642	28.15
637.764	18.15
637.887	10.15
638.009	16.15
638.131	16.15
638.253	10.15
638.375	24.15
638.497	20.15
638.619	-11.85
638.741	14.15
638.863	5.15
638.985	-9.85
639.107	10.15
639.23	13.15
639.352	21.15
639.474	12.15
639.596	15.15
639.718	8.15
639.84	24.15
639.962	16.15
640.084	30.15
640.206	35.15
640.328	11.15
640.45	30.15
640.573	14.15
640.695	10.15
640.817	24.15
640.939	21.15
641.061	3.15
641.183	10.15
641.305	24.15
641.427	15.15
641.549	5.15
641.671	29.15
641.793	1.15
641.915	8.15
642.038	14.15
642.16	12.15
642.282	5.15
642.404	4.15
642.526	15.15
642.648	19.15
642.77	3.15
642.892	8.15
643.014	9.15
643.136	33.15
643.258	25.15
643.381	40.15
643.503	28.15
643.625	-4.85
643.747	4.15
643.869	9.15
643.991	8.15
644.113	13.15
644.235	20.15
644.357	16.15
644.479	13.15
644.601	3.15
644.723	10.15
644.846	28.15
644.968	11.15
645.09	26.15
645.212	2.15
645.334	21.15
645.456	11.15
645.578	27.15
645.7	9.15
645.822	20.15
645.944	17.15
646.066	14.15
646.188	-4.85
646.311	18.15
646.433	-7.85
646.555	40.15
646.677	3.15
646.799	16.15
646.921	-0.85
647.043	21.15
647.165	3.15
647.287	20.15
647.409	12.15
647.531	19.15
647.654	-1.85
647.776	25.15
647.898	34.15
648.02	18.15
648.142	-6.85
648.264	5.15
648.386	14.15
648.508	-2.85
648.63	-4.85
648.752	9.15
648.874	3.15
648.997	28.15
649.119	37.15
649.241	7.15
649.363	23.15
649.485	28.15
649.607	19.15
649.729	-4.85
649.851	9.15
649.973	7.15
650.095	20.15
650.217	-0.85
650.34	12.15
650.462	8.15
650.584	19.15
650.706	23.15
650.828	24.15
650.95	13.15
651.072	7.15
651.194	-1.85
651.316	-5.85
651.438	-0.85
651.56	-7.85
651.683	-2.85
651.805	3.15
651.927	5.15
652.049	10.15
652.171	8.15
652.293	4.15
652.415	4.15
652.537	5.15
652.659	9.15
652.781	23.15
652.903	12.15
653.026	8.15
653.148	8.15
653.27	14.15
653.392	17.15
653.514	3.15
653.636	-12.85
653.758	-0.85
653.88	-6.85
654.002	-3.85
654.124	0.15
654.247	19.15
654.369	16.15
654.491	17.15
654.613	24.15
654.735	-8.85
654.857	9.15
654.979	13.15
655.101	35.15
655.223	22.15
655.345	13.15
655.468	9.15
655.59	18.15
655.712	20.15
655.834	11.15
655.956	18.15
656.078	19.15
656.2	4.15
656.322	0.15
656.444	-22.85
656.566	20.15
656.689	0.15
656.811	9.15
656.933	12.15
657.055	3.15
657.177	17.15
657.299	19.15
657.421	13.15
657.543	12.15
657.665	-10.85
657.787	11.15
657.91	5.15
658.032	-0.85
658.154	11.15
658.276	18.15
658.398	2.15
658.52	11.15
658.642	37.15
658.764	17.15
658.886	-12.85
659.009	26.15
659.131	22.15
659.253	7.15
659.375	18.15
659.497	9.15
659.619	20.15
659.741	15.15
659.863	0.15
659.985	5.15
660.108	47.15
660.23	20.15
660.352	10.15
660.474	15.15
660.596	10.15
660.718	14.15
660.84	21.15
660.962	26.15
661.084	3.15
661.207	6.15
661.329	19.15
661.451	0.15
661.573	15.15
661.695	9.15
661.817	19.15
661.939	19.15
662.061	30.15
662.184	13.15
662.306	13.15
662.428	6.15
662.55	23.15
662.672	-19.85
662.794	19.15
662.916	23.15
663.038	26.15
663.161	25.15
663.283	22.15
663.405	12.15
663.527	13.15
663.649	20.15
663.771	15.15
663.893	12.15
664.015	11.15
664.138	-2.85
664.26	7.15
664.382	-2.85
664.504	1.15
664.626	-2.85
664.748	-3.85
664.87	-0.85
664.992	9.15
665.115	3.15
665.237	19.15
665.359	8.15
665.481	12.15
665.603	8.15
665.725	19.15
665.847	-0.85
665.97	9.15
666.092	29.15
666.214	20.15
666.336	7.15
666.458	0.15
666.58	25.15
666.702	0.15
666.825	3.15
666.947	-14.85
667.069	8.15
667.191	15.15
667.313	11.15
667.435	6.15
667.557	-4.85
667.68	0.15
667.802	14.15
667.924	4.15
668.046	15.15
668.168	3.15
668.29	35.15
668.412	1.15
668.535	16.15
668.657	14.15
668.779	5.15
668.901	25.15
669.023	0.15
669.145	8.15
669.267	21.15
669.39	13.15
669.512	5.15
669.634	24.15
669.756	5.15
669.878	-6.85
670	10.15
670.123	9.15
670.245	29.15
670.367	21.15
670.489	22.15
670.611	-0.85
670.733	-3.85
670.856	9.15
670.978	25.15
671.1	19.15
671.222	30.15
671.344	9.15
671.466	-16.85
671.589	8.15
671.711	4.15
671.833	4.15
671.955	9.15
672.077	-3.85
672.199	27.15
672.322	16.15
672.444	3.15
672.566	8.15
672.688	-2.85
672.81	10.15
672.932	23.15
673.055	-3.85
673.177	-0.85
673.299	4.15
673.421	1.15
673.543	17.15
673.665	4.15
673.788	9.15
673.91	9.15
674.032	-6.85
674.154	5.15
674.276	30.15
674.399	1.15
674.521	2.15
674.643	16.15
674.765	-5.85
674.887	10.15
675.009	1.15
675.132	-4.85
675.254	13.15
675.376	15.15
675.498	3.15
675.62	23.15
675.743	14.15
675.865	11.15
675.987	4.15
676.109	12.15
676.231	11.15
676.354	19.15
676.476	9.15
676.598	19.15
676.72	23.15
676.842	6.15
676.965	3.15
677.087	6.15
677.209	23.15
677.331	12.15
677.453	1.15
677.576	19.15
677.698	11.15
677.82	11.15
677.942	3.15
678.064	4.15
678.187	7.15
678.309	4.15
678.431	2.15
678.553	19.15
678.675	30.15
678.798	27.15
678.92	6.15
679.042	11.15
679.164	6.15
679.286	20.15
679.409	3.15
679.531	-7.85
679.653	15.15
679.775	5.15
679.898	-8.85
680.02	12.15
680.142	6.15
680.264	11.15
680.386	7.15
680.509	23.15
680.631	12.15
680.753	4.15
680.875	4.15
680.998	19.15
681.12	10.15
681.242	21.15
681.364	-2.85
681.486	5.15
681.609	16.15
681.731	4.15
681.853	-4.85
681.975	19.15
682.098	32.15
682.22	33.15
682.342	6.15
682.464	17.15
682.587	10.15
682.709	5.15
682.831	10.15
682.953	1.15
683.076	-0.85
683.198	0.15
683.32	13.15
683.442	20.15
683.565	25.15
683.687	8.15
683.809	21.15
683.931	-4.85
684.054	19.15
684.176	21.15
684.298	12.15
684.42	4.15
684.543	0.15
684.665	5.15
684.787	13.15
684.909	7.15
685.032	5.15
685.154	-7.85
685.276	14.15
685.398	-4.85
685.521	-9.85
685.643	0.15
685.765	10.15
685.887	3.15
686.01	16.15
686.132	12.15
686.254	8.15
686.377	11.15
686.499	11.15
686.621	21.15
686.743	10.15
686.866	8.15
686.988	30.15
687.11	22.15
687.232	8.15
687.355	-4.85
687.477	12.15
687.599	8.15
687.722	27.15
687.844	17.15
687.966	16.15
688.088	12.15
688.211	23.15
688.333	1.15
688.455	29.15
688.578	25.15
688.7	8.15
688.822	25.15
688.944	10.15
689.067	18.15
689.189	14.15
689.311	-0.85
689.434	-0.85
689.556	-4.85
689.678	23.15
689.801	8.15
689.923	38.15
690.045	37.15
690.167	26.15
690.29	28.15
690.412	4.15
690.534	28.15
690.657	2.15
690.779	0.15
690.901	7.15
691.024	-10.85
691.146	9.15
691.268	3.15
691.391	25.15
691.513	16.15
691.635	33.15
691.758	30.15
691.88	29.15
692.002	4.15
692.125	-4.85
692.247	-2.85
692.369	0.15
692.492	-15.85
692.614	1.15
692.736	6.15
692.859	13.15
692.981	17.15
693.103	9.15
693.226	19.15
693.348	37.15
693.47	19.15
693.593	17.15
693.715	28.15
693.837	17.15
693.96	6.15
694.082	5.15
694.204	12.15
694.327	21.15
694.449	-6.85
694.571	3.15
694.694	19.15
694.816	28.15
694.938	13.15
695.061	7.15
695.183	3.15
695.305	5.15
695.428	12.15
695.55	12.15
695.672	16.15
695.795	26.15
695.917	23.15
696.04	15.15
696.162	6.15
696.284	4.15
696.407	9.15
696.529	5.15
696.651	14.15
696.774	25.15
696.896	33.15
697.019	26.15
697.141	4.15
697.263	11.15
697.386	8.15
697.508	13.15
697.63	9.15
697.753	0.15
697.875	9.15
697.998	-3.85
698.12	14.15
698.242	0.15
698.365	-0.85
698.487	13.15
698.61	7.15
698.732	16.15
698.854	17.15
698.977	2.15
699.099	15.15
699.221	17.15
699.344	9.15
699.466	1.15
699.589	19.15
699.711	3.15
699.834	14.15
699.956	13.15
700.078	5.15
700.201	7.15
700.323	20.15
700.446	20.15
700.568	10.15
700.69	19.15
700.813	15.15
700.935	-0.85
701.058	2.15
701.18	6.15
701.302	7.15
701.425	3.15
701.547	8.15
701.67	3.15
701.792	14.15
701.915	5.15
702.037	12.15
702.159	15.15
702.282	21.15
702.404	8.15
702.527	10.15
702.649	29.15
702.772	35.15
702.894	4.15
703.017	1.15
703.139	13.15
703.261	19.15
703.384	20.15
703.506	-3.85
703.629	-2.85
703.751	23.15
703.874	10.15
703.996	-12.85
704.119	-12.85
704.241	15.15
704.364	-5.85
704.486	0.15
704.608	21.15
704.731	13.15
704.853	24.15
704.976	-5.85
705.098	19.15
705.221	5.15
705.343	16.15
705.466	21.15
705.588	31.15
705.711	7.15
705.833	19.15
705.956	3.15
706.078	7.15
706.201	25.15
706.323	23.15
706.446	9.15
