Data from LowRes_mercury_15_20_11_07_2024_HR4C61881__82__15-23-40-470.txt Node

Date: Thu Nov 07 15:23:40 EST 2024
User: crc00042
Spectrometer: HR4C6188
Trigger mode: 4
Integration Time (sec): 1.000000E-1
Scans to average: 1
Electric dark correction enabled: true
Nonlinearity correction enabled: false
Boxcar width: 0
XAxis mode: Wavelengths
Number of Pixels in Spectrum: 3648
>>>>>Begin Spectral Data<<<<<
245.66	-72.15
245.797	-72.15
245.934	-72.15
246.071	-67.15
246.208	11.85
246.344	-3.15
246.481	-36.15
246.618	-7.15
246.755	21.85
246.892	-18.15
247.029	-5.15
247.165	-12.15
247.302	17.85
247.439	5.85
247.576	9.85
247.713	3.85
247.849	25.85
247.986	-3.15
248.123	-0.15
248.26	4.85
248.396	4.85
248.533	2.85
248.67	-2.15
248.806	14.85
248.943	-8.15
249.08	-20.15
249.216	7.85
249.353	-24.15
249.49	8.85
249.626	1.85
249.763	-12.15
249.9	-7.15
250.036	-9.15
250.173	4.85
250.309	5.85
250.446	-7.15
250.582	-4.15
250.719	1.85
250.856	-28.15
250.992	-9.15
251.129	-2.15
251.265	-0.15
251.402	5.85
251.538	4.85
251.675	-1.15
251.811	20.85
251.948	18.85
252.084	9.85
252.221	9.85
252.357	-7.15
252.493	28.85
252.63	-11.15
252.766	20.85
252.903	-4.15
253.039	2.85
253.175	0.85
253.312	5.85
253.448	-4.15
253.585	-21.15
253.721	-5.15
253.857	4.85
253.994	4.85
254.13	14.85
254.266	20.85
254.403	24.85
254.539	11.85
254.675	7.85
254.811	13.85
254.948	-2.15
255.084	-5.15
255.22	3.85
255.356	-0.15
255.493	3.85
255.629	16.85
255.765	-9.15
255.901	11.85
256.037	-5.15
256.174	8.85
256.31	-1.15
256.446	-14.15
256.582	-2.15
256.718	-0.15
256.854	17.85
256.991	5.85
257.127	17.85
257.263	-1.15
257.399	16.85
257.535	-3.15
257.671	17.85
257.807	-8.15
257.943	-3.15
258.079	4.85
258.215	-2.15
258.351	3.85
258.487	3.85
258.623	18.85
258.759	-7.15
258.895	7.85
259.031	-12.15
259.167	-22.15
259.303	15.85
259.439	-4.15
259.575	-0.15
259.711	-6.15
259.847	-10.15
259.983	11.85
260.119	6.85
260.255	-3.15
260.391	3.85
260.527	10.85
260.663	15.85
260.799	-8.15
260.934	-6.15
261.07	-6.15
261.206	-16.15
261.342	-34.15
261.478	18.85
261.614	5.85
261.749	0.85
261.885	-5.15
262.021	-1.15
262.157	1.85
262.293	-14.15
262.428	-5.15
262.564	-3.15
262.7	-3.15
262.836	-21.15
262.971	19.85
263.107	7.85
263.243	32.85
263.378	25.85
263.514	-5.15
263.65	19.85
263.785	-5.15
263.921	-6.15
264.057	-18.15
264.192	1.85
264.328	12.85
264.464	-2.15
264.599	14.85
264.735	9.85
264.871	-10.15
265.006	16.85
265.142	14.85
265.277	-0.15
265.413	-1.15
265.548	9.85
265.684	6.85
265.819	4.85
265.955	-3.15
266.091	-10.15
266.226	-11.15
266.362	-2.15
266.497	4.85
266.633	6.85
266.768	-4.15
266.903	8.85
267.039	1.85
267.174	11.85
267.31	-9.15
267.445	-4.15
267.581	15.85
267.716	9.85
267.851	19.85
267.987	11.85
268.122	19.85
268.258	3.85
268.393	6.85
268.528	9.85
268.664	5.85
268.799	-11.15
268.934	10.85
269.07	-9.15
269.205	-6.15
269.34	24.85
269.476	17.85
269.611	-12.15
269.746	9.85
269.881	25.85
270.017	20.85
270.152	17.85
270.287	14.85
270.422	23.85
270.558	1.85
270.693	3.85
270.828	-21.15
270.963	-6.15
271.098	-1.15
271.234	6.85
271.369	17.85
271.504	-5.15
271.639	-14.15
271.774	13.85
271.909	8.85
272.045	-18.15
272.18	1.85
272.315	-17.15
272.45	25.85
272.585	-9.15
272.72	-9.15
272.855	-7.15
272.99	16.85
273.125	-13.15
273.26	0.85
273.395	-5.15
273.53	-4.15
273.665	-2.15
273.8	-5.15
273.935	11.85
274.07	-0.15
274.205	11.85
274.34	4.85
274.475	6.85
274.61	19.85
274.745	-8.15
274.88	19.85
275.015	-14.15
275.15	7.85
275.285	21.85
275.42	4.85
275.555	9.85
275.69	19.85
275.825	6.85
275.959	19.85
276.094	9.85
276.229	-9.15
276.364	-2.15
276.499	8.85
276.634	1.85
276.768	12.85
276.903	4.85
277.038	-3.15
277.173	-4.15
277.308	15.85
277.442	8.85
277.577	1.85
277.712	-3.15
277.847	-3.15
277.981	11.85
278.116	-7.15
278.251	-2.15
278.386	4.85
278.52	8.85
278.655	-10.15
278.79	6.85
278.924	-8.15
279.059	15.85
279.194	-18.15
279.328	41.85
279.463	-0.15
279.598	16.85
279.732	-2.15
279.867	5.85
280.001	2.85
280.136	-7.15
280.271	-0.15
280.405	6.85
280.54	10.85
280.674	0.85
280.809	16.85
280.943	-3.15
281.078	2.85
281.213	7.85
281.347	8.85
281.482	5.85
281.616	-5.15
281.751	6.85
281.885	-10.15
282.02	-17.15
282.154	22.85
282.288	-5.15
282.423	-12.15
282.557	-3.15
282.692	20.85
282.826	-3.15
282.961	-2.15
283.095	13.85
283.229	5.85
283.364	-14.15
283.498	5.85
283.633	16.85
283.767	9.85
283.901	2.85
284.036	6.85
284.17	-2.15
284.304	4.85
284.439	22.85
284.573	3.85
284.707	22.85
284.842	8.85
284.976	16.85
285.11	-6.15
285.244	8.85
285.379	37.85
285.513	-0.15
285.647	9.85
285.781	-2.15
285.916	3.85
286.05	-0.15
286.184	21.85
286.318	11.85
286.453	-8.15
286.587	-10.15
286.721	5.85
286.855	11.85
286.989	23.85
287.123	-7.15
287.258	0.85
287.392	-7.15
287.526	11.85
287.66	7.85
287.794	-22.15
287.928	-6.15
288.062	19.85
288.196	7.85
288.33	-7.15
288.464	7.85
288.598	15.85
288.733	-0.15
288.867	9.85
289.001	-2.15
289.135	8.85
289.269	-14.15
289.403	-2.15
289.537	5.85
289.671	-5.15
289.805	-9.15
289.939	8.85
290.073	4.85
290.207	21.85
290.34	-1.15
290.474	14.85
290.608	6.85
290.742	-2.15
290.876	-16.15
291.01	-4.15
291.144	20.85
291.278	5.85
291.412	14.85
291.546	9.85
291.679	5.85
291.813	13.85
291.947	21.85
292.081	2.85
292.215	7.85
292.349	10.85
292.482	1.85
292.616	-20.15
292.75	2.85
292.884	2.85
293.018	7.85
293.151	-12.15
293.285	9.85
293.419	-9.15
293.553	-1.15
293.686	-7.15
293.82	-4.15
293.954	25.85
294.088	20.85
294.221	-3.15
294.355	-8.15
294.489	9.85
294.622	-10.15
294.756	-11.15
294.89	0.85
295.023	-0.15
295.157	2.85
295.291	3.85
295.424	15.85
295.558	2.85
295.691	3.85
295.825	3.85
295.959	24.85
296.092	8.85
296.226	-10.15
296.359	14.85
296.493	10.85
296.627	16.85
296.76	5.85
296.894	-8.15
297.027	-16.15
297.161	3.85
297.294	5.85
297.428	-5.15
297.561	21.85
297.695	-21.15
297.828	0.85
297.962	9.85
298.095	-23.15
298.229	-9.15
298.362	-23.15
298.495	-17.15
298.629	-22.15
298.762	1.85
298.896	-9.15
299.029	-20.15
299.162	-13.15
299.296	10.85
299.429	-2.15
299.563	-2.15
299.696	2.85
299.829	-5.15
299.963	20.85
300.096	8.85
300.229	-3.15
300.363	-8.15
300.496	5.85
300.629	-21.15
300.763	-5.15
300.896	-16.15
301.029	4.85
301.162	-1.15
301.296	-15.15
301.429	-9.15
301.562	-14.15
301.695	2.85
301.829	6.85
301.962	15.85
302.095	-9.15
302.228	-17.15
302.362	10.85
302.495	-1.15
302.628	1.85
302.761	-5.15
302.894	-6.15
303.027	28.85
303.161	7.85
303.294	8.85
303.427	13.85
303.56	0.85
303.693	-14.15
303.826	3.85
303.959	0.85
304.092	-15.15
304.225	-1.15
304.359	16.85
304.492	20.85
304.625	-16.15
304.758	24.85
304.891	-7.15
305.024	-3.15
305.157	6.85
305.29	-6.15
305.423	-3.15
305.556	11.85
305.689	19.85
305.822	0.85
305.955	-8.15
306.088	-7.15
306.221	-5.15
306.354	1.85
306.487	-5.15
306.62	-6.15
306.752	4.85
306.885	-10.15
307.018	-1.15
307.151	6.85
307.284	7.85
307.417	-0.15
307.55	10.85
307.683	8.85
307.816	33.85
307.948	4.85
308.081	2.85
308.214	-9.15
308.347	7.85
308.48	1.85
308.613	14.85
308.745	10.85
308.878	5.85
309.011	12.85
309.144	16.85
309.277	4.85
309.409	8.85
309.542	-10.15
309.675	16.85
309.808	17.85
309.94	29.85
310.073	0.85
310.206	-5.15
310.339	4.85
310.471	-14.15
310.604	25.85
310.737	8.85
310.869	-2.15
311.002	11.85
311.135	8.85
311.267	-17.15
311.4	-13.15
311.533	10.85
311.665	6.85
311.798	5.85
311.93	9.85
312.063	27.85
312.196	46.85
312.328	80.85
312.461	53.85
312.593	8.85
312.726	48.85
312.859	87.85
312.991	160.85
313.124	56.85
313.256	21.85
313.389	20.85
313.521	6.85
313.654	-12.15
313.786	-8.15
313.919	-3.15
314.051	14.85
314.184	10.85
314.316	10.85
314.449	-2.15
314.581	4.85
314.714	10.85
314.846	7.85
314.978	-14.15
315.111	6.85
315.243	13.85
315.376	13.85
315.508	5.85
315.641	4.85
315.773	11.85
315.905	-4.15
316.038	11.85
316.17	5.85
316.302	6.85
316.435	13.85
316.567	-7.15
316.699	4.85
316.832	-2.15
316.964	-14.15
317.096	-3.15
317.229	-8.15
317.361	-15.15
317.493	-10.15
317.625	-12.15
317.758	12.85
317.89	11.85
318.022	9.85
318.155	-7.15
318.287	-14.15
318.419	-3.15
318.551	-7.15
318.683	6.85
318.816	7.85
318.948	7.85
319.08	-10.15
319.212	18.85
319.344	11.85
319.477	-0.15
319.609	21.85
319.741	25.85
319.873	1.85
320.005	-8.15
320.137	-7.15
320.269	-8.15
320.401	-0.15
320.534	-8.15
320.666	-17.15
320.798	-8.15
320.93	-3.15
321.062	-23.15
321.194	-12.15
321.326	11.85
321.458	20.85
321.59	0.85
321.722	6.85
321.854	17.85
321.986	12.85
322.118	21.85
322.25	-6.15
322.382	2.85
322.514	8.85
322.646	17.85
322.778	7.85
322.91	-3.15
323.042	4.85
323.174	3.85
323.306	-10.15
323.438	-8.15
323.57	5.85
323.702	-4.15
323.834	-7.15
323.966	-15.15
324.097	11.85
324.229	8.85
324.361	14.85
324.493	-3.15
324.625	-6.15
324.757	6.85
324.889	-10.15
325.021	14.85
325.152	40.85
325.284	17.85
325.416	-10.15
325.548	9.85
325.68	-1.15
325.811	17.85
325.943	1.85
326.075	-13.15
326.207	5.85
326.339	11.85
326.47	-5.15
326.602	7.85
326.734	21.85
326.866	12.85
326.997	-6.15
327.129	8.85
327.261	5.85
327.392	-2.15
327.524	13.85
327.656	8.85
327.787	16.85
327.919	13.85
328.051	-7.15
328.182	20.85
328.314	18.85
328.446	0.85
328.577	7.85
328.709	9.85
328.841	-21.15
328.972	-12.15
329.104	11.85
329.235	7.85
329.367	-10.15
329.499	-9.15
329.63	-10.15
329.762	-15.15
329.893	-2.15
330.025	3.85
330.156	-5.15
330.288	14.85
330.419	29.85
330.551	7.85
330.683	1.85
330.814	5.85
330.946	11.85
331.077	12.85
331.208	-10.15
331.34	-5.15
331.471	0.85
331.603	9.85
331.734	-10.15
331.866	0.85
331.997	1.85
332.129	6.85
332.26	4.85
332.392	11.85
332.523	-2.15
332.654	2.85
332.786	-7.15
332.917	-10.15
333.048	25.85
333.18	15.85
333.311	-13.15
333.443	9.85
333.574	7.85
333.705	27.85
333.837	43.85
333.968	127.85
334.099	216.85
334.231	203.85
334.362	61.85
334.493	43.85
334.624	31.85
334.756	12.85
334.887	6.85
335.018	5.85
335.15	17.85
335.281	24.85
335.412	1.85
335.543	22.85
335.675	9.85
335.806	20.85
335.937	-1.15
336.068	12.85
336.199	51.85
336.331	-12.15
336.462	-2.15
336.593	4.85
336.724	-2.15
336.855	6.85
336.986	16.85
337.118	5.85
337.249	7.85
337.38	19.85
337.511	0.85
337.642	-14.15
337.773	11.85
337.904	12.85
338.035	38.85
338.166	10.85
338.298	31.85
338.429	-6.15
338.56	6.85
338.691	13.85
338.822	1.85
338.953	12.85
339.084	25.85
339.215	13.85
339.346	29.85
339.477	36.85
339.608	14.85
339.739	-0.15
339.87	14.85
340.001	-0.15
340.132	17.85
340.263	14.85
340.394	2.85
340.525	-2.15
340.656	9.85
340.787	-4.15
340.918	20.85
341.049	8.85
341.179	21.85
341.31	14.85
341.441	14.85
341.572	9.85
341.703	-0.15
341.834	-5.15
341.965	11.85
342.096	15.85
342.227	20.85
342.357	14.85
342.488	13.85
342.619	4.85
342.75	26.85
342.881	0.85
343.012	30.85
343.142	32.85
343.273	9.85
343.404	32.85
343.535	43.85
343.666	34.85
343.796	29.85
343.927	28.85
344.058	34.85
344.189	26.85
344.319	26.85
344.45	25.85
344.581	32.85
344.712	5.85
344.842	24.85
344.973	16.85
345.104	29.85
345.234	0.85
345.365	-0.15
345.496	21.85
345.626	39.85
345.757	34.85
345.888	25.85
346.018	39.85
346.149	35.85
346.28	37.85
346.41	16.85
346.541	29.85
346.672	15.85
346.802	17.85
346.933	27.85
347.063	8.85
347.194	15.85
347.325	41.85
347.455	30.85
347.586	32.85
347.716	44.85
347.847	24.85
347.977	21.85
348.108	34.85
348.238	20.85
348.369	30.85
348.499	29.85
348.63	23.85
348.76	46.85
348.891	64.85
349.021	61.85
349.152	75.85
349.282	55.85
349.413	25.85
349.543	49.85
349.674	33.85
349.804	32.85
349.935	14.85
350.065	17.85
350.196	21.85
350.326	36.85
350.456	21.85
350.587	30.85
350.717	25.85
350.848	30.85
350.978	23.85
351.108	-1.15
351.239	29.85
351.369	26.85
351.499	15.85
351.63	31.85
351.76	13.85
351.89	28.85
352.021	30.85
352.151	27.85
352.281	36.85
352.412	17.85
352.542	22.85
352.672	29.85
352.803	9.85
352.933	12.85
353.063	32.85
353.193	23.85
353.324	27.85
353.454	38.85
353.584	57.85
353.714	39.85
353.845	25.85
353.975	13.85
354.105	12.85
354.235	20.85
354.365	21.85
354.496	11.85
354.626	23.85
354.756	20.85
354.886	6.85
355.016	27.85
355.146	22.85
355.277	17.85
355.407	23.85
355.537	30.85
355.667	26.85
355.797	30.85
355.927	8.85
356.057	18.85
356.187	13.85
356.318	32.85
356.448	21.85
356.578	21.85
356.708	35.85
356.838	36.85
356.968	14.85
357.098	32.85
357.228	30.85
357.358	31.85
357.488	22.85
357.618	51.85
357.748	36.85
357.878	33.85
358.008	34.85
358.138	19.85
358.268	24.85
358.398	38.85
358.528	25.85
358.658	24.85
358.788	30.85
358.918	32.85
359.048	28.85
359.178	32.85
359.308	37.85
359.438	32.85
359.568	32.85
359.698	41.85
359.827	14.85
359.957	30.85
360.087	27.85
360.217	25.85
360.347	41.85
360.477	32.85
360.607	5.85
360.737	38.85
360.866	21.85
360.996	8.85
361.126	36.85
361.256	52.85
361.386	54.85
361.516	32.85
361.645	-4.15
361.775	47.85
361.905	17.85
362.035	29.85
362.165	43.85
362.294	54.85
362.424	50.85
362.554	55.85
362.684	33.85
362.813	54.85
362.943	49.85
363.073	46.85
363.203	57.85
363.332	89.85
363.462	65.85
363.592	85.85
363.721	116.85
363.851	157.85
363.981	208.85
364.111	249.85
364.24	322.85
364.37	470.85
364.5	831.85
364.629	1798.85
364.759	3847.85
364.888	6188.85
365.018	9314.85
365.148	14776.85
365.277	12915.85
365.407	4765.85
365.537	3085.85
365.666	4013.85
365.796	1828.85
365.925	801.85
366.055	750.85
366.184	1031.85
366.314	1390.85
366.444	2447.85
366.573	2105.85
366.703	651.85
366.832	210.85
366.962	108.85
367.091	86.85
367.221	97.85
367.35	57.85
367.48	79.85
367.609	52.85
367.739	52.85
367.868	29.85
367.998	57.85
368.127	57.85
368.257	40.85
368.386	61.85
368.516	58.85
368.645	47.85
368.775	35.85
368.904	29.85
369.033	47.85
369.163	38.85
369.292	28.85
369.422	29.85
369.551	50.85
369.68	55.85
369.81	32.85
369.939	26.85
370.069	49.85
370.198	53.85
370.327	44.85
370.457	37.85
370.586	44.85
370.715	35.85
370.845	29.85
370.974	36.85
371.103	57.85
371.233	52.85
371.362	63.85
371.491	26.85
371.621	61.85
371.75	51.85
371.879	52.85
372.008	39.85
372.138	62.85
372.267	63.85
372.396	52.85
372.525	49.85
372.655	40.85
372.784	36.85
372.913	24.85
373.042	25.85
373.172	33.85
373.301	7.85
373.43	1.85
373.559	9.85
373.688	28.85
373.818	28.85
373.947	31.85
374.076	15.85
374.205	19.85
374.334	12.85
374.463	23.85
374.593	36.85
374.722	34.85
374.851	43.85
374.98	13.85
375.109	16.85
375.238	40.85
375.367	51.85
375.496	20.85
375.625	-2.15
375.755	30.85
375.884	32.85
376.013	31.85
376.142	12.85
376.271	13.85
376.4	19.85
376.529	26.85
376.658	30.85
376.787	45.85
376.916	19.85
377.045	16.85
377.174	30.85
377.303	13.85
377.432	50.85
377.561	28.85
377.69	6.85
377.819	34.85
377.948	21.85
378.077	11.85
378.206	-4.15
378.335	3.85
378.464	5.85
378.593	31.85
378.722	9.85
378.851	27.85
378.98	28.85
379.108	-4.15
379.237	2.85
379.366	21.85
379.495	16.85
379.624	23.85
379.753	44.85
379.882	26.85
380.011	0.85
380.14	16.85
380.268	8.85
380.397	19.85
380.526	18.85
380.655	3.85
380.784	-8.15
380.913	-3.15
381.041	10.85
381.17	2.85
381.299	16.85
381.428	23.85
381.557	18.85
381.685	0.85
381.814	13.85
381.943	16.85
382.072	12.85
382.2	13.85
382.329	8.85
382.458	11.85
382.587	3.85
382.715	19.85
382.844	13.85
382.973	-3.15
383.102	15.85
383.23	13.85
383.359	2.85
383.488	20.85
383.616	18.85
383.745	7.85
383.874	25.85
384.003	24.85
384.131	20.85
384.26	13.85
384.389	20.85
384.517	16.85
384.646	13.85
384.774	12.85
384.903	26.85
385.032	29.85
385.16	11.85
385.289	12.85
385.418	21.85
385.546	28.85
385.675	27.85
385.803	19.85
385.932	12.85
386.06	-6.15
386.189	12.85
386.318	19.85
386.446	12.85
386.575	40.85
386.703	19.85
386.832	18.85
386.96	1.85
387.089	24.85
387.217	8.85
387.346	14.85
387.474	15.85
387.603	28.85
387.731	22.85
387.86	45.85
387.988	30.85
388.117	33.85
388.245	5.85
388.374	23.85
388.502	36.85
388.631	13.85
388.759	20.85
388.888	22.85
389.016	15.85
389.144	16.85
389.273	22.85
389.401	16.85
389.53	9.85
389.658	38.85
389.786	11.85
389.915	-7.15
390.043	33.85
390.172	20.85
390.3	42.85
390.428	33.85
390.557	26.85
390.685	40.85
390.813	29.85
390.942	35.85
391.07	30.85
391.198	17.85
391.327	23.85
391.455	11.85
391.583	52.85
391.712	36.85
391.84	30.85
391.968	27.85
392.096	11.85
392.225	13.85
392.353	31.85
392.481	10.85
392.609	44.85
392.738	35.85
392.866	31.85
392.994	-1.15
393.122	35.85
393.251	18.85
393.379	24.85
393.507	12.85
393.635	23.85
393.764	30.85
393.892	36.85
394.02	24.85
394.148	38.85
394.276	16.85
394.404	28.85
394.533	21.85
394.661	34.85
394.789	34.85
394.917	38.85
395.045	26.85
395.173	26.85
395.302	46.85
395.43	25.85
395.558	45.85
395.686	33.85
395.814	50.85
395.942	26.85
396.07	33.85
396.198	24.85
396.326	18.85
396.454	41.85
396.582	32.85
396.711	27.85
396.839	24.85
396.967	36.85
397.095	39.85
397.223	40.85
397.351	61.85
397.479	35.85
397.607	43.85
397.735	60.85
397.863	56.85
397.991	35.85
398.119	10.85
398.247	38.85
398.375	41.85
398.503	55.85
398.631	48.85
398.759	54.85
398.887	55.85
399.015	47.85
399.143	55.85
399.271	58.85
399.399	62.85
399.526	79.85
399.654	90.85
399.782	62.85
399.91	105.85
400.038	89.85
400.166	80.85
400.294	102.85
400.422	84.85
400.55	108.85
400.678	115.85
400.805	117.85
400.933	113.85
401.061	111.85
401.189	112.85
401.317	159.85
401.445	113.85
401.573	66.85
401.7	39.85
401.828	46.85
401.956	47.85
402.084	39.85
402.212	30.85
402.34	31.85
402.467	34.85
402.595	38.85
402.723	32.85
402.851	50.85
402.978	47.85
403.106	67.85
403.234	63.85
403.362	115.85
403.489	123.85
403.617	159.85
403.745	181.85
403.873	282.85
404	570.85
404.128	1439.85
404.256	3877.85
404.384	5073.85
404.511	5356.85
404.639	7128.85
404.767	11357.85
404.894	14561.85
405.022	4845.85
405.15	1264.85
405.277	410.85
405.405	243.85
405.533	125.85
405.66	104.85
405.788	56.85
405.916	64.85
406.043	44.85
406.171	56.85
406.299	58.85
406.426	54.85
406.554	65.85
406.681	67.85
406.809	58.85
406.937	42.85
407.064	60.85
407.192	107.85
407.319	283.85
407.447	534.85
407.574	518.85
407.702	620.85
407.83	821.85
407.957	1613.85
408.085	946.85
408.212	294.85
408.34	94.85
408.467	43.85
408.595	43.85
408.722	50.85
408.85	34.85
408.977	39.85
409.105	35.85
409.232	36.85
409.36	33.85
409.487	31.85
409.615	25.85
409.742	25.85
409.87	31.85
409.997	53.85
410.125	37.85
410.252	31.85
410.379	16.85
410.507	28.85
410.634	35.85
410.762	28.85
410.889	33.85
411.017	16.85
411.144	27.85
411.271	22.85
411.399	30.85
411.526	16.85
411.653	49.85
411.781	43.85
411.908	16.85
412.036	9.85
412.163	37.85
412.29	59.85
412.418	29.85
412.545	34.85
412.672	11.85
412.8	39.85
412.927	30.85
413.054	35.85
413.182	40.85
413.309	31.85
413.436	21.85
413.564	13.85
413.691	9.85
413.818	40.85
413.945	14.85
414.073	12.85
414.2	17.85
414.327	32.85
414.454	40.85
414.582	25.85
414.709	16.85
414.836	32.85
414.963	26.85
415.091	35.85
415.218	24.85
415.345	33.85
415.472	19.85
415.6	18.85
415.727	25.85
415.854	39.85
415.981	7.85
416.108	39.85
416.236	42.85
416.363	34.85
416.49	37.85
416.617	39.85
416.744	39.85
416.871	30.85
416.998	27.85
417.126	27.85
417.253	23.85
417.38	20.85
417.507	36.85
417.634	47.85
417.761	34.85
417.888	32.85
418.015	24.85
418.143	43.85
418.27	55.85
418.397	31.85
418.524	38.85
418.651	49.85
418.778	37.85
418.905	48.85
419.032	44.85
419.159	28.85
419.286	54.85
419.413	51.85
419.54	55.85
419.667	35.85
419.794	29.85
419.921	45.85
420.048	43.85
420.175	46.85
420.302	41.85
420.429	36.85
420.556	38.85
420.683	35.85
420.81	62.85
420.937	75.85
421.064	79.85
421.191	58.85
421.318	65.85
421.445	73.85
421.572	59.85
421.699	38.85
421.826	58.85
421.953	43.85
422.08	35.85
422.207	13.85
422.334	19.85
422.461	30.85
422.588	3.85
422.714	33.85
422.841	41.85
422.968	36.85
423.095	23.85
423.222	33.85
423.349	42.85
423.476	16.85
423.603	10.85
423.729	8.85
423.856	27.85
423.983	30.85
424.11	-2.15
424.237	35.85
424.364	29.85
424.491	18.85
424.617	12.85
424.744	13.85
424.871	14.85
424.998	7.85
425.125	19.85
425.251	25.85
425.378	23.85
425.505	19.85
425.632	17.85
425.758	4.85
425.885	22.85
426.012	29.85
426.139	44.85
426.266	27.85
426.392	34.85
426.519	18.85
426.646	-3.15
426.772	22.85
426.899	15.85
427.026	29.85
427.153	33.85
427.279	17.85
427.406	35.85
427.533	8.85
427.659	23.85
427.786	7.85
427.913	52.85
428.039	16.85
428.166	10.85
428.293	29.85
428.419	21.85
428.546	11.85
428.673	9.85
428.799	8.85
428.926	21.85
429.053	39.85
429.179	22.85
429.306	55.85
429.433	37.85
429.559	31.85
429.686	20.85
429.812	28.85
429.939	29.85
430.066	38.85
430.192	27.85
430.319	28.85
430.445	39.85
430.572	16.85
430.699	0.85
430.825	13.85
430.952	25.85
431.078	27.85
431.205	43.85
431.331	19.85
431.458	20.85
431.584	31.85
431.711	31.85
431.837	28.85
431.964	25.85
432.09	29.85
432.217	4.85
432.343	19.85
432.47	48.85
432.596	23.85
432.723	31.85
432.849	30.85
432.976	37.85
433.102	39.85
433.229	29.85
433.355	36.85
433.482	78.85
433.608	92.85
433.735	88.85
433.861	107.85
433.987	147.85
434.114	190.85
434.24	188.85
434.367	210.85
434.493	223.85
434.62	277.85
434.746	365.85
434.872	627.85
434.999	804.85
435.125	1696.85
435.252	5526.85
435.378	13350.85
435.504	15171.85
435.631	15379.85
435.757	15682.85
435.883	15682.85
436.01	15682.85
436.136	15682.85
436.262	15682.85
436.389	3435.85
436.515	1935.85
436.641	767.85
436.768	640.85
436.894	388.85
437.02	366.85
437.147	285.85
437.273	281.85
437.399	199.85
437.526	245.85
437.652	175.85
437.778	215.85
437.904	148.85
438.031	161.85
438.157	139.85
438.283	147.85
438.409	104.85
438.536	125.85
438.662	123.85
438.788	126.85
438.914	97.85
439.041	110.85
439.167	126.85
439.293	103.85
439.419	70.85
439.546	85.85
439.672	85.85
439.798	85.85
439.924	91.85
440.05	91.85
440.177	76.85
440.303	65.85
440.429	57.85
440.555	71.85
440.681	57.85
440.807	76.85
440.934	43.85
441.06	53.85
441.186	61.85
441.312	64.85
441.438	60.85
441.564	63.85
441.69	69.85
441.816	60.85
441.943	36.85
442.069	50.85
442.195	53.85
442.321	62.85
442.447	33.85
442.573	36.85
442.699	24.85
442.825	41.85
442.951	42.85
443.077	50.85
443.203	64.85
443.33	59.85
443.456	33.85
443.582	43.85
443.708	42.85
443.834	46.85
443.96	49.85
444.086	43.85
444.212	60.85
444.338	57.85
444.464	40.85
444.59	57.85
444.716	29.85
444.842	41.85
444.968	38.85
445.094	35.85
445.22	21.85
445.346	24.85
445.472	36.85
445.598	31.85
445.724	33.85
445.85	32.85
445.976	39.85
446.102	50.85
446.228	36.85
446.354	44.85
446.48	31.85
446.605	33.85
446.731	31.85
446.857	27.85
446.983	34.85
447.109	19.85
447.235	14.85
447.361	23.85
447.487	36.85
447.613	31.85
447.739	9.85
447.865	36.85
447.99	47.85
448.116	43.85
448.242	34.85
448.368	24.85
448.494	5.85
448.62	54.85
448.746	54.85
448.872	49.85
448.997	23.85
449.123	35.85
449.249	49.85
449.375	48.85
449.501	43.85
449.627	26.85
449.752	39.85
449.878	14.85
450.004	13.85
450.13	48.85
450.256	26.85
450.381	25.85
450.507	28.85
450.633	20.85
450.759	34.85
450.884	30.85
451.01	34.85
451.136	12.85
451.262	37.85
451.388	26.85
451.513	32.85
451.639	36.85
451.765	48.85
451.89	41.85
452.016	34.85
452.142	20.85
452.268	30.85
452.393	24.85
452.519	15.85
452.645	35.85
452.771	27.85
452.896	10.85
453.022	28.85
453.148	29.85
453.273	16.85
453.399	31.85
453.525	13.85
453.65	20.85
453.776	45.85
453.902	25.85
454.027	36.85
454.153	44.85
454.279	39.85
454.404	9.85
454.53	51.85
454.656	51.85
454.781	12.85
454.907	12.85
455.032	20.85
455.158	43.85
455.284	49.85
455.409	38.85
455.535	41.85
455.66	33.85
455.786	30.85
455.912	32.85
456.037	7.85
456.163	27.85
456.288	25.85
456.414	16.85
456.539	14.85
456.665	28.85
456.791	32.85
456.916	22.85
457.042	21.85
457.167	12.85
457.293	19.85
457.418	21.85
457.544	5.85
457.669	19.85
457.795	23.85
457.92	23.85
458.046	20.85
458.171	23.85
458.297	7.85
458.422	27.85
458.548	23.85
458.673	25.85
458.799	24.85
458.924	37.85
459.05	27.85
459.175	22.85
459.301	27.85
459.426	49.85
459.552	33.85
459.677	15.85
459.803	47.85
459.928	35.85
460.053	25.85
460.179	22.85
460.304	48.85
460.43	26.85
460.555	9.85
460.681	35.85
460.806	26.85
460.931	25.85
461.057	34.85
461.182	25.85
461.308	45.85
461.433	31.85
461.558	11.85
461.684	33.85
461.809	34.85
461.934	19.85
462.06	43.85
462.185	20.85
462.311	34.85
462.436	30.85
462.561	23.85
462.687	37.85
462.812	23.85
462.937	9.85
463.063	8.85
463.188	7.85
463.313	23.85
463.439	12.85
463.564	2.85
463.689	29.85
463.814	38.85
463.94	24.85
464.065	31.85
464.19	43.85
464.316	16.85
464.441	20.85
464.566	12.85
464.692	16.85
464.817	7.85
464.942	20.85
465.067	25.85
465.193	13.85
465.318	14.85
465.443	15.85
465.568	5.85
465.694	9.85
465.819	40.85
465.944	16.85
466.069	29.85
466.194	30.85
466.32	20.85
466.445	19.85
466.57	18.85
466.695	25.85
466.82	10.85
466.946	40.85
467.071	19.85
467.196	36.85
467.321	36.85
467.446	24.85
467.572	41.85
467.697	35.85
467.822	48.85
467.947	48.85
468.072	31.85
468.197	20.85
468.323	21.85
468.448	25.85
468.573	35.85
468.698	21.85
468.823	31.85
468.948	33.85
469.073	31.85
469.198	31.85
469.324	52.85
469.449	43.85
469.574	47.85
469.699	46.85
469.824	64.85
469.949	34.85
470.074	59.85
470.199	67.85
470.324	49.85
470.449	49.85
470.574	15.85
470.7	19.85
470.825	40.85
470.95	57.85
471.075	38.85
471.2	39.85
471.325	37.85
471.45	30.85
471.575	23.85
471.7	31.85
471.825	27.85
471.95	34.85
472.075	12.85
472.2	24.85
472.325	41.85
472.45	25.85
472.575	33.85
472.7	17.85
472.825	30.85
472.95	37.85
473.075	32.85
473.2	20.85
473.325	29.85
473.45	34.85
473.575	34.85
473.7	44.85
473.825	37.85
473.95	33.85
474.075	36.85
474.2	20.85
474.325	0.85
474.45	37.85
474.574	24.85
474.699	20.85
474.824	24.85
474.949	16.85
475.074	13.85
475.199	36.85
475.324	41.85
475.449	23.85
475.574	25.85
475.699	23.85
475.824	16.85
475.949	43.85
476.073	13.85
476.198	48.85
476.323	21.85
476.448	24.85
476.573	18.85
476.698	15.85
476.823	13.85
476.947	30.85
477.072	42.85
477.197	6.85
477.322	39.85
477.447	15.85
477.572	34.85
477.697	7.85
477.821	26.85
477.946	19.85
478.071	20.85
478.196	27.85
478.321	21.85
478.445	4.85
478.57	16.85
478.695	14.85
478.82	20.85
478.945	24.85
479.069	0.85
479.194	10.85
479.319	22.85
479.444	33.85
479.569	18.85
479.693	25.85
479.818	36.85
479.943	20.85
480.068	25.85
480.192	32.85
480.317	23.85
480.442	14.85
480.567	-0.15
480.691	0.85
480.816	4.85
480.941	-0.15
481.066	12.85
481.19	28.85
481.315	26.85
481.44	27.85
481.564	-4.15
481.689	24.85
481.814	33.85
481.938	1.85
482.063	7.85
482.188	23.85
482.313	34.85
482.437	13.85
482.562	6.85
482.687	39.85
482.811	23.85
482.936	27.85
483.061	36.85
483.185	12.85
483.31	24.85
483.435	21.85
483.559	32.85
483.684	24.85
483.808	44.85
483.933	38.85
484.058	13.85
484.182	20.85
484.307	9.85
484.432	27.85
484.556	48.85
484.681	42.85
484.805	27.85
484.93	35.85
485.055	40.85
485.179	55.85
485.304	25.85
485.428	25.85
485.553	20.85
485.678	19.85
485.802	21.85
485.927	33.85
486.051	28.85
486.176	14.85
486.3	-6.15
486.425	12.85
486.549	32.85
486.674	35.85
486.799	30.85
486.923	14.85
487.048	35.85
487.172	25.85
487.297	16.85
487.421	29.85
487.546	19.85
487.67	26.85
487.795	11.85
487.919	16.85
488.044	28.85
488.168	32.85
488.293	26.85
488.417	21.85
488.542	26.85
488.666	29.85
488.791	18.85
488.915	8.85
489.04	35.85
489.164	21.85
489.289	28.85
489.413	18.85
489.538	27.85
489.662	34.85
489.786	23.85
489.911	25.85
490.035	20.85
490.16	5.85
490.284	13.85
490.409	8.85
490.533	16.85
490.658	31.85
490.782	45.85
490.906	49.85
491.031	117.85
491.155	128.85
491.28	136.85
491.404	162.85
491.528	269.85
491.653	149.85
491.777	74.85
491.902	14.85
492.026	29.85
492.15	26.85
492.275	44.85
492.399	24.85
492.524	11.85
492.648	26.85
492.772	20.85
492.897	40.85
493.021	30.85
493.145	18.85
493.27	50.85
493.394	30.85
493.518	5.85
493.643	-0.15
493.767	21.85
493.891	12.85
494.016	15.85
494.14	14.85
494.264	11.85
494.389	36.85
494.513	13.85
494.637	8.85
494.762	34.85
494.886	27.85
495.01	27.85
495.134	17.85
495.259	18.85
495.383	42.85
495.507	6.85
495.632	51.85
495.756	56.85
495.88	14.85
496.004	11.85
496.129	3.85
496.253	22.85
496.377	16.85
496.501	35.85
496.626	-2.15
496.75	8.85
496.874	16.85
496.998	26.85
497.123	28.85
497.247	28.85
497.371	19.85
497.495	38.85
497.62	24.85
497.744	6.85
497.868	17.85
497.992	20.85
498.116	14.85
498.241	25.85
498.365	24.85
498.489	9.85
498.613	39.85
498.737	31.85
498.862	33.85
498.986	19.85
499.11	22.85
499.234	3.85
499.358	7.85
499.482	24.85
499.607	16.85
499.731	32.85
499.855	42.85
499.979	31.85
500.103	33.85
500.227	32.85
500.351	19.85
500.476	16.85
500.6	30.85
500.724	29.85
500.848	14.85
500.972	39.85
501.096	17.85
501.22	36.85
501.344	24.85
501.469	18.85
501.593	11.85
501.717	27.85
501.841	13.85
501.965	8.85
502.089	27.85
502.213	28.85
502.337	30.85
502.461	8.85
502.585	21.85
502.709	13.85
502.834	11.85
502.958	16.85
503.082	27.85
503.206	25.85
503.33	28.85
503.454	27.85
503.578	46.85
503.702	23.85
503.826	35.85
503.95	39.85
504.074	27.85
504.198	10.85
504.322	9.85
504.446	27.85
504.57	18.85
504.694	28.85
504.818	22.85
504.942	38.85
505.066	17.85
505.19	8.85
505.314	31.85
505.438	29.85
505.562	27.85
505.686	24.85
505.81	21.85
505.934	34.85
506.058	38.85
506.182	19.85
506.306	29.85
506.43	15.85
506.554	14.85
506.678	18.85
506.802	15.85
506.926	10.85
507.05	17.85
507.174	26.85
507.298	25.85
507.422	5.85
507.546	29.85
507.67	30.85
507.794	12.85
507.918	23.85
508.042	29.85
508.165	11.85
508.289	13.85
508.413	19.85
508.537	-2.15
508.661	34.85
508.785	30.85
508.909	40.85
509.033	15.85
509.157	26.85
509.281	40.85
509.405	29.85
509.528	41.85
509.652	43.85
509.776	9.85
509.9	41.85
510.024	26.85
510.148	44.85
510.272	41.85
510.396	39.85
510.519	27.85
510.643	43.85
510.767	34.85
510.891	27.85
511.015	54.85
511.139	24.85
511.263	46.85
511.386	47.85
511.51	37.85
511.634	31.85
511.758	44.85
511.882	35.85
512.006	43.85
512.129	60.85
512.253	84.85
512.377	80.85
512.501	96.85
512.625	84.85
512.748	74.85
512.872	77.85
512.996	52.85
513.12	53.85
513.244	52.85
513.367	64.85
513.491	77.85
513.615	77.85
513.739	68.85
513.862	93.85
513.986	93.85
514.11	109.85
514.234	102.85
514.358	110.85
514.481	112.85
514.605	110.85
514.729	111.85
514.853	128.85
514.976	108.85
515.1	109.85
515.224	112.85
515.348	72.85
515.471	74.85
515.595	112.85
515.719	151.85
515.842	207.85
515.966	276.85
516.09	303.85
516.214	302.85
516.337	341.85
516.461	241.85
516.585	83.85
516.708	34.85
516.832	25.85
516.956	35.85
517.08	1.85
517.203	11.85
517.327	29.85
517.451	19.85
517.574	47.85
517.698	27.85
517.822	23.85
517.945	22.85
518.069	19.85
518.193	57.85
518.316	4.85
518.44	6.85
518.564	3.85
518.687	15.85
518.811	27.85
518.935	59.85
519.058	33.85
519.182	43.85
519.306	19.85
519.429	5.85
519.553	44.85
519.676	30.85
519.8	32.85
519.924	12.85
520.047	23.85
520.171	9.85
520.294	33.85
520.418	25.85
520.542	6.85
520.665	16.85
520.789	28.85
520.913	-9.15
521.036	5.85
521.16	9.85
521.283	8.85
521.407	6.85
521.53	5.85
521.654	7.85
521.778	32.85
521.901	12.85
522.025	15.85
522.148	6.85
522.272	16.85
522.395	16.85
522.519	23.85
522.643	18.85
522.766	3.85
522.89	29.85
523.013	36.85
523.137	6.85
523.26	6.85
523.384	19.85
523.507	10.85
523.631	16.85
523.754	6.85
523.878	23.85
524.002	11.85
524.125	20.85
524.249	8.85
524.372	23.85
524.496	36.85
524.619	17.85
524.743	27.85
524.866	20.85
524.99	19.85
525.113	12.85
525.237	14.85
525.36	35.85
525.484	19.85
525.607	8.85
525.731	6.85
525.854	9.85
525.978	27.85
526.101	28.85
526.224	21.85
526.348	23.85
526.471	11.85
526.595	31.85
526.718	33.85
526.842	16.85
526.965	23.85
527.089	24.85
527.212	16.85
527.336	11.85
527.459	27.85
527.582	8.85
527.706	20.85
527.829	34.85
527.953	19.85
528.076	13.85
528.2	14.85
528.323	23.85
528.446	22.85
528.57	20.85
528.693	35.85
528.817	21.85
528.94	26.85
529.064	39.85
529.187	17.85
529.31	24.85
529.434	11.85
529.557	12.85
529.68	4.85
529.804	30.85
529.927	23.85
530.051	17.85
530.174	19.85
530.297	12.85
530.421	19.85
530.544	35.85
530.668	13.85
530.791	25.85
530.914	32.85
531.038	15.85
531.161	1.85
531.284	10.85
531.408	29.85
531.531	6.85
531.654	19.85
531.778	23.85
531.901	-12.15
532.024	20.85
532.148	7.85
532.271	22.85
532.394	20.85
532.518	14.85
532.641	16.85
532.764	18.85
532.888	21.85
533.011	-11.15
533.134	1.85
533.258	19.85
533.381	0.85
533.504	17.85
533.628	30.85
533.751	16.85
533.874	20.85
533.997	14.85
534.121	6.85
534.244	20.85
534.367	16.85
534.491	4.85
534.614	10.85
534.737	27.85
534.86	39.85
534.984	7.85
535.107	21.85
535.23	21.85
535.354	9.85
535.477	3.85
535.6	13.85
535.723	31.85
535.847	33.85
535.97	-0.15
536.093	21.85
536.216	4.85
536.34	18.85
536.463	21.85
536.586	17.85
536.709	20.85
536.833	20.85
536.956	23.85
537.079	-0.15
537.202	39.85
537.325	21.85
537.449	-3.15
537.572	25.85
537.695	12.85
537.818	4.85
537.941	6.85
538.065	10.85
538.188	12.85
538.311	28.85
538.434	23.85
538.558	14.85
538.681	26.85
538.804	21.85
538.927	37.85
539.05	29.85
539.173	17.85
539.297	16.85
539.42	23.85
539.543	34.85
539.666	34.85
539.789	36.85
539.913	35.85
540.036	24.85
540.159	36.85
540.282	10.85
540.405	3.85
540.528	11.85
540.651	33.85
540.775	16.85
540.898	36.85
541.021	24.85
541.144	33.85
541.267	43.85
541.39	31.85
541.513	43.85
541.637	26.85
541.76	8.85
541.883	31.85
542.006	38.85
542.129	70.85
542.252	32.85
542.375	32.85
542.498	36.85
542.622	42.85
542.745	45.85
542.868	31.85
542.991	52.85
543.114	57.85
543.237	54.85
543.36	67.85
543.483	35.85
543.606	64.85
543.73	79.85
543.853	70.85
543.976	84.85
544.099	103.85
544.222	109.85
544.345	123.85
544.468	177.85
544.591	214.85
544.714	272.85
544.837	362.85
544.96	441.85
545.083	658.85
545.206	1059.85
545.329	2408.85
545.453	10903.85
545.576	15246.85
545.699	15682.85
545.822	15682.85
545.945	15682.85
546.068	15682.85
546.191	15682.85
546.314	15682.85
546.437	15682.85
546.56	15682.85
546.683	15682.85
546.806	15682.85
546.929	15682.85
547.052	15682.85
547.175	15682.85
547.298	15682.85
547.421	15682.85
547.544	15682.85
547.667	3444.85
547.79	2115.85
547.913	971.85
548.036	852.85
548.159	616.85
548.282	618.85
548.405	487.85
548.528	482.85
548.651	393.85
548.774	408.85
548.897	331.85
549.02	342.85
549.143	322.85
549.266	293.85
549.389	275.85
549.512	242.85
549.635	263.85
549.758	249.85
549.881	226.85
550.004	209.85
550.127	183.85
550.25	196.85
550.373	165.85
550.496	189.85
550.619	154.85
550.742	161.85
550.865	121.85
550.988	148.85
551.111	153.85
551.234	133.85
551.356	117.85
551.479	114.85
551.602	123.85
551.725	139.85
551.848	141.85
551.971	146.85
552.094	120.85
552.217	99.85
552.34	113.85
552.463	89.85
552.586	103.85
552.709	96.85
552.832	113.85
552.955	119.85
553.077	113.85
553.2	112.85
553.323	79.85
553.446	105.85
553.569	105.85
553.692	105.85
553.815	92.85
553.938	102.85
554.061	110.85
554.184	90.85
554.306	73.85
554.429	82.85
554.552	86.85
554.675	61.85
554.798	71.85
554.921	100.85
555.044	68.85
555.167	56.85
555.29	67.85
555.412	61.85
555.535	91.85
555.658	70.85
555.781	72.85
555.904	72.85
556.027	64.85
556.15	72.85
556.272	64.85
556.395	71.85
556.518	68.85
556.641	67.85
556.764	96.85
556.887	73.85
557.01	48.85
557.132	68.85
557.255	69.85
557.378	70.85
557.501	73.85
557.624	79.85
557.747	57.85
557.869	79.85
557.992	91.85
558.115	87.85
558.238	92.85
558.361	87.85
558.483	91.85
558.606	65.85
558.729	45.85
558.852	83.85
558.975	72.85
559.098	61.85
559.22	61.85
559.343	33.85
559.466	70.85
559.589	64.85
559.712	43.85
559.834	46.85
559.957	53.85
560.08	45.85
560.203	53.85
560.325	67.85
560.448	59.85
560.571	35.85
560.694	40.85
560.817	74.85
560.939	42.85
561.062	55.85
561.185	68.85
561.308	70.85
561.43	58.85
561.553	69.85
561.676	58.85
561.799	59.85
561.921	57.85
562.044	54.85
562.167	57.85
562.29	81.85
562.413	76.85
562.535	61.85
562.658	46.85
562.781	51.85
562.903	79.85
563.026	103.85
563.149	136.85
563.272	121.85
563.394	127.85
563.517	113.85
563.64	65.85
563.763	40.85
563.885	71.85
564.008	57.85
564.131	45.85
564.254	10.85
564.376	21.85
564.499	33.85
564.622	36.85
564.744	60.85
564.867	45.85
564.99	30.85
565.113	52.85
565.235	31.85
565.358	28.85
565.481	28.85
565.603	15.85
565.726	36.85
565.849	59.85
565.971	39.85
566.094	44.85
566.217	33.85
566.34	35.85
566.462	49.85
566.585	43.85
566.708	57.85
566.83	48.85
566.953	57.85
567.076	33.85
567.198	36.85
567.321	31.85
567.444	53.85
567.566	41.85
567.689	21.85
567.812	25.85
567.934	48.85
568.057	39.85
568.18	46.85
568.302	24.85
568.425	10.85
568.548	11.85
568.67	20.85
568.793	39.85
568.916	44.85
569.038	17.85
569.161	33.85
569.283	38.85
569.406	49.85
569.529	15.85
569.651	33.85
569.774	29.85
569.897	45.85
570.019	32.85
570.142	40.85
570.265	35.85
570.387	33.85
570.51	39.85
570.632	43.85
570.755	29.85
570.878	38.85
571	39.85
571.123	27.85
571.246	37.85
571.368	26.85
571.491	24.85
571.613	31.85
571.736	33.85
571.859	32.85
571.981	23.85
572.104	46.85
572.226	33.85
572.349	33.85
572.472	30.85
572.594	68.85
572.717	38.85
572.839	47.85
572.962	25.85
573.085	37.85
573.207	32.85
573.33	40.85
573.452	36.85
573.575	50.85
573.697	31.85
573.82	45.85
573.943	28.85
574.065	24.85
574.188	45.85
574.31	53.85
574.433	38.85
574.555	31.85
574.678	11.85
574.801	36.85
574.923	27.85
575.046	27.85
575.168	29.85
575.291	28.85
575.413	38.85
575.536	48.85
575.659	53.85
575.781	56.85
575.904	63.85
576.026	76.85
576.149	76.85
576.271	123.85
576.394	192.85
576.516	539.85
576.639	3629.85
576.761	10147.85
576.884	8803.85
577.007	8656.85
577.129	7873.85
577.252	3681.85
577.374	1296.85
577.497	528.85
577.619	261.85
577.742	175.85
577.864	152.85
577.987	143.85
578.109	137.85
578.232	136.85
578.354	160.85
578.477	194.85
578.599	413.85
578.722	1951.85
578.844	9061.85
578.967	9739.85
579.089	8675.85
579.212	8981.85
579.334	5264.85
579.457	1899.85
579.579	712.85
579.702	325.85
579.824	204.85
579.947	125.85
580.069	112.85
580.192	93.85
580.314	96.85
580.437	60.85
580.559	101.85
580.682	72.85
580.804	80.85
580.927	64.85
581.049	59.85
581.172	71.85
581.294	54.85
581.417	53.85
581.539	40.85
581.662	49.85
581.784	50.85
581.907	53.85
582.029	39.85
582.152	24.85
582.274	44.85
582.396	29.85
582.519	40.85
582.641	8.85
582.764	34.85
582.886	44.85
583.009	31.85
583.131	22.85
583.254	31.85
583.376	47.85
583.499	51.85
583.621	29.85
583.743	38.85
583.866	37.85
583.988	53.85
584.111	44.85
584.233	50.85
584.356	37.85
584.478	33.85
584.601	12.85
584.723	35.85
584.845	36.85
584.968	35.85
585.09	27.85
585.213	35.85
585.335	16.85
585.458	28.85
585.58	28.85
585.702	49.85
585.825	45.85
585.947	38.85
586.07	27.85
586.192	30.85
586.315	40.85
586.437	11.85
586.559	21.85
586.682	14.85
586.804	24.85
586.927	32.85
587.049	24.85
587.171	32.85
587.294	25.85
587.416	40.85
587.539	32.85
587.661	34.85
587.783	23.85
587.906	16.85
588.028	39.85
588.151	24.85
588.273	37.85
588.395	28.85
588.518	35.85
588.64	31.85
588.763	39.85
588.885	22.85
589.007	33.85
589.13	32.85
589.252	23.85
589.375	29.85
589.497	39.85
589.619	34.85
589.742	39.85
589.864	31.85
589.986	28.85
590.109	17.85
590.231	29.85
590.354	21.85
590.476	17.85
590.598	11.85
590.721	18.85
590.843	28.85
590.965	29.85
591.088	30.85
591.21	27.85
591.332	24.85
591.455	13.85
591.577	7.85
591.7	6.85
591.822	26.85
591.944	24.85
592.067	28.85
592.189	22.85
592.311	48.85
592.434	32.85
592.556	30.85
592.678	27.85
592.801	23.85
592.923	23.85
593.045	9.85
593.168	24.85
593.29	16.85
593.412	25.85
593.535	17.85
593.657	20.85
593.779	21.85
593.902	39.85
594.024	13.85
594.146	32.85
594.269	36.85
594.391	20.85
594.513	37.85
594.636	35.85
594.758	15.85
594.88	43.85
595.003	34.85
595.125	29.85
595.247	30.85
595.37	24.85
595.492	17.85
595.614	42.85
595.737	31.85
595.859	15.85
595.981	17.85
596.104	31.85
596.226	14.85
596.348	20.85
596.471	12.85
596.593	39.85
596.715	29.85
596.838	20.85
596.96	16.85
597.082	31.85
597.204	20.85
597.327	14.85
597.449	11.85
597.571	28.85
597.694	37.85
597.816	20.85
597.938	33.85
598.061	19.85
598.183	13.85
598.305	42.85
598.427	19.85
598.55	15.85
598.672	43.85
598.794	31.85
598.917	19.85
599.039	19.85
599.161	25.85
599.283	1.85
599.406	25.85
599.528	40.85
599.65	49.85
599.773	53.85
599.895	44.85
600.017	46.85
600.139	30.85
600.262	22.85
600.384	28.85
600.506	31.85
600.628	32.85
600.751	39.85
600.873	26.85
600.995	17.85
601.118	36.85
601.24	33.85
601.362	33.85
601.484	44.85
601.607	28.85
601.729	28.85
601.851	33.85
601.973	9.85
602.096	23.85
602.218	12.85
602.34	48.85
602.462	39.85
602.585	31.85
602.707	21.85
602.829	25.85
602.951	17.85
603.074	11.85
603.196	31.85
603.318	28.85
603.44	31.85
603.563	37.85
603.685	12.85
603.807	39.85
603.929	29.85
604.052	23.85
604.174	22.85
604.296	37.85
604.418	31.85
604.541	53.85
604.663	25.85
604.785	26.85
604.907	21.85
605.03	25.85
605.152	49.85
605.274	28.85
605.396	27.85
605.519	27.85
605.641	13.85
605.763	22.85
605.885	23.85
606.008	31.85
606.13	36.85
606.252	25.85
606.374	19.85
606.496	-1.15
606.619	25.85
606.741	5.85
606.863	29.85
606.985	40.85
607.108	11.85
607.23	15.85
607.352	20.85
607.474	16.85
607.596	24.85
607.719	15.85
607.841	27.85
607.963	29.85
608.085	16.85
608.207	21.85
608.33	22.85
608.452	22.85
608.574	20.85
608.696	40.85
608.819	25.85
608.941	22.85
609.063	17.85
609.185	12.85
609.307	39.85
609.43	51.85
609.552	23.85
609.674	10.85
609.796	25.85
609.918	37.85
610.041	21.85
610.163	22.85
610.285	9.85
610.407	20.85
610.529	25.85
610.652	19.85
610.774	25.85
610.896	29.85
611.018	30.85
611.14	23.85
611.263	23.85
611.385	29.85
611.507	24.85
611.629	16.85
611.751	29.85
611.873	50.85
611.996	26.85
612.118	31.85
612.24	16.85
612.362	33.85
612.484	46.85
612.607	49.85
612.729	55.85
612.851	17.85
612.973	28.85
613.095	28.85
613.218	24.85
613.34	26.85
613.462	20.85
613.584	29.85
613.706	11.85
613.828	35.85
613.951	39.85
614.073	35.85
614.195	10.85
614.317	28.85
614.439	30.85
614.561	19.85
614.684	19.85
614.806	15.85
614.928	16.85
615.05	19.85
615.172	31.85
615.294	35.85
615.417	30.85
615.539	0.85
615.661	27.85
615.783	27.85
615.905	0.85
616.027	18.85
616.15	17.85
616.272	15.85
616.394	22.85
616.516	24.85
616.638	26.85
616.76	21.85
616.883	22.85
617.005	27.85
617.127	7.85
617.249	26.85
617.371	32.85
617.493	19.85
617.615	9.85
617.738	21.85
617.86	16.85
617.982	13.85
618.104	26.85
618.226	12.85
618.348	-1.15
618.471	28.85
618.593	35.85
618.715	5.85
618.837	8.85
618.959	14.85
619.081	26.85
619.203	21.85
619.326	25.85
619.448	46.85
619.57	46.85
619.692	32.85
619.814	35.85
619.936	15.85
620.058	17.85
620.181	29.85
620.303	30.85
620.425	24.85
620.547	15.85
620.669	7.85
620.791	14.85
620.913	16.85
621.036	20.85
621.158	20.85
621.28	15.85
621.402	6.85
621.524	8.85
621.646	23.85
621.768	10.85
621.891	5.85
622.013	31.85
622.135	13.85
622.257	-4.15
622.379	11.85
622.501	3.85
622.623	16.85
622.745	38.85
622.868	21.85
622.99	20.85
623.112	13.85
623.234	4.85
623.356	19.85
623.478	20.85
623.6	30.85
623.722	15.85
623.845	32.85
623.967	31.85
624.089	28.85
624.211	9.85
624.333	2.85
624.455	19.85
624.577	33.85
624.699	38.85
624.822	27.85
624.944	9.85
625.066	19.85
625.188	17.85
625.31	30.85
625.432	40.85
625.554	14.85
625.676	47.85
625.799	30.85
625.921	16.85
626.043	11.85
626.165	29.85
626.287	4.85
626.409	32.85
626.531	23.85
626.653	23.85
626.775	30.85
626.898	37.85
627.02	31.85
627.142	21.85
627.264	23.85
627.386	12.85
627.508	30.85
627.63	-7.15
627.752	22.85
627.874	16.85
627.997	22.85
628.119	31.85
628.241	33.85
628.363	35.85
628.485	31.85
628.607	10.85
628.729	11.85
628.851	12.85
628.973	7.85
629.096	14.85
629.218	20.85
629.34	35.85
629.462	19.85
629.584	3.85
629.706	-3.15
629.828	11.85
629.95	25.85
630.072	13.85
630.195	23.85
630.317	9.85
630.439	13.85
630.561	22.85
630.683	12.85
630.805	16.85
630.927	19.85
631.049	9.85
631.171	9.85
631.293	19.85
631.416	23.85
631.538	25.85
631.66	10.85
631.782	8.85
631.904	37.85
632.026	11.85
632.148	22.85
632.27	3.85
632.392	21.85
632.514	26.85
632.637	8.85
632.759	1.85
632.881	-5.15
633.003	8.85
633.125	16.85
633.247	2.85
633.369	11.85
633.491	14.85
633.613	25.85
633.735	8.85
633.858	26.85
633.98	13.85
634.102	-5.15
634.224	-7.15
634.346	11.85
634.468	25.85
634.59	16.85
634.712	18.85
634.834	22.85
634.956	14.85
635.078	17.85
635.201	8.85
635.323	13.85
635.445	11.85
635.567	-3.15
635.689	14.85
635.811	21.85
635.933	5.85
636.055	-5.15
636.177	-11.15
636.299	25.85
636.421	15.85
636.544	4.85
636.666	17.85
636.788	24.85
636.91	8.85
637.032	-4.15
637.154	17.85
637.276	30.85
637.398	40.85
637.52	16.85
637.642	14.85
637.764	-5.15
637.887	3.85
638.009	5.85
638.131	10.85
638.253	8.85
638.375	36.85
638.497	19.85
638.619	12.85
638.741	3.85
638.863	8.85
638.985	16.85
639.107	14.85
639.23	21.85
639.352	15.85
639.474	5.85
639.596	30.85
639.718	29.85
639.84	13.85
639.962	19.85
640.084	29.85
640.206	27.85
640.328	20.85
640.45	9.85
640.573	13.85
640.695	8.85
640.817	10.85
640.939	25.85
641.061	6.85
641.183	3.85
641.305	-3.15
641.427	8.85
641.549	21.85
641.671	24.85
641.793	8.85
641.915	34.85
642.038	14.85
642.16	13.85
642.282	11.85
642.404	-4.15
642.526	20.85
642.648	7.85
642.77	19.85
642.892	7.85
643.014	26.85
643.136	18.85
643.258	21.85
643.381	25.85
643.503	31.85
643.625	17.85
643.747	5.85
643.869	9.85
643.991	29.85
644.113	16.85
644.235	15.85
644.357	19.85
644.479	25.85
644.601	-11.15
644.723	3.85
644.846	11.85
644.968	15.85
645.09	7.85
645.212	8.85
645.334	11.85
645.456	28.85
645.578	23.85
645.7	14.85
645.822	20.85
645.944	24.85
646.066	14.85
646.188	17.85
646.311	10.85
646.433	12.85
646.555	20.85
646.677	26.85
646.799	6.85
646.921	12.85
647.043	21.85
647.165	4.85
647.287	8.85
647.409	3.85
647.531	13.85
647.654	-0.15
647.776	23.85
647.898	14.85
648.02	13.85
648.142	6.85
648.264	10.85
648.386	8.85
648.508	-5.15
648.63	3.85
648.752	-6.15
648.874	5.85
648.997	10.85
649.119	22.85
649.241	-6.15
649.363	22.85
649.485	25.85
649.607	15.85
649.729	0.85
649.851	15.85
649.973	8.85
650.095	17.85
650.217	-3.15
650.34	5.85
650.462	22.85
650.584	22.85
650.706	29.85
650.828	23.85
650.95	-21.15
651.072	32.85
651.194	14.85
651.316	9.85
651.438	15.85
651.56	-7.15
651.683	16.85
651.805	12.85
651.927	24.85
652.049	15.85
652.171	26.85
652.293	5.85
652.415	-3.15
652.537	4.85
652.659	-2.15
652.781	16.85
652.903	20.85
653.026	21.85
653.148	9.85
653.27	10.85
653.392	6.85
653.514	13.85
653.636	15.85
653.758	15.85
653.88	4.85
654.002	-2.15
654.124	26.85
654.247	6.85
654.369	17.85
654.491	13.85
654.613	6.85
654.735	17.85
654.857	26.85
654.979	14.85
655.101	29.85
655.223	55.85
655.345	14.85
655.468	10.85
655.59	-7.15
655.712	16.85
655.834	3.85
655.956	12.85
656.078	6.85
656.2	19.85
656.322	-11.15
656.444	-7.15
656.566	21.85
656.689	11.85
656.811	15.85
656.933	44.85
657.055	6.85
657.177	31.85
657.299	2.85
657.421	5.85
657.543	21.85
657.665	7.85
657.787	21.85
657.91	14.85
658.032	14.85
658.154	16.85
658.276	-0.15
658.398	-1.15
658.52	10.85
658.642	-10.15
658.764	12.85
658.886	3.85
659.009	20.85
659.131	18.85
659.253	9.85
659.375	-2.15
659.497	7.85
659.619	22.85
659.741	-0.15
659.863	-5.15
659.985	10.85
660.108	18.85
660.23	11.85
660.352	18.85
660.474	5.85
660.596	4.85
660.718	16.85
660.84	1.85
660.962	23.85
661.084	-12.15
661.207	20.85
661.329	8.85
661.451	13.85
661.573	20.85
661.695	32.85
661.817	17.85
661.939	21.85
662.061	9.85
662.184	14.85
662.306	10.85
662.428	16.85
662.55	16.85
662.672	7.85
662.794	14.85
662.916	19.85
663.038	8.85
663.161	20.85
663.283	28.85
663.405	19.85
663.527	17.85
663.649	5.85
663.771	12.85
663.893	16.85
664.015	12.85
664.138	12.85
664.26	12.85
664.382	7.85
664.504	-2.15
664.626	-17.15
664.748	3.85
664.87	-11.15
664.992	1.85
665.115	20.85
665.237	16.85
665.359	-2.15
665.481	12.85
665.603	22.85
665.725	4.85
665.847	0.85
665.97	17.85
666.092	16.85
666.214	23.85
666.336	13.85
666.458	21.85
666.58	3.85
666.702	5.85
666.825	5.85
666.947	2.85
667.069	12.85
667.191	-0.15
667.313	30.85
667.435	5.85
667.557	-1.15
667.68	12.85
667.802	4.85
667.924	20.85
668.046	23.85
668.168	25.85
668.29	20.85
668.412	13.85
668.535	7.85
668.657	-7.15
668.779	8.85
668.901	12.85
669.023	28.85
669.145	4.85
669.267	8.85
669.39	17.85
669.512	13.85
669.634	6.85
669.756	3.85
669.878	5.85
670	6.85
670.123	3.85
670.245	29.85
670.367	30.85
670.489	8.85
670.611	7.85
670.733	6.85
670.856	13.85
670.978	8.85
671.1	3.85
671.222	17.85
671.344	6.85
671.466	3.85
671.589	-10.15
671.711	-1.15
671.833	-5.15
671.955	7.85
672.077	-8.15
672.199	23.85
672.322	7.85
672.444	12.85
672.566	32.85
672.688	18.85
672.81	21.85
672.932	12.85
673.055	-7.15
673.177	-0.15
673.299	7.85
673.421	13.85
673.543	16.85
673.665	21.85
673.788	19.85
673.91	-4.15
674.032	-6.15
674.154	6.85
674.276	3.85
674.399	2.85
674.521	10.85
674.643	5.85
674.765	5.85
674.887	15.85
675.009	10.85
675.132	5.85
675.254	5.85
675.376	15.85
675.498	-4.15
675.62	14.85
675.743	13.85
675.865	10.85
675.987	3.85
676.109	-0.15
676.231	8.85
676.354	27.85
676.476	-4.15
676.598	19.85
676.72	9.85
676.842	3.85
676.965	4.85
677.087	0.85
677.209	17.85
677.331	29.85
677.453	14.85
677.576	11.85
677.698	11.85
677.82	19.85
677.942	3.85
678.064	10.85
678.187	16.85
678.309	11.85
678.431	16.85
678.553	4.85
678.675	35.85
678.798	37.85
678.92	25.85
679.042	7.85
679.164	8.85
679.286	20.85
679.409	9.85
679.531	-11.15
679.653	2.85
679.775	4.85
679.898	-0.15
680.02	-1.15
680.142	-1.15
680.264	9.85
680.386	-11.15
680.509	14.85
680.631	25.85
680.753	-5.15
680.875	-11.15
680.998	9.85
681.12	12.85
681.242	-1.15
681.364	-11.15
681.486	20.85
681.609	-11.15
681.731	16.85
681.853	0.85
681.975	6.85
682.098	20.85
682.22	26.85
682.342	31.85
682.464	25.85
682.587	2.85
682.709	2.85
682.831	-8.15
682.953	7.85
683.076	7.85
683.198	10.85
683.32	10.85
683.442	14.85
683.565	24.85
683.687	-5.15
683.809	-10.15
683.931	-5.15
684.054	16.85
684.176	14.85
684.298	9.85
684.42	0.85
684.543	6.85
684.665	10.85
684.787	9.85
684.909	3.85
685.032	21.85
685.154	-7.15
685.276	7.85
685.398	12.85
685.521	6.85
685.643	7.85
685.765	17.85
685.887	20.85
686.01	21.85
686.132	4.85
686.254	22.85
686.377	4.85
686.499	19.85
686.621	17.85
686.743	22.85
686.866	1.85
686.988	27.85
687.11	15.85
687.232	14.85
687.355	8.85
687.477	4.85
687.599	9.85
687.722	6.85
687.844	-3.15
687.966	10.85
688.088	24.85
688.211	30.85
688.333	32.85
688.455	12.85
688.578	19.85
688.7	5.85
688.822	9.85
688.944	-3.15
689.067	36.85
689.189	14.85
689.311	-1.15
689.434	-0.15
689.556	4.85
689.678	21.85
689.801	-4.15
689.923	9.85
690.045	23.85
690.167	30.85
690.29	27.85
690.412	14.85
690.534	16.85
690.657	12.85
690.779	-1.15
690.901	11.85
691.024	8.85
691.146	-4.15
691.268	8.85
691.391	19.85
691.513	34.85
691.635	27.85
691.758	28.85
691.88	15.85
692.002	10.85
692.125	22.85
692.247	8.85
692.369	13.85
692.492	9.85
692.614	19.85
692.736	10.85
692.859	11.85
692.981	21.85
693.103	13.85
693.226	7.85
693.348	17.85
693.47	9.85
693.593	41.85
693.715	36.85
693.837	21.85
693.96	7.85
694.082	1.85
694.204	7.85
694.327	20.85
694.449	-6.15
694.571	6.85
694.694	13.85
694.816	21.85
694.938	4.85
695.061	21.85
695.183	12.85
695.305	19.85
695.428	14.85
695.55	2.85
695.672	5.85
695.795	15.85
695.917	20.85
696.04	4.85
696.162	19.85
696.284	5.85
696.407	-0.15
696.529	13.85
696.651	28.85
696.774	14.85
696.896	13.85
697.019	19.85
697.141	20.85
697.263	-3.15
697.386	-12.15
697.508	-2.15
697.63	14.85
697.753	-7.15
697.875	3.85
697.998	7.85
698.12	25.85
698.242	23.85
698.365	-4.15
698.487	8.85
698.61	8.85
698.732	9.85
698.854	17.85
698.977	3.85
699.099	28.85
699.221	20.85
699.344	15.85
699.466	16.85
699.589	16.85
699.711	-5.15
699.834	14.85
699.956	19.85
700.078	19.85
700.201	-11.15
700.323	7.85
700.446	12.85
700.568	12.85
700.69	12.85
700.813	9.85
700.935	-12.15
701.058	19.85
701.18	-3.15
701.302	-6.15
701.425	-4.15
701.547	28.85
701.67	16.85
701.792	15.85
701.915	-5.15
702.037	0.85
702.159	13.85
702.282	24.85
702.404	8.85
702.527	6.85
702.649	16.85
702.772	11.85
702.894	16.85
703.017	17.85
703.139	23.85
703.261	4.85
703.384	10.85
703.506	4.85
703.629	3.85
703.751	34.85
703.874	6.85
703.996	-0.15
704.119	-0.15
704.241	13.85
704.364	-9.15
704.486	22.85
704.608	19.85
704.731	1.85
704.853	7.85
704.976	1.85
705.098	7.85
705.221	0.85
705.343	10.85
705.466	11.85
705.588	22.85
705.711	16.85
705.833	25.85
705.956	-1.15
706.078	9.85
706.201	9.85
706.323	21.85
706.446	-6.15
