Data from LowRes_mercury_15_20_11_07_2024_HR4C61881__58__15-23-38-071.txt Node

Date: Thu Nov 07 15:23:38 EST 2024
User: crc00042
Spectrometer: HR4C6188
Trigger mode: 4
Integration Time (sec): 1.000000E-1
Scans to average: 1
Electric dark correction enabled: true
Nonlinearity correction enabled: false
Boxcar width: 0
XAxis mode: Wavelengths
Number of Pixels in Spectrum: 3648
>>>>>Begin Spectral Data<<<<<
245.66	-71.23
245.797	-71.23
245.934	-71.23
246.071	-81.23
246.208	6.77
246.344	22.77
246.481	-13.23
246.618	-29.23
246.755	-0.23
246.892	-14.23
247.029	-21.23
247.165	-13.23
247.302	24.77
247.439	15.77
247.576	13.77
247.713	-7.23
247.849	20.77
247.986	0.77
248.123	7.77
248.26	-7.23
248.396	9.77
248.533	-6.23
248.67	-12.23
248.806	-2.23
248.943	-21.23
249.08	-9.23
249.216	5.77
249.353	-7.23
249.49	-7.23
249.626	-5.23
249.763	3.77
249.9	-16.23
250.036	-4.23
250.173	3.77
250.309	0.77
250.446	1.77
250.582	-5.23
250.719	-8.23
250.856	3.77
250.992	-16.23
251.129	-6.23
251.265	-9.23
251.402	-5.23
251.538	-2.23
251.675	-5.23
251.811	9.77
251.948	6.77
252.084	5.77
252.221	-13.23
252.357	-6.23
252.493	-2.23
252.63	-1.23
252.766	8.77
252.903	-9.23
253.039	7.77
253.175	-5.23
253.312	9.77
253.448	-13.23
253.585	-22.23
253.721	15.77
253.857	-22.23
253.994	3.77
254.13	2.77
254.266	-0.23
254.403	-3.23
254.539	-12.23
254.675	8.77
254.811	-1.23
254.948	-1.23
255.084	-4.23
255.22	-13.23
255.356	-11.23
255.493	5.77
255.629	13.77
255.765	4.77
255.901	8.77
256.037	-13.23
256.174	-3.23
256.31	-20.23
256.446	-7.23
256.582	-12.23
256.718	-0.23
256.854	27.77
256.991	4.77
257.127	-4.23
257.263	0.77
257.399	-0.23
257.535	-14.23
257.671	1.77
257.807	-20.23
257.943	-15.23
258.079	-21.23
258.215	6.77
258.351	15.77
258.487	8.77
258.623	23.77
258.759	5.77
258.895	3.77
259.031	-3.23
259.167	-13.23
259.303	8.77
259.439	-8.23
259.575	4.77
259.711	19.77
259.847	-7.23
259.983	-5.23
260.119	-15.23
260.255	-1.23
260.391	-8.23
260.527	-6.23
260.663	3.77
260.799	9.77
260.934	1.77
261.07	-14.23
261.206	-4.23
261.342	1.77
261.478	12.77
261.614	11.77
261.749	12.77
261.885	-6.23
262.021	15.77
262.157	10.77
262.293	-2.23
262.428	-7.23
262.564	-2.23
262.7	3.77
262.836	10.77
262.971	8.77
263.107	-6.23
263.243	5.77
263.378	-1.23
263.514	-16.23
263.65	-2.23
263.785	-1.23
263.921	1.77
264.057	-2.23
264.192	3.77
264.328	4.77
264.464	0.77
264.599	-4.23
264.735	15.77
264.871	-3.23
265.006	-9.23
265.142	1.77
265.277	11.77
265.413	14.77
265.548	4.77
265.684	8.77
265.819	-13.23
265.955	-15.23
266.091	-3.23
266.226	-18.23
266.362	8.77
266.497	11.77
266.633	3.77
266.768	-11.23
266.903	20.77
267.039	19.77
267.174	17.77
267.31	-7.23
267.445	-1.23
267.581	2.77
267.716	5.77
267.851	-9.23
267.987	15.77
268.122	29.77
268.258	-12.23
268.393	-3.23
268.528	11.77
268.664	-3.23
268.799	-30.23
268.934	-0.23
269.07	-6.23
269.205	7.77
269.34	14.77
269.476	3.77
269.611	-20.23
269.746	14.77
269.881	-3.23
270.017	12.77
270.152	2.77
270.287	4.77
270.422	5.77
270.558	-5.23
270.693	7.77
270.828	3.77
270.963	5.77
271.098	5.77
271.234	-18.23
271.369	14.77
271.504	5.77
271.639	-17.23
271.774	6.77
271.909	-2.23
272.045	-21.23
272.18	3.77
272.315	-6.23
272.45	-4.23
272.585	-13.23
272.72	15.77
272.855	3.77
272.99	7.77
273.125	1.77
273.26	-7.23
273.395	-10.23
273.53	1.77
273.665	2.77
273.8	12.77
273.935	9.77
274.07	5.77
274.205	1.77
274.34	-16.23
274.475	-22.23
274.61	1.77
274.745	1.77
274.88	17.77
275.015	-26.23
275.15	-11.23
275.285	19.77
275.42	13.77
275.555	42.77
275.69	19.77
275.825	-23.23
275.959	-11.23
276.094	-17.23
276.229	-5.23
276.364	-13.23
276.499	7.77
276.634	-8.23
276.768	11.77
276.903	9.77
277.038	1.77
277.173	-3.23
277.308	1.77
277.442	-11.23
277.577	-21.23
277.712	-8.23
277.847	-12.23
277.981	-7.23
278.116	-6.23
278.251	25.77
278.386	-5.23
278.52	11.77
278.655	-12.23
278.79	-0.23
278.924	0.77
279.059	-6.23
279.194	-10.23
279.328	22.77
279.463	3.77
279.598	16.77
279.732	2.77
279.867	14.77
280.001	23.77
280.136	-2.23
280.271	-6.23
280.405	-5.23
280.54	-9.23
280.674	3.77
280.809	27.77
280.943	10.77
281.078	3.77
281.213	15.77
281.347	1.77
281.482	6.77
281.616	-8.23
281.751	-7.23
281.885	-22.23
282.02	3.77
282.154	3.77
282.288	-12.23
282.423	-28.23
282.557	-1.23
282.692	-4.23
282.826	-6.23
282.961	-1.23
283.095	-20.23
283.229	-22.23
283.364	-24.23
283.498	-9.23
283.633	-5.23
283.767	0.77
283.901	5.77
284.036	2.77
284.17	-14.23
284.304	-11.23
284.439	-2.23
284.573	-6.23
284.707	15.77
284.842	-5.23
284.976	1.77
285.11	-18.23
285.244	8.77
285.379	29.77
285.513	-2.23
285.647	12.77
285.781	3.77
285.916	19.77
286.05	5.77
286.184	13.77
286.318	6.77
286.453	0.77
286.587	-16.23
286.721	-12.23
286.855	8.77
286.989	4.77
287.123	-15.23
287.258	-2.23
287.392	-3.23
287.526	11.77
287.66	-4.23
287.794	6.77
287.928	-5.23
288.062	11.77
288.196	-5.23
288.33	-9.23
288.464	26.77
288.598	4.77
288.733	3.77
288.867	15.77
289.001	7.77
289.135	7.77
289.269	-19.23
289.403	1.77
289.537	0.77
289.671	9.77
289.805	-11.23
289.939	-4.23
290.073	18.77
290.207	10.77
290.34	-8.23
290.474	29.77
290.608	18.77
290.742	2.77
290.876	-18.23
291.01	-24.23
291.144	16.77
291.278	7.77
291.412	-11.23
291.546	-5.23
291.679	-8.23
291.813	-12.23
291.947	-2.23
292.081	-10.23
292.215	-4.23
292.349	8.77
292.482	16.77
292.616	-9.23
292.75	0.77
292.884	-0.23
293.018	-3.23
293.151	-27.23
293.285	12.77
293.419	3.77
293.553	-19.23
293.686	2.77
293.82	-11.23
293.954	16.77
294.088	19.77
294.221	15.77
294.355	-8.23
294.489	-0.23
294.622	-21.23
294.756	3.77
294.89	4.77
295.023	10.77
295.157	5.77
295.291	-6.23
295.424	11.77
295.558	7.77
295.691	3.77
295.825	-14.23
295.959	-1.23
296.092	-4.23
296.226	-10.23
296.359	-17.23
296.493	2.77
296.627	9.77
296.76	4.77
296.894	-13.23
297.027	-9.23
297.161	-5.23
297.294	-4.23
297.428	9.77
297.561	29.77
297.695	-14.23
297.828	-5.23
297.962	-12.23
298.095	-15.23
298.229	-0.23
298.362	0.77
298.495	-18.23
298.629	-4.23
298.762	-1.23
298.896	4.77
299.029	-25.23
299.162	5.77
299.296	13.77
299.429	-8.23
299.563	-0.23
299.696	12.77
299.829	16.77
299.963	6.77
300.096	10.77
300.229	9.77
300.363	16.77
300.496	9.77
300.629	-6.23
300.763	-3.23
300.896	-12.23
301.029	10.77
301.162	4.77
301.296	-10.23
301.429	0.77
301.562	-12.23
301.695	15.77
301.829	-0.23
301.962	21.77
302.095	-3.23
302.228	-14.23
302.362	0.77
302.495	-3.23
302.628	6.77
302.761	-19.23
302.894	-3.23
303.027	30.77
303.161	3.77
303.294	-17.23
303.427	8.77
303.56	3.77
303.693	-6.23
303.826	2.77
303.959	4.77
304.092	-3.23
304.225	7.77
304.359	3.77
304.492	-6.23
304.625	-14.23
304.758	-23.23
304.891	-22.23
305.024	6.77
305.157	-7.23
305.29	-9.23
305.423	-3.23
305.556	13.77
305.689	13.77
305.822	-19.23
305.955	-8.23
306.088	0.77
306.221	-7.23
306.354	-2.23
306.487	-8.23
306.62	-7.23
306.752	-3.23
306.885	1.77
307.018	3.77
307.151	4.77
307.284	14.77
307.417	-9.23
307.55	4.77
307.683	1.77
307.816	16.77
307.948	1.77
308.081	-4.23
308.214	11.77
308.347	18.77
308.48	-7.23
308.613	-23.23
308.745	8.77
308.878	-14.23
309.011	-2.23
309.144	2.77
309.277	-7.23
309.409	12.77
309.542	-3.23
309.675	2.77
309.808	1.77
309.94	4.77
310.073	-17.23
310.206	-18.23
310.339	-7.23
310.471	-15.23
310.604	7.77
310.737	-13.23
310.869	-6.23
311.002	11.77
311.135	-11.23
311.267	-2.23
311.4	8.77
311.533	11.77
311.665	-14.23
311.798	-3.23
311.93	16.77
312.063	22.77
312.196	56.77
312.328	70.77
312.461	47.77
312.593	29.77
312.726	44.77
312.859	87.77
312.991	159.77
313.124	47.77
313.256	35.77
313.389	-8.23
313.521	-13.23
313.654	7.77
313.786	1.77
313.919	-12.23
314.051	5.77
314.184	17.77
314.316	-13.23
314.449	-44.23
314.581	8.77
314.714	-4.23
314.846	-1.23
314.978	-7.23
315.111	-3.23
315.243	6.77
315.376	1.77
315.508	-0.23
315.641	-12.23
315.773	16.77
315.905	-11.23
316.038	-12.23
316.17	-0.23
316.302	-5.23
316.435	-11.23
316.567	-17.23
316.699	11.77
316.832	-8.23
316.964	-3.23
317.096	-11.23
317.229	-25.23
317.361	-24.23
317.493	-23.23
317.625	-16.23
317.758	1.77
317.89	20.77
318.022	-10.23
318.155	0.77
318.287	20.77
318.419	-11.23
318.551	1.77
318.683	-0.23
318.816	-2.23
318.948	3.77
319.08	-21.23
319.212	15.77
319.344	-7.23
319.477	-10.23
319.609	-2.23
319.741	15.77
319.873	-3.23
320.005	-9.23
320.137	6.77
320.269	3.77
320.401	-4.23
320.534	14.77
320.666	-14.23
320.798	-13.23
320.93	-30.23
321.062	-2.23
321.194	-11.23
321.326	-9.23
321.458	0.77
321.59	-3.23
321.722	-19.23
321.854	-24.23
321.986	-9.23
322.118	17.77
322.25	3.77
322.382	-5.23
322.514	-14.23
322.646	-18.23
322.778	2.77
322.91	-0.23
323.042	1.77
323.174	-2.23
323.306	-12.23
323.438	-19.23
323.57	1.77
323.702	-7.23
323.834	-16.23
323.966	-17.23
324.097	2.77
324.229	-3.23
324.361	0.77
324.493	-6.23
324.625	-13.23
324.757	16.77
324.889	-7.23
325.021	6.77
325.152	16.77
325.284	19.77
325.416	-6.23
325.548	-4.23
325.68	-4.23
325.811	10.77
325.943	7.77
326.075	-11.23
326.207	6.77
326.339	8.77
326.47	-4.23
326.602	8.77
326.734	2.77
326.866	13.77
326.997	-11.23
327.129	-10.23
327.261	-18.23
327.392	-10.23
327.524	4.77
327.656	-16.23
327.787	-3.23
327.919	13.77
328.051	-2.23
328.182	4.77
328.314	20.77
328.446	3.77
328.577	27.77
328.709	10.77
328.841	-24.23
328.972	-9.23
329.104	4.77
329.235	0.77
329.367	-7.23
329.499	-3.23
329.63	-6.23
329.762	-1.23
329.893	-9.23
330.025	0.77
330.156	-24.23
330.288	-9.23
330.419	1.77
330.551	11.77
330.683	9.77
330.814	-21.23
330.946	12.77
331.077	-15.23
331.208	-8.23
331.34	-3.23
331.471	-9.23
331.603	2.77
331.734	-18.23
331.866	1.77
331.997	-6.23
332.129	-13.23
332.26	-2.23
332.392	11.77
332.523	0.77
332.654	-16.23
332.786	-25.23
332.917	-23.23
333.048	3.77
333.18	31.77
333.311	3.77
333.443	11.77
333.574	24.77
333.705	39.77
333.837	33.77
333.968	100.77
334.099	223.77
334.231	211.77
334.362	36.77
334.493	20.77
334.624	23.77
334.756	8.77
334.887	5.77
335.018	14.77
335.15	16.77
335.281	4.77
335.412	25.77
335.543	13.77
335.675	8.77
335.806	9.77
335.937	0.77
336.068	22.77
336.199	23.77
336.331	3.77
336.462	-5.23
336.593	-1.23
336.724	-8.23
336.855	19.77
336.986	2.77
337.118	15.77
337.249	1.77
337.38	5.77
337.511	14.77
337.642	21.77
337.773	13.77
337.904	17.77
338.035	1.77
338.166	-2.23
338.298	17.77
338.429	11.77
338.56	7.77
338.691	17.77
338.822	-15.23
338.953	-0.23
339.084	8.77
339.215	17.77
339.346	10.77
339.477	-12.23
339.608	0.77
339.739	7.77
339.87	0.77
340.001	-0.23
340.132	3.77
340.263	11.77
340.394	2.77
340.525	16.77
340.656	-3.23
340.787	-5.23
340.918	32.77
341.049	9.77
341.179	8.77
341.31	19.77
341.441	19.77
341.572	10.77
341.703	8.77
341.834	-17.23
341.965	16.77
342.096	11.77
342.227	10.77
342.357	17.77
342.488	23.77
342.619	5.77
342.75	14.77
342.881	18.77
343.012	22.77
343.142	31.77
343.273	5.77
343.404	21.77
343.535	18.77
343.666	25.77
343.796	32.77
343.927	21.77
344.058	37.77
344.189	3.77
344.319	29.77
344.45	27.77
344.581	9.77
344.712	8.77
344.842	19.77
344.973	11.77
345.104	32.77
345.234	24.77
345.365	18.77
345.496	24.77
345.626	16.77
345.757	24.77
345.888	23.77
346.018	17.77
346.149	3.77
346.28	24.77
346.41	5.77
346.541	32.77
346.672	9.77
346.802	27.77
346.933	22.77
347.063	26.77
347.194	-1.23
347.325	19.77
347.455	30.77
347.586	13.77
347.716	6.77
347.847	25.77
347.977	45.77
348.108	39.77
348.238	37.77
348.369	23.77
348.499	32.77
348.63	41.77
348.76	44.77
348.891	42.77
349.021	48.77
349.152	46.77
349.282	41.77
349.413	39.77
349.543	40.77
349.674	12.77
349.804	36.77
349.935	25.77
350.065	26.77
350.196	20.77
350.326	11.77
350.456	25.77
350.587	39.77
350.717	9.77
350.848	23.77
350.978	23.77
351.108	6.77
351.239	27.77
351.369	1.77
351.499	23.77
351.63	20.77
351.76	24.77
351.89	15.77
352.021	20.77
352.151	21.77
352.281	27.77
352.412	30.77
352.542	17.77
352.672	14.77
352.803	7.77
352.933	22.77
353.063	22.77
353.193	21.77
353.324	23.77
353.454	22.77
353.584	20.77
353.714	5.77
353.845	5.77
353.975	29.77
354.105	19.77
354.235	19.77
354.365	10.77
354.496	33.77
354.626	16.77
354.756	23.77
354.886	15.77
355.016	22.77
355.146	12.77
355.277	26.77
355.407	19.77
355.537	20.77
355.667	23.77
355.797	25.77
355.927	12.77
356.057	35.77
356.187	13.77
356.318	19.77
356.448	26.77
356.578	24.77
356.708	23.77
356.838	28.77
356.968	17.77
357.098	21.77
357.228	31.77
357.358	14.77
357.488	29.77
357.618	48.77
357.748	34.77
357.878	21.77
358.008	13.77
358.138	30.77
358.268	11.77
358.398	18.77
358.528	25.77
358.658	31.77
358.788	19.77
358.918	34.77
359.048	20.77
359.178	37.77
359.308	37.77
359.438	52.77
359.568	44.77
359.698	38.77
359.827	26.77
359.957	23.77
360.087	30.77
360.217	28.77
360.347	18.77
360.477	25.77
360.607	-0.23
360.737	18.77
360.866	-9.23
360.996	-7.23
361.126	22.77
361.256	37.77
361.386	37.77
361.516	52.77
361.645	17.77
361.775	25.77
361.905	15.77
362.035	36.77
362.165	17.77
362.294	10.77
362.424	37.77
362.554	47.77
362.684	25.77
362.813	52.77
362.943	62.77
363.073	39.77
363.203	43.77
363.332	59.77
363.462	65.77
363.592	95.77
363.721	109.77
363.851	152.77
363.981	200.77
364.111	239.77
364.24	303.77
364.37	461.77
364.5	837.77
364.629	1796.77
364.759	3895.77
364.888	6276.77
365.018	9378.77
365.148	14814.77
365.277	13022.77
365.407	4792.77
365.537	3115.77
365.666	4058.77
365.796	1819.77
365.925	811.77
366.055	755.77
366.184	1027.77
366.314	1393.77
366.444	2475.77
366.573	2088.77
366.703	648.77
366.832	203.77
366.962	98.77
367.091	87.77
367.221	75.77
367.35	56.77
367.48	67.77
367.609	41.77
367.739	56.77
367.868	14.77
367.998	44.77
368.127	52.77
368.257	75.77
368.386	69.77
368.516	40.77
368.645	23.77
368.775	31.77
368.904	32.77
369.033	13.77
369.163	29.77
369.292	33.77
369.422	21.77
369.551	37.77
369.68	32.77
369.81	37.77
369.939	19.77
370.069	44.77
370.198	35.77
370.327	29.77
370.457	28.77
370.586	35.77
370.715	23.77
370.845	16.77
370.974	34.77
371.103	52.77
371.233	29.77
371.362	50.77
371.491	25.77
371.621	45.77
371.75	32.77
371.879	32.77
372.008	27.77
372.138	41.77
372.267	52.77
372.396	51.77
372.525	30.77
372.655	42.77
372.784	34.77
372.913	35.77
373.042	16.77
373.172	21.77
373.301	-0.23
373.43	3.77
373.559	14.77
373.688	34.77
373.818	32.77
373.947	28.77
374.076	3.77
374.205	20.77
374.334	9.77
374.463	9.77
374.593	28.77
374.722	24.77
374.851	28.77
374.98	-2.23
375.109	-0.23
375.238	26.77
375.367	46.77
375.496	1.77
375.625	4.77
375.755	7.77
375.884	44.77
376.013	26.77
376.142	-13.23
376.271	14.77
376.4	10.77
376.529	17.77
376.658	37.77
376.787	21.77
376.916	9.77
377.045	13.77
377.174	16.77
377.303	16.77
377.432	46.77
377.561	32.77
377.69	8.77
377.819	36.77
377.948	15.77
378.077	-7.23
378.206	0.77
378.335	6.77
378.464	11.77
378.593	47.77
378.722	4.77
378.851	11.77
378.98	22.77
379.108	-11.23
379.237	8.77
379.366	19.77
379.495	15.77
379.624	36.77
379.753	22.77
379.882	17.77
380.011	7.77
380.14	-5.23
380.268	14.77
380.397	8.77
380.526	48.77
380.655	12.77
380.784	4.77
380.913	3.77
381.041	11.77
381.17	-10.23
381.299	22.77
381.428	1.77
381.557	13.77
381.685	23.77
381.814	25.77
381.943	13.77
382.072	0.77
382.2	1.77
382.329	8.77
382.458	7.77
382.587	21.77
382.715	16.77
382.844	34.77
382.973	16.77
383.102	10.77
383.23	14.77
383.359	-9.23
383.488	13.77
383.616	9.77
383.745	11.77
383.874	21.77
384.003	7.77
384.131	4.77
384.26	14.77
384.389	13.77
384.517	3.77
384.646	12.77
384.774	1.77
384.903	18.77
385.032	31.77
385.16	16.77
385.289	2.77
385.418	-3.23
385.546	10.77
385.675	37.77
385.803	13.77
385.932	25.77
386.06	-6.23
386.189	13.77
386.318	10.77
386.446	-7.23
386.575	8.77
386.703	22.77
386.832	5.77
386.96	8.77
387.089	20.77
387.217	18.77
387.346	3.77
387.474	15.77
387.603	25.77
387.731	15.77
387.86	37.77
387.988	1.77
388.117	11.77
388.245	11.77
388.374	3.77
388.502	22.77
388.631	3.77
388.759	11.77
388.888	4.77
389.016	4.77
389.144	-3.23
389.273	-6.23
389.401	13.77
389.53	16.77
389.658	50.77
389.786	5.77
389.915	2.77
390.043	16.77
390.172	29.77
390.3	50.77
390.428	33.77
390.557	35.77
390.685	27.77
390.813	36.77
390.942	45.77
391.07	14.77
391.198	-4.23
391.327	-3.23
391.455	-7.23
391.583	28.77
391.712	10.77
391.84	16.77
391.968	13.77
392.096	13.77
392.225	-2.23
392.353	21.77
392.481	27.77
392.609	37.77
392.738	11.77
392.866	18.77
392.994	4.77
393.122	31.77
393.251	17.77
393.379	10.77
393.507	11.77
393.635	14.77
393.764	12.77
393.892	33.77
394.02	29.77
394.148	9.77
394.276	12.77
394.404	42.77
394.533	32.77
394.661	30.77
394.789	34.77
394.917	36.77
395.045	-5.23
395.173	13.77
395.302	19.77
395.43	19.77
395.558	26.77
395.686	26.77
395.814	24.77
395.942	33.77
396.07	24.77
396.198	30.77
396.326	20.77
396.454	46.77
396.582	29.77
396.711	36.77
396.839	31.77
396.967	27.77
397.095	37.77
397.223	30.77
397.351	30.77
397.479	24.77
397.607	36.77
397.735	45.77
397.863	45.77
397.991	51.77
398.119	24.77
398.247	33.77
398.375	57.77
398.503	45.77
398.631	56.77
398.759	50.77
398.887	41.77
399.015	50.77
399.143	38.77
399.271	53.77
399.399	55.77
399.526	59.77
399.654	69.77
399.782	64.77
399.91	105.77
400.038	113.77
400.166	74.77
400.294	68.77
400.422	61.77
400.55	99.77
400.678	91.77
400.805	108.77
400.933	104.77
401.061	104.77
401.189	114.77
401.317	134.77
401.445	115.77
401.573	74.77
401.7	43.77
401.828	49.77
401.956	42.77
402.084	40.77
402.212	25.77
402.34	10.77
402.467	18.77
402.595	47.77
402.723	48.77
402.851	67.77
402.978	48.77
403.106	69.77
403.234	82.77
403.362	112.77
403.489	115.77
403.617	135.77
403.745	186.77
403.873	263.77
404	553.77
404.128	1478.77
404.256	3903.77
404.384	5108.77
404.511	5458.77
404.639	7232.77
404.767	11446.77
404.894	14635.77
405.022	4889.77
405.15	1296.77
405.277	409.77
405.405	221.77
405.533	106.77
405.66	122.77
405.788	67.77
405.916	67.77
406.043	56.77
406.171	42.77
406.299	56.77
406.426	56.77
406.554	42.77
406.681	67.77
406.809	42.77
406.937	34.77
407.064	61.77
407.192	127.77
407.319	289.77
407.447	532.77
407.574	548.77
407.702	629.77
407.83	847.77
407.957	1583.77
408.085	940.77
408.212	269.77
408.34	94.77
408.467	51.77
408.595	41.77
408.722	36.77
408.85	50.77
408.977	28.77
409.105	28.77
409.232	31.77
409.36	20.77
409.487	29.77
409.615	21.77
409.742	24.77
409.87	42.77
409.997	31.77
410.125	39.77
410.252	48.77
410.379	31.77
410.507	33.77
410.634	0.77
410.762	27.77
410.889	36.77
411.017	53.77
411.144	27.77
411.271	27.77
411.399	20.77
411.526	21.77
411.653	22.77
411.781	29.77
411.908	7.77
412.036	23.77
412.163	34.77
412.29	34.77
412.418	16.77
412.545	16.77
412.672	16.77
412.8	42.77
412.927	37.77
413.054	43.77
413.182	29.77
413.309	16.77
413.436	10.77
413.564	19.77
413.691	14.77
413.818	50.77
413.945	22.77
414.073	26.77
414.2	31.77
414.327	38.77
414.454	37.77
414.582	26.77
414.709	3.77
414.836	13.77
414.963	3.77
415.091	37.77
415.218	38.77
415.345	33.77
415.472	36.77
415.6	16.77
415.727	7.77
415.854	22.77
415.981	16.77
416.108	11.77
416.236	12.77
416.363	42.77
416.49	31.77
416.617	36.77
416.744	31.77
416.871	44.77
416.998	28.77
417.126	24.77
417.253	17.77
417.38	28.77
417.507	20.77
417.634	40.77
417.761	45.77
417.888	40.77
418.015	33.77
418.143	37.77
418.27	27.77
418.397	29.77
418.524	32.77
418.651	36.77
418.778	36.77
418.905	33.77
419.032	45.77
419.159	35.77
419.286	46.77
419.413	36.77
419.54	59.77
419.667	19.77
419.794	35.77
419.921	50.77
420.048	40.77
420.175	65.77
420.302	33.77
420.429	51.77
420.556	37.77
420.683	35.77
420.81	55.77
420.937	53.77
421.064	74.77
421.191	53.77
421.318	68.77
421.445	85.77
421.572	57.77
421.699	71.77
421.826	40.77
421.953	26.77
422.08	25.77
422.207	17.77
422.334	-7.23
422.461	23.77
422.588	15.77
422.714	36.77
422.841	25.77
422.968	29.77
423.095	30.77
423.222	-7.23
423.349	9.77
423.476	8.77
423.603	-8.23
423.729	-7.23
423.856	-1.23
423.983	33.77
424.11	4.77
424.237	17.77
424.364	17.77
424.491	23.77
424.617	2.77
424.744	17.77
424.871	21.77
424.998	16.77
425.125	3.77
425.251	19.77
425.378	5.77
425.505	13.77
425.632	11.77
425.758	21.77
425.885	13.77
426.012	21.77
426.139	46.77
426.266	19.77
426.392	18.77
426.519	16.77
426.646	20.77
426.772	26.77
426.899	20.77
427.026	39.77
427.153	25.77
427.279	41.77
427.406	15.77
427.533	15.77
427.659	6.77
427.786	3.77
427.913	39.77
428.039	9.77
428.166	5.77
428.293	20.77
428.419	40.77
428.546	6.77
428.673	7.77
428.799	5.77
428.926	19.77
429.053	41.77
429.179	24.77
429.306	9.77
429.433	49.77
429.559	48.77
429.686	17.77
429.812	18.77
429.939	12.77
430.066	30.77
430.192	0.77
430.319	16.77
430.445	12.77
430.572	5.77
430.699	7.77
430.825	21.77
430.952	20.77
431.078	29.77
431.205	13.77
431.331	22.77
431.458	39.77
431.584	46.77
431.711	7.77
431.837	23.77
431.964	22.77
432.09	24.77
432.217	1.77
432.343	11.77
432.47	52.77
432.596	31.77
432.723	13.77
432.849	13.77
432.976	26.77
433.102	49.77
433.229	37.77
433.355	61.77
433.482	84.77
433.608	96.77
433.735	88.77
433.861	107.77
433.987	140.77
434.114	161.77
434.24	152.77
434.367	203.77
434.493	214.77
434.62	288.77
434.746	380.77
434.872	617.77
434.999	852.77
435.125	1749.77
435.252	5513.77
435.378	13371.77
435.504	15201.77
435.631	15419.77
435.757	15678.77
435.883	15678.77
436.01	15678.77
436.136	15678.77
436.262	15678.77
436.389	3482.77
436.515	2179.77
436.641	822.77
436.768	627.77
436.894	376.77
437.02	375.77
437.147	280.77
437.273	309.77
437.399	213.77
437.526	208.77
437.652	160.77
437.778	197.77
437.904	123.77
438.031	165.77
438.157	153.77
438.283	137.77
438.409	92.77
438.536	119.77
438.662	122.77
438.788	118.77
438.914	131.77
439.041	119.77
439.167	103.77
439.293	104.77
439.419	85.77
439.546	84.77
439.672	51.77
439.798	75.77
439.924	64.77
440.05	96.77
440.177	86.77
440.303	71.77
440.429	53.77
440.555	69.77
440.681	42.77
440.807	65.77
440.934	62.77
441.06	38.77
441.186	36.77
441.312	73.77
441.438	57.77
441.564	76.77
441.69	49.77
441.816	48.77
441.943	44.77
442.069	53.77
442.195	37.77
442.321	57.77
442.447	39.77
442.573	29.77
442.699	26.77
442.825	28.77
442.951	44.77
443.077	68.77
443.203	67.77
443.33	30.77
443.456	11.77
443.582	41.77
443.708	31.77
443.834	66.77
443.96	33.77
444.086	30.77
444.212	40.77
444.338	50.77
444.464	44.77
444.59	48.77
444.716	49.77
444.842	29.77
444.968	17.77
445.094	32.77
445.22	21.77
445.346	27.77
445.472	30.77
445.598	34.77
445.724	17.77
445.85	11.77
445.976	36.77
446.102	31.77
446.228	36.77
446.354	32.77
446.48	35.77
446.605	44.77
446.731	49.77
446.857	24.77
446.983	34.77
447.109	39.77
447.235	36.77
447.361	21.77
447.487	27.77
447.613	18.77
447.739	45.77
447.865	29.77
447.99	31.77
448.116	35.77
448.242	9.77
448.368	22.77
448.494	12.77
448.62	41.77
448.746	32.77
448.872	30.77
448.997	13.77
449.123	12.77
449.249	32.77
449.375	39.77
449.501	23.77
449.627	22.77
449.752	53.77
449.878	28.77
450.004	20.77
450.13	21.77
450.256	13.77
450.381	26.77
450.507	13.77
450.633	25.77
450.759	28.77
450.884	8.77
451.01	23.77
451.136	31.77
451.262	24.77
451.388	37.77
451.513	27.77
451.639	37.77
451.765	31.77
451.89	25.77
452.016	24.77
452.142	31.77
452.268	33.77
452.393	36.77
452.519	20.77
452.645	25.77
452.771	38.77
452.896	18.77
453.022	9.77
453.148	25.77
453.273	13.77
453.399	12.77
453.525	16.77
453.65	13.77
453.776	18.77
453.902	23.77
454.027	22.77
454.153	37.77
454.279	27.77
454.404	32.77
454.53	41.77
454.656	28.77
454.781	19.77
454.907	25.77
455.032	15.77
455.158	45.77
455.284	41.77
455.409	19.77
455.535	27.77
455.66	30.77
455.786	37.77
455.912	27.77
456.037	5.77
456.163	30.77
456.288	28.77
456.414	19.77
456.539	8.77
456.665	38.77
456.791	29.77
456.916	9.77
457.042	14.77
457.167	12.77
457.293	36.77
457.418	21.77
457.544	19.77
457.669	12.77
457.795	-1.23
457.92	17.77
458.046	22.77
458.171	27.77
458.297	14.77
458.422	27.77
458.548	3.77
458.673	21.77
458.799	17.77
458.924	18.77
459.05	28.77
459.175	34.77
459.301	17.77
459.426	31.77
459.552	16.77
459.677	9.77
459.803	35.77
459.928	36.77
460.053	4.77
460.179	11.77
460.304	27.77
460.43	1.77
460.555	16.77
460.681	4.77
460.806	2.77
460.931	20.77
461.057	33.77
461.182	35.77
461.308	43.77
461.433	28.77
461.558	15.77
461.684	25.77
461.809	31.77
461.934	27.77
462.06	36.77
462.185	27.77
462.311	17.77
462.436	32.77
462.561	39.77
462.687	11.77
462.812	15.77
462.937	15.77
463.063	13.77
463.188	14.77
463.313	29.77
463.439	4.77
463.564	23.77
463.689	16.77
463.814	37.77
463.94	15.77
464.065	31.77
464.19	11.77
464.316	-10.23
464.441	-6.23
464.566	8.77
464.692	32.77
464.817	43.77
464.942	22.77
465.067	29.77
465.193	10.77
465.318	21.77
465.443	15.77
465.568	15.77
465.694	27.77
465.819	40.77
465.944	38.77
466.069	30.77
466.194	31.77
466.32	12.77
466.445	22.77
466.57	14.77
466.695	6.77
466.82	29.77
466.946	27.77
467.071	29.77
467.196	25.77
467.321	7.77
467.446	12.77
467.572	20.77
467.697	22.77
467.822	32.77
467.947	26.77
468.072	20.77
468.197	24.77
468.323	18.77
468.448	23.77
468.573	15.77
468.698	13.77
468.823	17.77
468.948	40.77
469.073	27.77
469.198	35.77
469.324	51.77
469.449	31.77
469.574	45.77
469.699	45.77
469.824	57.77
469.949	14.77
470.074	14.77
470.199	49.77
470.324	21.77
470.449	46.77
470.574	23.77
470.7	34.77
470.825	37.77
470.95	54.77
471.075	33.77
471.2	50.77
471.325	45.77
471.45	33.77
471.575	32.77
471.7	29.77
471.825	37.77
471.95	21.77
472.075	28.77
472.2	34.77
472.325	19.77
472.45	20.77
472.575	22.77
472.7	27.77
472.825	31.77
472.95	25.77
473.075	34.77
473.2	13.77
473.325	44.77
473.45	51.77
473.575	35.77
473.7	48.77
473.825	10.77
473.95	23.77
474.075	19.77
474.2	11.77
474.325	5.77
474.45	32.77
474.574	12.77
474.699	29.77
474.824	19.77
474.949	0.77
475.074	12.77
475.199	19.77
475.324	29.77
475.449	25.77
475.574	11.77
475.699	27.77
475.824	23.77
475.949	35.77
476.073	12.77
476.198	13.77
476.323	-5.23
476.448	13.77
476.573	8.77
476.698	12.77
476.823	20.77
476.947	15.77
477.072	17.77
477.197	21.77
477.322	21.77
477.447	12.77
477.572	24.77
477.697	19.77
477.821	13.77
477.946	31.77
478.071	38.77
478.196	30.77
478.321	29.77
478.445	3.77
478.57	21.77
478.695	20.77
478.82	19.77
478.945	17.77
479.069	-8.23
479.194	-0.23
479.319	20.77
479.444	13.77
479.569	7.77
479.693	19.77
479.818	39.77
479.943	19.77
480.068	18.77
480.192	28.77
480.317	21.77
480.442	22.77
480.567	3.77
480.691	11.77
480.816	11.77
480.941	-4.23
481.066	19.77
481.19	37.77
481.315	18.77
481.44	18.77
481.564	0.77
481.689	24.77
481.814	23.77
481.938	10.77
482.063	1.77
482.188	6.77
482.313	28.77
482.437	11.77
482.562	11.77
482.687	9.77
482.811	19.77
482.936	21.77
483.061	20.77
483.185	19.77
483.31	18.77
483.435	24.77
483.559	4.77
483.684	7.77
483.808	27.77
483.933	14.77
484.058	12.77
484.182	26.77
484.307	25.77
484.432	40.77
484.556	11.77
484.681	17.77
484.805	15.77
484.93	29.77
485.055	8.77
485.179	33.77
485.304	28.77
485.428	23.77
485.553	11.77
485.678	26.77
485.802	15.77
485.927	32.77
486.051	26.77
486.176	11.77
486.3	10.77
486.425	11.77
486.549	19.77
486.674	29.77
486.799	23.77
486.923	0.77
487.048	0.77
487.172	7.77
487.297	27.77
487.421	10.77
487.546	9.77
487.67	17.77
487.795	18.77
487.919	32.77
488.044	36.77
488.168	25.77
488.293	14.77
488.417	12.77
488.542	6.77
488.666	20.77
488.791	20.77
488.915	16.77
489.04	33.77
489.164	21.77
489.289	35.77
489.413	2.77
489.538	18.77
489.662	34.77
489.786	-2.23
489.911	10.77
490.035	14.77
490.16	11.77
490.284	16.77
490.409	1.77
490.533	21.77
490.658	24.77
490.782	22.77
490.906	56.77
491.031	103.77
491.155	141.77
491.28	142.77
491.404	141.77
491.528	245.77
491.653	151.77
491.777	58.77
491.902	6.77
492.026	23.77
492.15	28.77
492.275	51.77
492.399	0.77
492.524	11.77
492.648	17.77
492.772	24.77
492.897	24.77
493.021	3.77
493.145	27.77
493.27	29.77
493.394	17.77
493.518	3.77
493.643	5.77
493.767	16.77
493.891	8.77
494.016	12.77
494.14	26.77
494.264	5.77
494.389	13.77
494.513	6.77
494.637	1.77
494.762	24.77
494.886	24.77
495.01	25.77
495.134	16.77
495.259	17.77
495.383	11.77
495.507	9.77
495.632	42.77
495.756	48.77
495.88	31.77
496.004	24.77
496.129	26.77
496.253	18.77
496.377	17.77
496.501	37.77
496.626	8.77
496.75	12.77
496.874	25.77
496.998	11.77
497.123	20.77
497.247	11.77
497.371	15.77
497.495	11.77
497.62	25.77
497.744	-6.23
497.868	-0.23
497.992	-11.23
498.116	18.77
498.241	7.77
498.365	-2.23
498.489	13.77
498.613	43.77
498.737	15.77
498.862	16.77
498.986	21.77
499.11	20.77
499.234	33.77
499.358	7.77
499.482	20.77
499.607	23.77
499.731	15.77
499.855	24.77
499.979	7.77
500.103	18.77
500.227	11.77
500.351	24.77
500.476	12.77
500.6	23.77
500.724	5.77
500.848	6.77
500.972	30.77
501.096	7.77
501.22	37.77
501.344	21.77
501.469	12.77
501.593	11.77
501.717	17.77
501.841	12.77
501.965	5.77
502.089	11.77
502.213	21.77
502.337	16.77
502.461	11.77
502.585	18.77
502.709	12.77
502.834	8.77
502.958	28.77
503.082	33.77
503.206	9.77
503.33	22.77
503.454	29.77
503.578	42.77
503.702	21.77
503.826	14.77
503.95	31.77
504.074	17.77
504.198	11.77
504.322	21.77
504.446	5.77
504.57	16.77
504.694	24.77
504.818	31.77
504.942	27.77
505.066	27.77
505.19	6.77
505.314	20.77
505.438	8.77
505.562	6.77
505.686	30.77
505.81	9.77
505.934	39.77
506.058	36.77
506.182	28.77
506.306	28.77
506.43	4.77
506.554	9.77
506.678	11.77
506.802	14.77
506.926	23.77
507.05	11.77
507.174	22.77
507.298	36.77
507.422	20.77
507.546	18.77
507.67	27.77
507.794	-11.23
507.918	15.77
508.042	24.77
508.165	20.77
508.289	11.77
508.413	10.77
508.537	7.77
508.661	24.77
508.785	11.77
508.909	9.77
509.033	13.77
509.157	23.77
509.281	38.77
509.405	33.77
509.528	36.77
509.652	31.77
509.776	19.77
509.9	37.77
510.024	38.77
510.148	41.77
510.272	24.77
510.396	36.77
510.519	30.77
510.643	45.77
510.767	39.77
510.891	40.77
511.015	32.77
511.139	38.77
511.263	56.77
511.386	32.77
511.51	47.77
511.634	21.77
511.758	24.77
511.882	19.77
512.006	44.77
512.129	46.77
512.253	87.77
512.377	63.77
512.501	88.77
512.625	97.77
512.748	91.77
512.872	78.77
512.996	39.77
513.12	47.77
513.244	52.77
513.367	70.77
513.491	83.77
513.615	81.77
513.739	101.77
513.862	93.77
513.986	84.77
514.11	89.77
514.234	101.77
514.358	134.77
514.481	115.77
514.605	103.77
514.729	130.77
514.853	135.77
514.976	90.77
515.1	92.77
515.224	97.77
515.348	90.77
515.471	83.77
515.595	104.77
515.719	143.77
515.842	211.77
515.966	274.77
516.09	299.77
516.214	319.77
516.337	355.77
516.461	226.77
516.585	92.77
516.708	55.77
516.832	41.77
516.956	35.77
517.08	23.77
517.203	9.77
517.327	27.77
517.451	17.77
517.574	34.77
517.698	18.77
517.822	-16.23
517.945	26.77
518.069	15.77
518.193	25.77
518.316	21.77
518.44	25.77
518.564	17.77
518.687	29.77
518.811	15.77
518.935	32.77
519.058	14.77
519.182	12.77
519.306	9.77
519.429	-3.23
519.553	42.77
519.676	8.77
519.8	6.77
519.924	15.77
520.047	22.77
520.171	16.77
520.294	6.77
520.418	21.77
520.542	21.77
520.665	27.77
520.789	11.77
520.913	8.77
521.036	6.77
521.16	15.77
521.283	4.77
521.407	-2.23
521.53	-4.23
521.654	-3.23
521.778	27.77
521.901	8.77
522.025	8.77
522.148	13.77
522.272	12.77
522.395	-3.23
522.519	10.77
522.643	16.77
522.766	-9.23
522.89	20.77
523.013	37.77
523.137	-2.23
523.26	0.77
523.384	19.77
523.507	32.77
523.631	11.77
523.754	4.77
523.878	10.77
524.002	9.77
524.125	11.77
524.249	3.77
524.372	3.77
524.496	13.77
524.619	27.77
524.743	10.77
524.866	12.77
524.99	16.77
525.113	5.77
525.237	24.77
525.36	19.77
525.484	20.77
525.607	-9.23
525.731	-1.23
525.854	13.77
525.978	29.77
526.101	-0.23
526.224	13.77
526.348	7.77
526.471	8.77
526.595	29.77
526.718	5.77
526.842	12.77
526.965	21.77
527.089	-0.23
527.212	-16.23
527.336	1.77
527.459	15.77
527.582	4.77
527.706	20.77
527.829	16.77
527.953	1.77
528.076	4.77
528.2	25.77
528.323	23.77
528.446	19.77
528.57	21.77
528.693	41.77
528.817	0.77
528.94	17.77
529.064	36.77
529.187	7.77
529.31	12.77
529.434	-14.23
529.557	-5.23
529.68	8.77
529.804	23.77
529.927	12.77
530.051	7.77
530.174	3.77
530.297	25.77
530.421	16.77
530.544	20.77
530.668	28.77
530.791	-4.23
530.914	27.77
531.038	17.77
531.161	20.77
531.284	21.77
531.408	9.77
531.531	11.77
531.654	4.77
531.778	28.77
531.901	-8.23
532.024	7.77
532.148	-4.23
532.271	12.77
532.394	15.77
532.518	10.77
532.641	18.77
532.764	26.77
532.888	12.77
533.011	-8.23
533.134	7.77
533.258	30.77
533.381	23.77
533.504	18.77
533.628	-0.23
533.751	13.77
533.874	20.77
533.997	15.77
534.121	12.77
534.244	22.77
534.367	2.77
534.491	-2.23
534.614	7.77
534.737	19.77
534.86	10.77
534.984	4.77
535.107	4.77
535.23	16.77
535.354	12.77
535.477	0.77
535.6	-0.23
535.723	-3.23
535.847	23.77
535.97	5.77
536.093	9.77
536.216	15.77
536.34	19.77
536.463	5.77
536.586	10.77
536.709	9.77
536.833	20.77
536.956	10.77
537.079	8.77
537.202	28.77
537.325	6.77
537.449	12.77
537.572	16.77
537.695	10.77
537.818	-6.23
537.941	11.77
538.065	-5.23
538.188	23.77
538.311	19.77
538.434	34.77
538.558	32.77
538.681	17.77
538.804	19.77
538.927	20.77
539.05	31.77
539.173	10.77
539.297	-5.23
539.42	20.77
539.543	16.77
539.666	31.77
539.789	26.77
539.913	16.77
540.036	27.77
540.159	24.77
540.282	9.77
540.405	12.77
540.528	5.77
540.651	13.77
540.775	16.77
540.898	32.77
541.021	17.77
541.144	25.77
541.267	21.77
541.39	8.77
541.513	27.77
541.637	13.77
541.76	30.77
541.883	7.77
542.006	20.77
542.129	30.77
542.252	31.77
542.375	22.77
542.498	36.77
542.622	28.77
542.745	48.77
542.868	38.77
542.991	54.77
543.114	67.77
543.237	63.77
543.36	76.77
543.483	65.77
543.606	75.77
543.73	71.77
543.853	59.77
543.976	80.77
544.099	104.77
544.222	111.77
544.345	148.77
544.468	165.77
544.591	211.77
544.714	263.77
544.837	348.77
544.96	442.77
545.083	660.77
545.206	1067.77
545.329	2434.77
545.453	10898.77
545.576	15241.77
545.699	15678.77
545.822	15678.77
545.945	15678.77
546.068	15678.77
546.191	15678.77
546.314	15678.77
546.437	15678.77
546.56	15678.77
546.683	15678.77
546.806	15678.77
546.929	15678.77
547.052	15678.77
547.175	15678.77
547.298	15678.77
547.421	15678.77
547.544	15678.77
547.667	3535.77
547.79	2750.77
547.913	1087.77
548.036	898.77
548.159	631.77
548.282	620.77
548.405	469.77
548.528	485.77
548.651	383.77
548.774	380.77
548.897	355.77
549.02	355.77
549.143	308.77
549.266	288.77
549.389	278.77
549.512	248.77
549.635	253.77
549.758	234.77
549.881	204.77
550.004	205.77
550.127	193.77
550.25	186.77
550.373	165.77
550.496	193.77
550.619	172.77
550.742	154.77
550.865	127.77
550.988	150.77
551.111	144.77
551.234	141.77
551.356	123.77
551.479	123.77
551.602	115.77
551.725	118.77
551.848	139.77
551.971	141.77
552.094	136.77
552.217	106.77
552.34	118.77
552.463	114.77
552.586	112.77
552.709	112.77
552.832	98.77
552.955	113.77
553.077	109.77
553.2	103.77
553.323	76.77
553.446	90.77
553.569	78.77
553.692	100.77
553.815	97.77
553.938	98.77
554.061	82.77
554.184	97.77
554.306	92.77
554.429	104.77
554.552	83.77
554.675	86.77
554.798	85.77
554.921	77.77
555.044	68.77
555.167	59.77
555.29	76.77
555.412	71.77
555.535	67.77
555.658	73.77
555.781	83.77
555.904	41.77
556.027	82.77
556.15	60.77
556.272	67.77
556.395	73.77
556.518	46.77
556.641	63.77
556.764	85.77
556.887	57.77
557.01	93.77
557.132	53.77
557.255	56.77
557.378	71.77
557.501	71.77
557.624	62.77
557.747	76.77
557.869	85.77
557.992	85.77
558.115	106.77
558.238	70.77
558.361	86.77
558.483	90.77
558.606	84.77
558.729	48.77
558.852	52.77
558.975	65.77
559.098	59.77
559.22	47.77
559.343	47.77
559.466	49.77
559.589	48.77
559.712	59.77
559.834	60.77
559.957	39.77
560.08	47.77
560.203	54.77
560.325	69.77
560.448	64.77
560.571	55.77
560.694	46.77
560.817	80.77
560.939	55.77
561.062	41.77
561.185	57.77
561.308	64.77
561.43	57.77
561.553	64.77
561.676	38.77
561.799	52.77
561.921	61.77
562.044	60.77
562.167	44.77
562.29	85.77
562.413	76.77
562.535	52.77
562.658	20.77
562.781	53.77
562.903	53.77
563.026	100.77
563.149	127.77
563.272	128.77
563.394	103.77
563.517	103.77
563.64	73.77
563.763	37.77
563.885	41.77
564.008	59.77
564.131	35.77
564.254	29.77
564.376	24.77
564.499	26.77
564.622	20.77
564.744	30.77
564.867	44.77
564.99	41.77
565.113	33.77
565.235	46.77
565.358	41.77
565.481	18.77
565.603	17.77
565.726	27.77
565.849	54.77
565.971	35.77
566.094	21.77
566.217	28.77
566.34	40.77
566.462	27.77
566.585	36.77
566.708	56.77
566.83	36.77
566.953	42.77
567.076	23.77
567.198	48.77
567.321	21.77
567.444	57.77
567.566	11.77
567.689	10.77
567.812	19.77
567.934	35.77
568.057	40.77
568.18	22.77
568.302	24.77
568.425	31.77
568.548	34.77
568.67	27.77
568.793	27.77
568.916	37.77
569.038	16.77
569.161	35.77
569.283	30.77
569.406	31.77
569.529	23.77
569.651	22.77
569.774	29.77
569.897	7.77
570.019	29.77
570.142	29.77
570.265	28.77
570.387	27.77
570.51	47.77
570.632	44.77
570.755	25.77
570.878	21.77
571	36.77
571.123	28.77
571.246	34.77
571.368	28.77
571.491	26.77
571.613	38.77
571.736	12.77
571.859	22.77
571.981	22.77
572.104	7.77
572.226	31.77
572.349	25.77
572.472	33.77
572.594	32.77
572.717	18.77
572.839	30.77
572.962	27.77
573.085	31.77
573.207	27.77
573.33	35.77
573.452	48.77
573.575	40.77
573.697	40.77
573.82	34.77
573.943	33.77
574.065	42.77
574.188	39.77
574.31	45.77
574.433	35.77
574.555	49.77
574.678	36.77
574.801	32.77
574.923	22.77
575.046	32.77
575.168	19.77
575.291	28.77
575.413	15.77
575.536	32.77
575.659	34.77
575.781	57.77
575.904	53.77
576.026	79.77
576.149	70.77
576.271	140.77
576.394	189.77
576.516	515.77
576.639	3617.77
576.761	10182.77
576.884	8816.77
577.007	8760.77
577.129	7985.77
577.252	3736.77
577.374	1322.77
577.497	507.77
577.619	271.77
577.742	178.77
577.864	146.77
577.987	125.77
578.109	128.77
578.232	127.77
578.354	149.77
578.477	194.77
578.599	387.77
578.722	1952.77
578.844	9124.77
578.967	9814.77
579.089	8735.77
579.212	8997.77
579.334	5204.77
579.457	1930.77
579.579	731.77
579.702	340.77
579.824	219.77
579.947	134.77
580.069	97.77
580.192	92.77
580.314	79.77
580.437	70.77
580.559	75.77
580.682	62.77
580.804	58.77
580.927	50.77
581.049	74.77
581.172	43.77
581.294	39.77
581.417	36.77
581.539	29.77
581.662	49.77
581.784	50.77
581.907	54.77
582.029	36.77
582.152	29.77
582.274	61.77
582.396	40.77
582.519	57.77
582.641	19.77
582.764	30.77
582.886	40.77
583.009	24.77
583.131	32.77
583.254	38.77
583.376	51.77
583.499	49.77
583.621	32.77
583.743	35.77
583.866	33.77
583.988	28.77
584.111	18.77
584.233	48.77
584.356	51.77
584.478	38.77
584.601	16.77
584.723	29.77
584.845	41.77
584.968	15.77
585.09	21.77
585.213	23.77
585.335	17.77
585.458	22.77
585.58	27.77
585.702	36.77
585.825	52.77
585.947	33.77
586.07	7.77
586.192	9.77
586.315	29.77
586.437	16.77
586.559	18.77
586.682	7.77
586.804	21.77
586.927	10.77
587.049	8.77
587.171	31.77
587.294	33.77
587.416	39.77
587.539	28.77
587.661	29.77
587.783	28.77
587.906	21.77
588.028	35.77
588.151	31.77
588.273	27.77
588.395	16.77
588.518	7.77
588.64	24.77
588.763	16.77
588.885	17.77
589.007	38.77
589.13	4.77
589.252	0.77
589.375	15.77
589.497	28.77
589.619	28.77
589.742	21.77
589.864	37.77
589.986	23.77
590.109	3.77
590.231	30.77
590.354	15.77
590.476	7.77
590.598	15.77
590.721	17.77
590.843	25.77
590.965	15.77
591.088	43.77
591.21	33.77
591.332	29.77
591.455	29.77
591.577	32.77
591.7	10.77
591.822	4.77
591.944	27.77
592.067	23.77
592.189	19.77
592.311	26.77
592.434	10.77
592.556	19.77
592.678	28.77
592.801	23.77
592.923	15.77
593.045	23.77
593.168	9.77
593.29	13.77
593.412	27.77
593.535	20.77
593.657	15.77
593.779	28.77
593.902	28.77
594.024	16.77
594.146	23.77
594.269	17.77
594.391	15.77
594.513	41.77
594.636	30.77
594.758	13.77
594.88	25.77
595.003	27.77
595.125	22.77
595.247	4.77
595.37	15.77
595.492	17.77
595.614	34.77
595.737	18.77
595.859	24.77
595.981	21.77
596.104	24.77
596.226	13.77
596.348	4.77
596.471	22.77
596.593	19.77
596.715	19.77
596.838	4.77
596.96	9.77
597.082	25.77
597.204	28.77
597.327	27.77
597.449	23.77
597.571	15.77
597.694	23.77
597.816	38.77
597.938	24.77
598.061	17.77
598.183	12.77
598.305	28.77
598.427	28.77
598.55	15.77
598.672	30.77
598.794	33.77
598.917	29.77
599.039	38.77
599.161	24.77
599.283	8.77
599.406	21.77
599.528	17.77
599.65	44.77
599.773	24.77
599.895	21.77
600.017	28.77
600.139	23.77
600.262	3.77
600.384	11.77
600.506	32.77
600.628	45.77
600.751	20.77
600.873	5.77
600.995	7.77
601.118	36.77
601.24	32.77
601.362	28.77
601.484	26.77
601.607	27.77
601.729	3.77
601.851	11.77
601.973	4.77
602.096	9.77
602.218	6.77
602.34	-0.23
602.462	5.77
602.585	21.77
602.707	17.77
602.829	30.77
602.951	33.77
603.074	11.77
603.196	19.77
603.318	-0.23
603.44	22.77
603.563	21.77
603.685	8.77
603.807	16.77
603.929	18.77
604.052	19.77
604.174	16.77
604.296	6.77
604.418	13.77
604.541	23.77
604.663	15.77
604.785	-6.23
604.907	-1.23
605.03	3.77
605.152	58.77
605.274	16.77
605.396	16.77
605.519	9.77
605.641	3.77
605.763	9.77
605.885	24.77
606.008	25.77
606.13	33.77
606.252	42.77
606.374	10.77
606.496	6.77
606.619	21.77
606.741	28.77
606.863	41.77
606.985	47.77
607.108	27.77
607.23	21.77
607.352	8.77
607.474	27.77
607.596	13.77
607.719	9.77
607.841	27.77
607.963	12.77
608.085	7.77
608.207	37.77
608.33	19.77
608.452	13.77
608.574	24.77
608.696	26.77
608.819	-0.23
608.941	17.77
609.063	3.77
609.185	19.77
609.307	39.77
609.43	36.77
609.552	22.77
609.674	8.77
609.796	13.77
609.918	11.77
610.041	8.77
610.163	16.77
610.285	17.77
610.407	27.77
610.529	8.77
610.652	21.77
610.774	28.77
610.896	8.77
611.018	13.77
611.14	21.77
611.263	15.77
611.385	-0.23
611.507	20.77
611.629	8.77
611.751	28.77
611.873	49.77
611.996	36.77
612.118	35.77
612.24	16.77
612.362	33.77
612.484	42.77
612.607	22.77
612.729	40.77
612.851	55.77
612.973	23.77
613.095	17.77
613.218	14.77
613.34	23.77
613.462	-2.23
613.584	21.77
613.706	0.77
613.828	27.77
613.951	18.77
614.073	13.77
614.195	17.77
614.317	33.77
614.439	30.77
614.561	14.77
614.684	21.77
614.806	32.77
614.928	33.77
615.05	31.77
615.172	18.77
615.294	19.77
615.417	17.77
615.539	1.77
615.661	18.77
615.783	33.77
615.905	21.77
616.027	17.77
616.15	36.77
616.272	20.77
616.394	12.77
616.516	9.77
616.638	18.77
616.76	16.77
616.883	10.77
617.005	13.77
617.127	0.77
617.249	13.77
617.371	17.77
617.493	19.77
617.615	22.77
617.738	14.77
617.86	3.77
617.982	17.77
618.104	17.77
618.226	17.77
618.348	-1.23
618.471	13.77
618.593	25.77
618.715	4.77
618.837	25.77
618.959	36.77
619.081	25.77
619.203	3.77
619.326	12.77
619.448	47.77
619.57	18.77
619.692	39.77
619.814	25.77
619.936	16.77
620.058	23.77
620.181	24.77
620.303	6.77
620.425	18.77
620.547	-0.23
620.669	20.77
620.791	14.77
620.913	19.77
621.036	8.77
621.158	12.77
621.28	13.77
621.402	11.77
621.524	4.77
621.646	24.77
621.768	3.77
621.891	0.77
622.013	16.77
622.135	-0.23
622.257	1.77
622.379	5.77
622.501	4.77
622.623	2.77
622.745	-7.23
622.868	8.77
622.99	11.77
623.112	11.77
623.234	3.77
623.356	26.77
623.478	12.77
623.6	33.77
623.722	8.77
623.845	20.77
623.967	13.77
624.089	27.77
624.211	15.77
624.333	22.77
624.455	20.77
624.577	3.77
624.699	33.77
624.822	9.77
624.944	3.77
625.066	-3.23
625.188	0.77
625.31	7.77
625.432	25.77
625.554	6.77
625.676	32.77
625.799	15.77
625.921	7.77
626.043	20.77
626.165	12.77
626.287	-7.23
626.409	5.77
626.531	5.77
626.653	10.77
626.775	21.77
626.898	29.77
627.02	20.77
627.142	38.77
627.264	21.77
627.386	12.77
627.508	13.77
627.63	22.77
627.752	3.77
627.874	4.77
627.997	10.77
628.119	22.77
628.241	11.77
628.363	5.77
628.485	18.77
628.607	20.77
628.729	21.77
628.851	8.77
628.973	17.77
629.096	-3.23
629.218	8.77
629.34	12.77
629.462	1.77
629.584	11.77
629.706	17.77
629.828	16.77
629.95	13.77
630.072	-2.23
630.195	-7.23
630.317	17.77
630.439	9.77
630.561	15.77
630.683	2.77
630.805	18.77
630.927	15.77
631.049	3.77
631.171	-2.23
631.293	3.77
631.416	10.77
631.538	13.77
631.66	28.77
631.782	33.77
631.904	18.77
632.026	6.77
632.148	8.77
632.27	9.77
632.392	16.77
632.514	36.77
632.637	28.77
632.759	15.77
632.881	5.77
633.003	3.77
633.125	1.77
633.247	-4.23
633.369	7.77
633.491	1.77
633.613	15.77
633.735	-0.23
633.858	5.77
633.98	7.77
634.102	1.77
634.224	19.77
634.346	18.77
634.468	12.77
634.59	17.77
634.712	27.77
634.834	33.77
634.956	7.77
635.078	-0.23
635.201	-4.23
635.323	19.77
635.445	10.77
635.567	-18.23
635.689	15.77
635.811	15.77
635.933	9.77
636.055	15.77
636.177	9.77
636.299	17.77
636.421	8.77
636.544	-10.23
636.666	12.77
636.788	22.77
636.91	14.77
637.032	8.77
637.154	15.77
637.276	41.77
637.398	31.77
637.52	8.77
637.642	5.77
637.764	6.77
637.887	7.77
638.009	5.77
638.131	13.77
638.253	7.77
638.375	28.77
638.497	7.77
638.619	-4.23
638.741	19.77
638.863	-0.23
638.985	-8.23
639.107	-0.23
639.23	4.77
639.352	30.77
639.474	3.77
639.596	7.77
639.718	-2.23
639.84	8.77
639.962	3.77
640.084	8.77
640.206	16.77
640.328	-12.23
640.45	12.77
640.573	-6.23
640.695	1.77
640.817	6.77
640.939	33.77
641.061	2.77
641.183	5.77
641.305	1.77
641.427	13.77
641.549	14.77
641.671	21.77
641.793	20.77
641.915	25.77
642.038	6.77
642.16	7.77
642.282	7.77
642.404	9.77
642.526	7.77
642.648	9.77
642.77	6.77
642.892	12.77
643.014	19.77
643.136	2.77
643.258	16.77
643.381	35.77
643.503	35.77
643.625	14.77
643.747	-2.23
643.869	0.77
643.991	22.77
644.113	21.77
644.235	-4.23
644.357	6.77
644.479	17.77
644.601	0.77
644.723	4.77
644.846	19.77
644.968	-5.23
645.09	3.77
645.212	0.77
645.334	17.77
645.456	3.77
645.578	9.77
645.7	17.77
645.822	19.77
645.944	8.77
646.066	12.77
646.188	-12.23
646.311	3.77
646.433	5.77
646.555	16.77
646.677	12.77
646.799	4.77
646.921	5.77
647.043	17.77
647.165	-5.23
647.287	18.77
647.409	12.77
647.531	35.77
647.654	-15.23
647.776	21.77
647.898	17.77
648.02	5.77
648.142	4.77
648.264	10.77
648.386	0.77
648.508	-5.23
648.63	6.77
648.752	15.77
648.874	12.77
648.997	8.77
649.119	25.77
649.241	0.77
649.363	21.77
649.485	18.77
649.607	4.77
649.729	-3.23
649.851	-3.23
649.973	-4.23
650.095	4.77
650.217	-0.23
650.34	8.77
650.462	3.77
650.584	13.77
650.706	14.77
650.828	19.77
650.95	-16.23
651.072	14.77
651.194	5.77
651.316	4.77
651.438	15.77
651.56	0.77
651.683	9.77
651.805	8.77
651.927	-6.23
652.049	-10.23
652.171	13.77
652.293	8.77
652.415	-8.23
652.537	-3.23
652.659	-8.23
652.781	0.77
652.903	26.77
653.026	13.77
653.148	0.77
653.27	11.77
653.392	12.77
653.514	-0.23
653.636	-0.23
653.758	3.77
653.88	-6.23
654.002	-13.23
654.124	4.77
654.247	11.77
654.369	7.77
654.491	4.77
654.613	3.77
654.735	4.77
654.857	8.77
654.979	4.77
655.101	7.77
655.223	29.77
655.345	21.77
655.468	8.77
655.59	3.77
655.712	18.77
655.834	17.77
655.956	23.77
656.078	11.77
656.2	-0.23
656.322	-0.23
656.444	-10.23
656.566	15.77
656.689	13.77
656.811	-4.23
656.933	21.77
657.055	-6.23
657.177	-4.23
657.299	-2.23
657.421	4.77
657.543	-0.23
657.665	-11.23
657.787	5.77
657.91	-14.23
658.032	-5.23
658.154	3.77
658.276	11.77
658.398	-12.23
658.52	17.77
658.642	18.77
658.764	19.77
658.886	-12.23
659.009	15.77
659.131	-3.23
659.253	14.77
659.375	6.77
659.497	23.77
659.619	8.77
659.741	4.77
659.863	-2.23
659.985	-4.23
660.108	-1.23
660.23	1.77
660.352	16.77
660.474	11.77
660.596	12.77
660.718	23.77
660.84	9.77
660.962	11.77
661.084	7.77
661.207	-2.23
661.329	1.77
661.451	6.77
661.573	-6.23
661.695	13.77
661.817	7.77
661.939	24.77
662.061	9.77
662.184	-0.23
662.306	-9.23
662.428	12.77
662.55	28.77
662.672	-0.23
662.794	-3.23
662.916	0.77
663.038	-12.23
663.161	31.77
663.283	2.77
663.405	9.77
663.527	7.77
663.649	4.77
663.771	3.77
663.893	-3.23
664.015	1.77
664.138	-12.23
664.26	7.77
664.382	-2.23
664.504	-10.23
664.626	-21.23
664.748	6.77
664.87	11.77
664.992	4.77
665.115	12.77
665.237	-5.23
665.359	-0.23
665.481	-0.23
665.603	11.77
665.725	-3.23
665.847	-24.23
665.97	9.77
666.092	14.77
666.214	-0.23
666.336	-4.23
666.458	27.77
666.58	8.77
666.702	1.77
666.825	0.77
666.947	-16.23
667.069	7.77
667.191	9.77
667.313	16.77
667.435	-8.23
667.557	-2.23
667.68	1.77
667.802	8.77
667.924	-5.23
668.046	8.77
668.168	-5.23
668.29	10.77
668.412	9.77
668.535	10.77
668.657	1.77
668.779	-0.23
668.901	11.77
669.023	24.77
669.145	1.77
669.267	23.77
669.39	8.77
669.512	16.77
669.634	9.77
669.756	3.77
669.878	3.77
670	-6.23
670.123	-2.23
670.245	18.77
670.367	19.77
670.489	8.77
670.611	-0.23
670.733	-7.23
670.856	6.77
670.978	15.77
671.1	3.77
671.222	11.77
671.344	3.77
671.466	12.77
671.589	2.77
671.711	-6.23
671.833	1.77
671.955	-4.23
672.077	-3.23
672.199	26.77
672.322	17.77
672.444	18.77
672.566	12.77
672.688	8.77
672.81	12.77
672.932	11.77
673.055	0.77
673.177	-13.23
673.299	12.77
673.421	-3.23
673.543	20.77
673.665	26.77
673.788	3.77
673.91	0.77
674.032	-0.23
674.154	7.77
674.276	15.77
674.399	1.77
674.521	13.77
674.643	14.77
674.765	7.77
674.887	10.77
675.009	4.77
675.132	-11.23
675.254	10.77
675.376	-4.23
675.498	7.77
675.62	16.77
675.743	7.77
675.865	4.77
675.987	-3.23
676.109	6.77
676.231	8.77
676.354	19.77
676.476	11.77
676.598	7.77
676.72	-8.23
676.842	2.77
676.965	0.77
677.087	17.77
677.209	0.77
677.331	13.77
677.453	12.77
677.576	8.77
677.698	10.77
677.82	-0.23
677.942	1.77
678.064	21.77
678.187	-11.23
678.309	13.77
678.431	4.77
678.553	11.77
678.675	8.77
678.798	20.77
678.92	5.77
679.042	-10.23
679.164	-6.23
679.286	5.77
679.409	2.77
679.531	-7.23
679.653	-1.23
679.775	9.77
679.898	4.77
680.02	7.77
680.142	9.77
680.264	22.77
680.386	-15.23
680.509	-0.23
680.631	3.77
680.753	6.77
680.875	4.77
680.998	5.77
681.12	5.77
681.242	8.77
681.364	-13.23
681.486	4.77
681.609	1.77
681.731	6.77
681.853	-7.23
681.975	-0.23
682.098	18.77
682.22	27.77
682.342	8.77
682.464	9.77
682.587	31.77
682.709	7.77
682.831	11.77
682.953	6.77
683.076	-2.23
683.198	4.77
683.32	-19.23
683.442	-6.23
683.565	7.77
683.687	13.77
683.809	19.77
683.931	-14.23
684.054	11.77
684.176	11.77
684.298	10.77
684.42	-3.23
684.543	3.77
684.665	3.77
684.787	-12.23
684.909	-8.23
685.032	-0.23
685.154	-11.23
685.276	7.77
685.398	16.77
685.521	-4.23
685.643	6.77
685.765	19.77
685.887	15.77
686.01	15.77
686.132	-3.23
686.254	4.77
686.377	8.77
686.499	15.77
686.621	18.77
686.743	8.77
686.866	-6.23
686.988	34.77
687.11	11.77
687.232	20.77
687.355	4.77
687.477	-5.23
687.599	1.77
687.722	11.77
687.844	-0.23
687.966	-2.23
688.088	-0.23
688.211	14.77
688.333	14.77
688.455	3.77
688.578	17.77
688.7	12.77
688.822	4.77
688.944	-16.23
689.067	18.77
689.189	12.77
689.311	6.77
689.434	0.77
689.556	15.77
689.678	14.77
689.801	9.77
689.923	15.77
690.045	19.77
690.167	24.77
690.29	12.77
690.412	-4.23
690.534	17.77
690.657	3.77
690.779	6.77
690.901	8.77
691.024	-0.23
691.146	-9.23
691.268	7.77
691.391	12.77
691.513	16.77
691.635	15.77
691.758	13.77
691.88	29.77
692.002	-7.23
692.125	15.77
692.247	-7.23
692.369	5.77
692.492	-2.23
692.614	-2.23
692.736	3.77
692.859	-10.23
692.981	-7.23
693.103	-4.23
693.226	-2.23
693.348	20.77
693.47	-0.23
693.593	19.77
693.715	41.77
693.837	24.77
693.96	22.77
694.082	4.77
694.204	22.77
694.327	-0.23
694.449	-0.23
694.571	-11.23
694.694	19.77
694.816	15.77
694.938	5.77
695.061	-8.23
695.183	-9.23
695.305	0.77
695.428	-3.23
695.55	-1.23
695.672	-15.23
695.795	11.77
695.917	9.77
696.04	11.77
696.162	-1.23
696.284	11.77
696.407	-11.23
696.529	11.77
696.651	16.77
696.774	7.77
696.896	13.77
697.019	-4.23
697.141	-2.23
697.263	3.77
697.386	15.77
697.508	10.77
697.63	8.77
697.753	12.77
697.875	-5.23
697.998	-1.23
698.12	17.77
698.242	7.77
698.365	19.77
698.487	13.77
698.61	8.77
698.732	6.77
698.854	6.77
698.977	10.77
699.099	4.77
699.221	-3.23
699.344	1.77
699.466	11.77
699.589	-5.23
699.711	-8.23
699.834	7.77
699.956	7.77
700.078	6.77
700.201	5.77
700.323	24.77
700.446	-0.23
700.568	-11.23
700.69	7.77
700.813	24.77
700.935	-13.23
701.058	3.77
701.18	11.77
701.302	9.77
701.425	-10.23
701.547	4.77
701.67	-2.23
701.792	-0.23
701.915	-6.23
702.037	-12.23
702.159	1.77
702.282	4.77
702.404	23.77
702.527	16.77
702.649	12.77
702.772	22.77
702.894	6.77
703.017	6.77
703.139	17.77
703.261	22.77
703.384	12.77
703.506	-15.23
703.629	9.77
703.751	4.77
703.874	7.77
703.996	3.77
704.119	-14.23
704.241	2.77
704.364	-16.23
704.486	-0.23
704.608	11.77
704.731	-6.23
704.853	22.77
704.976	-4.23
705.098	8.77
705.221	-4.23
705.343	-0.23
705.466	8.77
705.588	9.77
705.711	12.77
705.833	28.77
705.956	9.77
706.078	11.77
706.201	5.77
706.323	-0.23
706.446	-3.23
