Data from LowRes_mercury_15_20_11_07_2024_HR4C61881__0__15-23-32-283.txt Node

Date: Thu Nov 07 15:23:32 EST 2024
User: crc00042
Spectrometer: HR4C6188
Trigger mode: 4
Integration Time (sec): 1.000000E-1
Scans to average: 1
Electric dark correction enabled: true
Nonlinearity correction enabled: false
Boxcar width: 0
XAxis mode: Wavelengths
Number of Pixels in Spectrum: 3648
>>>>>Begin Spectral Data<<<<<
245.66	-77.46
245.797	-77.46
245.934	-77.46
246.071	-91.46
246.208	16.54
246.344	-9.46
246.481	-6.46
246.618	4.54
246.755	19.54
246.892	-1.46
247.029	-12.46
247.165	-14.46
247.302	10.54
247.439	5.54
247.576	2.54
247.713	-17.46
247.849	24.54
247.986	-5.46
248.123	12.54
248.26	-3.46
248.396	11.54
248.533	-10.46
248.67	-18.46
248.806	0.54
248.943	-23.46
249.08	-4.46
249.216	20.54
249.353	-18.46
249.49	2.54
249.626	1.54
249.763	-11.46
249.9	-6.46
250.036	-4.46
250.173	-5.46
250.309	-11.46
250.446	-3.46
250.582	6.54
250.719	-16.46
250.856	0.54
250.992	-3.46
251.129	-5.46
251.265	-21.46
251.402	-39.46
251.538	-8.46
251.675	-18.46
251.811	-2.46
251.948	17.54
252.084	-3.46
252.221	1.54
252.357	-9.46
252.493	25.54
252.63	-5.46
252.766	10.54
252.903	22.54
253.039	-2.46
253.175	2.54
253.312	-2.46
253.448	-15.46
253.585	-17.46
253.721	-8.46
253.857	10.54
253.994	5.54
254.13	-5.46
254.266	7.54
254.403	-6.46
254.539	10.54
254.675	8.54
254.811	6.54
254.948	-6.46
255.084	1.54
255.22	3.54
255.356	8.54
255.493	4.54
255.629	21.54
255.765	-2.46
255.901	-17.46
256.037	-4.46
256.174	-5.46
256.31	-17.46
256.446	-12.46
256.582	14.54
256.718	12.54
256.854	16.54
256.991	13.54
257.127	18.54
257.263	6.54
257.399	7.54
257.535	14.54
257.671	-3.46
257.807	-4.46
257.943	-25.46
258.079	-14.46
258.215	-0.46
258.351	22.54
258.487	-2.46
258.623	20.54
258.759	-0.46
258.895	3.54
259.031	-4.46
259.167	-22.46
259.303	17.54
259.439	11.54
259.575	13.54
259.711	-2.46
259.847	-5.46
259.983	-2.46
260.119	-0.46
260.255	-1.46
260.391	-7.46
260.527	6.54
260.663	4.54
260.799	19.54
260.934	-7.46
261.07	20.54
261.206	1.54
261.342	-27.46
261.478	7.54
261.614	21.54
261.749	6.54
261.885	7.54
262.021	-6.46
262.157	14.54
262.293	-6.46
262.428	4.54
262.564	0.54
262.7	19.54
262.836	0.54
262.971	11.54
263.107	-3.46
263.243	20.54
263.378	-3.46
263.514	-1.46
263.65	-5.46
263.785	-14.46
263.921	-13.46
264.057	0.54
264.192	8.54
264.328	37.54
264.464	-3.46
264.599	12.54
264.735	5.54
264.871	-22.46
265.006	-2.46
265.142	-10.46
265.277	10.54
265.413	9.54
265.548	21.54
265.684	-0.46
265.819	3.54
265.955	-11.46
266.091	-8.46
266.226	-3.46
266.362	5.54
266.497	2.54
266.633	-10.46
266.768	-10.46
266.903	9.54
267.039	21.54
267.174	6.54
267.31	12.54
267.445	-0.46
267.581	-26.46
267.716	23.54
267.851	9.54
267.987	-12.46
268.122	16.54
268.258	-9.46
268.393	2.54
268.528	9.54
268.664	11.54
268.799	-6.46
268.934	11.54
269.07	-14.46
269.205	-3.46
269.34	24.54
269.476	15.54
269.611	-4.46
269.746	21.54
269.881	3.54
270.017	6.54
270.152	-2.46
270.287	4.54
270.422	10.54
270.558	-4.46
270.693	15.54
270.828	-9.46
270.963	-11.46
271.098	-16.46
271.234	10.54
271.369	13.54
271.504	14.54
271.639	-22.46
271.774	-10.46
271.909	20.54
272.045	-4.46
272.18	-7.46
272.315	-2.46
272.45	14.54
272.585	-23.46
272.72	-8.46
272.855	2.54
272.99	18.54
273.125	-6.46
273.26	-15.46
273.395	-4.46
273.53	4.54
273.665	23.54
273.8	-3.46
273.935	-28.46
274.07	1.54
274.205	1.54
274.34	2.54
274.475	-4.46
274.61	5.54
274.745	-7.46
274.88	5.54
275.015	6.54
275.15	0.54
275.285	8.54
275.42	-11.46
275.555	9.54
275.69	3.54
275.825	-7.46
275.959	13.54
276.094	-18.46
276.229	-10.46
276.364	-7.46
276.499	1.54
276.634	-10.46
276.768	-9.46
276.903	12.54
277.038	11.54
277.173	13.54
277.308	8.54
277.442	-6.46
277.577	-3.46
277.712	-10.46
277.847	-6.46
277.981	17.54
278.116	-9.46
278.251	-1.46
278.386	17.54
278.52	0.54
278.655	-15.46
278.79	8.54
278.924	18.54
279.059	14.54
279.194	-6.46
279.328	18.54
279.463	11.54
279.598	7.54
279.732	-3.46
279.867	8.54
280.001	6.54
280.136	16.54
280.271	24.54
280.405	8.54
280.54	14.54
280.674	9.54
280.809	16.54
280.943	4.54
281.078	12.54
281.213	23.54
281.347	24.54
281.482	-3.46
281.616	-2.46
281.751	4.54
281.885	-16.46
282.02	-5.46
282.154	-2.46
282.288	-9.46
282.423	-15.46
282.557	1.54
282.692	11.54
282.826	-7.46
282.961	10.54
283.095	-1.46
283.229	6.54
283.364	-12.46
283.498	8.54
283.633	5.54
283.767	-2.46
283.901	-3.46
284.036	-0.46
284.17	2.54
284.304	-11.46
284.439	2.54
284.573	-2.46
284.707	22.54
284.842	2.54
284.976	8.54
285.11	-2.46
285.244	0.54
285.379	33.54
285.513	-11.46
285.647	-4.46
285.781	-6.46
285.916	18.54
286.05	-2.46
286.184	18.54
286.318	20.54
286.453	-10.46
286.587	-20.46
286.721	-13.46
286.855	7.54
286.989	8.54
287.123	-7.46
287.258	5.54
287.392	4.54
287.526	15.54
287.66	-3.46
287.794	4.54
287.928	4.54
288.062	7.54
288.196	-7.46
288.33	2.54
288.464	14.54
288.598	25.54
288.733	-1.46
288.867	21.54
289.001	-4.46
289.135	14.54
289.269	-15.46
289.403	0.54
289.537	-6.46
289.671	16.54
289.805	1.54
289.939	8.54
290.073	12.54
290.207	12.54
290.34	14.54
290.474	24.54
290.608	8.54
290.742	1.54
290.876	-7.46
291.01	-6.46
291.144	28.54
291.278	22.54
291.412	2.54
291.546	0.54
291.679	10.54
291.813	14.54
291.947	-1.46
292.081	3.54
292.215	6.54
292.349	9.54
292.482	9.54
292.616	5.54
292.75	6.54
292.884	-7.46
293.018	-0.46
293.151	-14.46
293.285	6.54
293.419	6.54
293.553	2.54
293.686	-7.46
293.82	-0.46
293.954	17.54
294.088	23.54
294.221	15.54
294.355	10.54
294.489	-7.46
294.622	-27.46
294.756	6.54
294.89	-1.46
295.023	11.54
295.157	26.54
295.291	1.54
295.424	26.54
295.558	12.54
295.691	13.54
295.825	-7.46
295.959	-3.46
296.092	-6.46
296.226	5.54
296.359	17.54
296.493	6.54
296.627	1.54
296.76	3.54
296.894	-14.46
297.027	14.54
297.161	9.54
297.294	-19.46
297.428	4.54
297.561	19.54
297.695	3.54
297.828	-0.46
297.962	-12.46
298.095	-0.46
298.229	4.54
298.362	-8.46
298.495	-10.46
298.629	-14.46
298.762	-2.46
298.896	-1.46
299.029	-5.46
299.162	3.54
299.296	10.54
299.429	2.54
299.563	6.54
299.696	-12.46
299.829	8.54
299.963	9.54
300.096	12.54
300.229	16.54
300.363	-3.46
300.496	8.54
300.629	-16.46
300.763	-14.46
300.896	1.54
301.029	9.54
301.162	22.54
301.296	-14.46
301.429	11.54
301.562	-18.46
301.695	8.54
301.829	9.54
301.962	23.54
302.095	-0.46
302.228	-1.46
302.362	0.54
302.495	5.54
302.628	-3.46
302.761	5.54
302.894	-3.46
303.027	8.54
303.161	-1.46
303.294	-5.46
303.427	15.54
303.56	26.54
303.693	1.54
303.826	10.54
303.959	7.54
304.092	9.54
304.225	-8.46
304.359	7.54
304.492	6.54
304.625	-14.46
304.758	11.54
304.891	-2.46
305.024	7.54
305.157	5.54
305.29	-7.46
305.423	-8.46
305.556	2.54
305.689	29.54
305.822	-7.46
305.955	3.54
306.088	6.54
306.221	-6.46
306.354	-0.46
306.487	-7.46
306.62	-20.46
306.752	28.54
306.885	-4.46
307.018	18.54
307.151	1.54
307.284	12.54
307.417	-4.46
307.55	16.54
307.683	4.54
307.816	5.54
307.948	2.54
308.081	2.54
308.214	2.54
308.347	13.54
308.48	-3.46
308.613	8.54
308.745	12.54
308.878	-14.46
309.011	-1.46
309.144	12.54
309.277	13.54
309.409	20.54
309.542	5.54
309.675	8.54
309.808	17.54
309.94	19.54
310.073	-8.46
310.206	-7.46
310.339	19.54
310.471	-15.46
310.604	19.54
310.737	-5.46
310.869	-8.46
311.002	5.54
311.135	7.54
311.267	2.54
311.4	-8.46
311.533	14.54
311.665	0.54
311.798	6.54
311.93	9.54
312.063	13.54
312.196	41.54
312.328	67.54
312.461	52.54
312.593	27.54
312.726	56.54
312.859	86.54
312.991	174.54
313.124	35.54
313.256	20.54
313.389	29.54
313.521	8.54
313.654	-8.46
313.786	-8.46
313.919	-10.46
314.051	-1.46
314.184	19.54
314.316	9.54
314.449	-1.46
314.581	1.54
314.714	6.54
314.846	7.54
314.978	12.54
315.111	8.54
315.243	22.54
315.376	13.54
315.508	13.54
315.641	4.54
315.773	14.54
315.905	5.54
316.038	-2.46
316.17	13.54
316.302	10.54
316.435	7.54
316.567	3.54
316.699	21.54
316.832	1.54
316.964	-1.46
317.096	-16.46
317.229	-4.46
317.361	-17.46
317.493	7.54
317.625	-2.46
317.758	8.54
317.89	23.54
318.022	4.54
318.155	9.54
318.287	9.54
318.419	-8.46
318.551	5.54
318.683	-10.46
318.816	3.54
318.948	-8.46
319.08	-17.46
319.212	8.54
319.344	9.54
319.477	-4.46
319.609	-2.46
319.741	-3.46
319.873	-8.46
320.005	14.54
320.137	-5.46
320.269	14.54
320.401	21.54
320.534	16.54
320.666	2.54
320.798	-10.46
320.93	-16.46
321.062	6.54
321.194	-0.46
321.326	6.54
321.458	23.54
321.59	4.54
321.722	-0.46
321.854	-3.46
321.986	6.54
322.118	7.54
322.25	-18.46
322.382	2.54
322.514	-6.46
322.646	-0.46
322.778	19.54
322.91	-15.46
323.042	4.54
323.174	8.54
323.306	-1.46
323.438	-9.46
323.57	-8.46
323.702	1.54
323.834	0.54
323.966	-21.46
324.097	0.54
324.229	17.54
324.361	9.54
324.493	-11.46
324.625	-22.46
324.757	-0.46
324.889	-6.46
325.021	-13.46
325.152	16.54
325.284	16.54
325.416	-24.46
325.548	0.54
325.68	-11.46
325.811	20.54
325.943	10.54
326.075	0.54
326.207	20.54
326.339	11.54
326.47	5.54
326.602	13.54
326.734	9.54
326.866	8.54
326.997	-0.46
327.129	-2.46
327.261	-14.46
327.392	-14.46
327.524	-6.46
327.656	1.54
327.787	8.54
327.919	-2.46
328.051	26.54
328.182	21.54
328.314	23.54
328.446	-7.46
328.577	11.54
328.709	28.54
328.841	2.54
328.972	-7.46
329.104	-16.46
329.235	-9.46
329.367	-15.46
329.499	-11.46
329.63	-4.46
329.762	4.54
329.893	-1.46
330.025	-3.46
330.156	-2.46
330.288	-5.46
330.419	5.54
330.551	15.54
330.683	22.54
330.814	-13.46
330.946	26.54
331.077	9.54
331.208	1.54
331.34	0.54
331.471	-10.46
331.603	-1.46
331.734	-8.46
331.866	8.54
331.997	5.54
332.129	-4.46
332.26	-0.46
332.392	16.54
332.523	23.54
332.654	-2.46
332.786	-6.46
332.917	-1.46
333.048	10.54
333.18	25.54
333.311	4.54
333.443	-2.46
333.574	-4.46
333.705	34.54
333.837	44.54
333.968	129.54
334.099	241.54
334.231	222.54
334.362	54.54
334.493	24.54
334.624	19.54
334.756	5.54
334.887	-0.46
335.018	1.54
335.15	17.54
335.281	11.54
335.412	17.54
335.543	-1.46
335.675	7.54
335.806	4.54
335.937	-11.46
336.068	4.54
336.199	27.54
336.331	6.54
336.462	18.54
336.593	16.54
336.724	7.54
336.855	13.54
336.986	17.54
337.118	17.54
337.249	15.54
337.38	19.54
337.511	-2.46
337.642	16.54
337.773	16.54
337.904	-6.46
338.035	11.54
338.166	4.54
338.298	10.54
338.429	4.54
338.56	-1.46
338.691	15.54
338.822	17.54
338.953	16.54
339.084	12.54
339.215	17.54
339.346	8.54
339.477	-1.46
339.608	6.54
339.739	-17.46
339.87	-4.46
340.001	11.54
340.132	5.54
340.263	20.54
340.394	28.54
340.525	20.54
340.656	-3.46
340.787	-10.46
340.918	26.54
341.049	7.54
341.179	18.54
341.31	-3.46
341.441	8.54
341.572	14.54
341.703	7.54
341.834	0.54
341.965	11.54
342.096	5.54
342.227	8.54
342.357	14.54
342.488	-6.46
342.619	13.54
342.75	24.54
342.881	-0.46
343.012	28.54
343.142	26.54
343.273	9.54
343.404	17.54
343.535	58.54
343.666	32.54
343.796	51.54
343.927	31.54
344.058	32.54
344.189	32.54
344.319	13.54
344.45	18.54
344.581	24.54
344.712	6.54
344.842	22.54
344.973	15.54
345.104	34.54
345.234	13.54
345.365	13.54
345.496	6.54
345.626	0.54
345.757	18.54
345.888	8.54
346.018	26.54
346.149	11.54
346.28	32.54
346.41	5.54
346.541	24.54
346.672	16.54
346.802	31.54
346.933	17.54
347.063	33.54
347.194	33.54
347.325	29.54
347.455	33.54
347.586	31.54
347.716	12.54
347.847	39.54
347.977	31.54
348.108	45.54
348.238	43.54
348.369	39.54
348.499	46.54
348.63	44.54
348.76	53.54
348.891	60.54
349.021	58.54
349.152	50.54
349.282	63.54
349.413	40.54
349.543	44.54
349.674	16.54
349.804	28.54
349.935	17.54
350.065	14.54
350.196	1.54
350.326	11.54
350.456	9.54
350.587	38.54
350.717	27.54
350.848	32.54
350.978	23.54
351.108	-2.46
351.239	37.54
351.369	9.54
351.499	15.54
351.63	13.54
351.76	15.54
351.89	1.54
352.021	28.54
352.151	4.54
352.281	32.54
352.412	35.54
352.542	38.54
352.672	7.54
352.803	26.54
352.933	9.54
353.063	35.54
353.193	32.54
353.324	7.54
353.454	13.54
353.584	29.54
353.714	37.54
353.845	7.54
353.975	7.54
354.105	0.54
354.235	24.54
354.365	20.54
354.496	17.54
354.626	33.54
354.756	29.54
354.886	9.54
355.016	33.54
355.146	22.54
355.277	20.54
355.407	13.54
355.537	-2.46
355.667	16.54
355.797	19.54
355.927	25.54
356.057	12.54
356.187	22.54
356.318	18.54
356.448	8.54
356.578	16.54
356.708	16.54
356.838	12.54
356.968	23.54
357.098	44.54
357.228	45.54
357.358	21.54
357.488	21.54
357.618	40.54
357.748	45.54
357.878	21.54
358.008	19.54
358.138	32.54
358.268	28.54
358.398	33.54
358.528	-2.46
358.658	33.54
358.788	30.54
358.918	12.54
359.048	21.54
359.178	40.54
359.308	31.54
359.438	43.54
359.568	33.54
359.698	16.54
359.827	25.54
359.957	18.54
360.087	21.54
360.217	13.54
360.347	30.54
360.477	33.54
360.607	6.54
360.737	36.54
360.866	21.54
360.996	1.54
361.126	30.54
361.256	49.54
361.386	30.54
361.516	26.54
361.645	20.54
361.775	22.54
361.905	13.54
362.035	12.54
362.165	40.54
362.294	49.54
362.424	53.54
362.554	47.54
362.684	35.54
362.813	38.54
362.943	54.54
363.073	63.54
363.203	55.54
363.332	63.54
363.462	79.54
363.592	105.54
363.721	114.54
363.851	148.54
363.981	207.54
364.111	269.54
364.24	330.54
364.37	491.54
364.5	888.54
364.629	1874.54
364.759	3908.54
364.888	6420.54
365.018	9576.54
365.148	14884.54
365.277	13170.54
365.407	4860.54
365.537	3208.54
365.666	4174.54
365.796	1904.54
365.925	820.54
366.055	798.54
366.184	1045.54
366.314	1438.54
366.444	2511.54
366.573	2152.54
366.703	684.54
366.832	214.54
366.962	112.54
367.091	90.54
367.221	71.54
367.35	47.54
367.48	85.54
367.609	57.54
367.739	66.54
367.868	37.54
367.998	49.54
368.127	68.54
368.257	51.54
368.386	64.54
368.516	49.54
368.645	28.54
368.775	63.54
368.904	35.54
369.033	35.54
369.163	19.54
369.292	46.54
369.422	34.54
369.551	46.54
369.68	40.54
369.81	40.54
369.939	23.54
370.069	71.54
370.198	35.54
370.327	22.54
370.457	31.54
370.586	38.54
370.715	28.54
370.845	46.54
370.974	40.54
371.103	58.54
371.233	45.54
371.362	47.54
371.491	55.54
371.621	64.54
371.75	37.54
371.879	29.54
372.008	63.54
372.138	50.54
372.267	60.54
372.396	41.54
372.525	26.54
372.655	24.54
372.784	29.54
372.913	28.54
373.042	34.54
373.172	48.54
373.301	5.54
373.43	13.54
373.559	13.54
373.688	14.54
373.818	22.54
373.947	14.54
374.076	14.54
374.205	14.54
374.334	-6.46
374.463	-5.46
374.593	28.54
374.722	47.54
374.851	35.54
374.98	9.54
375.109	3.54
375.238	18.54
375.367	24.54
375.496	-1.46
375.625	-2.46
375.755	20.54
375.884	40.54
376.013	44.54
376.142	13.54
376.271	15.54
376.4	27.54
376.529	30.54
376.658	29.54
376.787	29.54
376.916	16.54
377.045	25.54
377.174	13.54
377.303	8.54
377.432	39.54
377.561	35.54
377.69	29.54
377.819	24.54
377.948	15.54
378.077	14.54
378.206	-3.46
378.335	-1.46
378.464	3.54
378.593	20.54
378.722	17.54
378.851	16.54
378.98	34.54
379.108	-0.46
379.237	1.54
379.366	23.54
379.495	26.54
379.624	21.54
379.753	9.54
379.882	12.54
380.011	5.54
380.14	5.54
380.268	44.54
380.397	19.54
380.526	40.54
380.655	6.54
380.784	-1.46
380.913	13.54
381.041	15.54
381.17	2.54
381.299	-1.46
381.428	19.54
381.557	27.54
381.685	14.54
381.814	12.54
381.943	8.54
382.072	6.54
382.2	11.54
382.329	17.54
382.458	20.54
382.587	40.54
382.715	40.54
382.844	22.54
382.973	13.54
383.102	2.54
383.23	21.54
383.359	26.54
383.488	33.54
383.616	22.54
383.745	12.54
383.874	20.54
384.003	20.54
384.131	14.54
384.26	11.54
384.389	1.54
384.517	4.54
384.646	5.54
384.774	2.54
384.903	28.54
385.032	28.54
385.16	15.54
385.289	25.54
385.418	24.54
385.546	30.54
385.675	17.54
385.803	19.54
385.932	23.54
386.06	9.54
386.189	6.54
386.318	40.54
386.446	36.54
386.575	27.54
386.703	29.54
386.832	17.54
386.96	-2.46
387.089	26.54
387.217	17.54
387.346	6.54
387.474	36.54
387.603	22.54
387.731	31.54
387.86	32.54
387.988	25.54
388.117	25.54
388.245	10.54
388.374	4.54
388.502	30.54
388.631	8.54
388.759	6.54
388.888	24.54
389.016	14.54
389.144	43.54
389.273	9.54
389.401	1.54
389.53	0.54
389.658	29.54
389.786	11.54
389.915	25.54
390.043	15.54
390.172	25.54
390.3	22.54
390.428	48.54
390.557	22.54
390.685	41.54
390.813	36.54
390.942	33.54
391.07	31.54
391.198	14.54
391.327	12.54
391.455	-3.46
391.583	16.54
391.712	29.54
391.84	24.54
391.968	15.54
392.096	24.54
392.225	23.54
392.353	8.54
392.481	15.54
392.609	43.54
392.738	36.54
392.866	34.54
392.994	-1.46
393.122	47.54
393.251	34.54
393.379	15.54
393.507	12.54
393.635	12.54
393.764	29.54
393.892	23.54
394.02	23.54
394.148	18.54
394.276	21.54
394.404	44.54
394.533	11.54
394.661	11.54
394.789	49.54
394.917	49.54
395.045	25.54
395.173	22.54
395.302	29.54
395.43	28.54
395.558	48.54
395.686	40.54
395.814	45.54
395.942	21.54
396.07	41.54
396.198	29.54
396.326	36.54
396.454	22.54
396.582	43.54
396.711	40.54
396.839	25.54
396.967	28.54
397.095	33.54
397.223	28.54
397.351	52.54
397.479	43.54
397.607	42.54
397.735	57.54
397.863	76.54
397.991	56.54
398.119	46.54
398.247	33.54
398.375	64.54
398.503	51.54
398.631	49.54
398.759	55.54
398.887	47.54
399.015	38.54
399.143	69.54
399.271	62.54
399.399	67.54
399.526	66.54
399.654	92.54
399.782	57.54
399.91	86.54
400.038	97.54
400.166	87.54
400.294	91.54
400.422	71.54
400.55	107.54
400.678	138.54
400.805	122.54
400.933	123.54
401.061	117.54
401.189	107.54
401.317	127.54
401.445	129.54
401.573	86.54
401.7	62.54
401.828	44.54
401.956	59.54
402.084	53.54
402.212	42.54
402.34	33.54
402.467	40.54
402.595	41.54
402.723	43.54
402.851	62.54
402.978	62.54
403.106	78.54
403.234	83.54
403.362	112.54
403.489	122.54
403.617	168.54
403.745	201.54
403.873	280.54
404	598.54
404.128	1504.54
404.256	3978.54
404.384	5157.54
404.511	5560.54
404.639	7297.54
404.767	11646.54
404.894	14778.54
405.022	4997.54
405.15	1314.54
405.277	429.54
405.405	258.54
405.533	138.54
405.66	113.54
405.788	54.54
405.916	76.54
406.043	50.54
406.171	57.54
406.299	61.54
406.426	62.54
406.554	43.54
406.681	61.54
406.809	43.54
406.937	75.54
407.064	69.54
407.192	118.54
407.319	316.54
407.447	537.54
407.574	541.54
407.702	653.54
407.83	861.54
407.957	1609.54
408.085	969.54
408.212	281.54
408.34	109.54
408.467	54.54
408.595	42.54
408.722	41.54
408.85	41.54
408.977	31.54
409.105	44.54
409.232	25.54
409.36	17.54
409.487	32.54
409.615	24.54
409.742	35.54
409.87	14.54
409.997	49.54
410.125	33.54
410.252	49.54
410.379	36.54
410.507	29.54
410.634	25.54
410.762	14.54
410.889	36.54
411.017	45.54
411.144	38.54
411.271	20.54
411.399	26.54
411.526	32.54
411.653	35.54
411.781	28.54
411.908	20.54
412.036	26.54
412.163	43.54
412.29	52.54
412.418	30.54
412.545	25.54
412.672	26.54
412.8	42.54
412.927	33.54
413.054	45.54
413.182	27.54
413.309	41.54
413.436	3.54
413.564	36.54
413.691	25.54
413.818	40.54
413.945	-3.46
414.073	11.54
414.2	11.54
414.327	15.54
414.454	40.54
414.582	22.54
414.709	28.54
414.836	22.54
414.963	34.54
415.091	29.54
415.218	25.54
415.345	24.54
415.472	37.54
415.6	3.54
415.727	17.54
415.854	25.54
415.981	14.54
416.108	24.54
416.236	13.54
416.363	11.54
416.49	30.54
416.617	23.54
416.744	45.54
416.871	22.54
416.998	23.54
417.126	29.54
417.253	15.54
417.38	26.54
417.507	9.54
417.634	39.54
417.761	48.54
417.888	35.54
418.015	21.54
418.143	30.54
418.27	69.54
418.397	26.54
418.524	48.54
418.651	39.54
418.778	54.54
418.905	76.54
419.032	55.54
419.159	33.54
419.286	68.54
419.413	71.54
419.54	51.54
419.667	40.54
419.794	6.54
419.921	43.54
420.048	46.54
420.175	53.54
420.302	32.54
420.429	46.54
420.556	39.54
420.683	39.54
420.81	65.54
420.937	58.54
421.064	74.54
421.191	50.54
421.318	64.54
421.445	69.54
421.572	47.54
421.699	47.54
421.826	35.54
421.953	38.54
422.08	42.54
422.207	11.54
422.334	-1.46
422.461	31.54
422.588	1.54
422.714	30.54
422.841	38.54
422.968	39.54
423.095	17.54
423.222	7.54
423.349	13.54
423.476	23.54
423.603	14.54
423.729	17.54
423.856	27.54
423.983	21.54
424.11	3.54
424.237	11.54
424.364	30.54
424.491	15.54
424.617	-4.46
424.744	-6.46
424.871	5.54
424.998	16.54
425.125	2.54
425.251	4.54
425.378	0.54
425.505	24.54
425.632	26.54
425.758	5.54
425.885	25.54
426.012	27.54
426.139	34.54
426.266	31.54
426.392	28.54
426.519	19.54
426.646	16.54
426.772	38.54
426.899	14.54
427.026	24.54
427.153	31.54
427.279	38.54
427.406	31.54
427.533	0.54
427.659	11.54
427.786	12.54
427.913	47.54
428.039	14.54
428.166	1.54
428.293	15.54
428.419	32.54
428.546	22.54
428.673	8.54
428.799	6.54
428.926	20.54
429.053	32.54
429.179	2.54
429.306	22.54
429.433	33.54
429.559	27.54
429.686	-5.46
429.812	17.54
429.939	5.54
430.066	14.54
430.192	15.54
430.319	24.54
430.445	12.54
430.572	10.54
430.699	2.54
430.825	31.54
430.952	24.54
431.078	22.54
431.205	42.54
431.331	15.54
431.458	31.54
431.584	23.54
431.711	25.54
431.837	42.54
431.964	18.54
432.09	16.54
432.217	16.54
432.343	18.54
432.47	38.54
432.596	11.54
432.723	18.54
432.849	10.54
432.976	30.54
433.102	33.54
433.229	47.54
433.355	52.54
433.482	63.54
433.608	109.54
433.735	97.54
433.861	107.54
433.987	161.54
434.114	187.54
434.24	162.54
434.367	215.54
434.493	239.54
434.62	296.54
434.746	383.54
434.872	641.54
434.999	885.54
435.125	1756.54
435.252	5639.54
435.378	13548.54
435.504	15277.54
435.631	15476.54
435.757	15683.54
435.883	15683.54
436.01	15683.54
436.136	15683.54
436.262	15683.54
436.389	3550.54
436.515	2570.54
436.641	873.54
436.768	644.54
436.894	416.54
437.02	402.54
437.147	299.54
437.273	308.54
437.399	222.54
437.526	272.54
437.652	182.54
437.778	182.54
437.904	140.54
438.031	172.54
438.157	134.54
438.283	149.54
438.409	120.54
438.536	126.54
438.662	130.54
438.788	142.54
438.914	125.54
439.041	128.54
439.167	115.54
439.293	101.54
439.419	99.54
439.546	87.54
439.672	80.54
439.798	105.54
439.924	77.54
440.05	87.54
440.177	74.54
440.303	44.54
440.429	63.54
440.555	74.54
440.681	65.54
440.807	81.54
440.934	54.54
441.06	39.54
441.186	45.54
441.312	53.54
441.438	69.54
441.564	64.54
441.69	74.54
441.816	65.54
441.943	28.54
442.069	40.54
442.195	45.54
442.321	50.54
442.447	36.54
442.573	35.54
442.699	32.54
442.825	33.54
442.951	32.54
443.077	63.54
443.203	56.54
443.33	50.54
443.456	37.54
443.582	66.54
443.708	46.54
443.834	43.54
443.96	39.54
444.086	44.54
444.212	52.54
444.338	54.54
444.464	40.54
444.59	50.54
444.716	30.54
444.842	48.54
444.968	11.54
445.094	33.54
445.22	21.54
445.346	17.54
445.472	29.54
445.598	30.54
445.724	28.54
445.85	40.54
445.976	43.54
446.102	44.54
446.228	43.54
446.354	32.54
446.48	36.54
446.605	36.54
446.731	33.54
446.857	16.54
446.983	36.54
447.109	26.54
447.235	19.54
447.361	20.54
447.487	32.54
447.613	44.54
447.739	28.54
447.865	15.54
447.99	26.54
448.116	31.54
448.242	37.54
448.368	34.54
448.494	31.54
448.62	26.54
448.746	26.54
448.872	8.54
448.997	24.54
449.123	10.54
449.249	42.54
449.375	49.54
449.501	18.54
449.627	7.54
449.752	38.54
449.878	7.54
450.004	14.54
450.13	30.54
450.256	20.54
450.381	16.54
450.507	21.54
450.633	33.54
450.759	44.54
450.884	29.54
451.01	26.54
451.136	26.54
451.262	30.54
451.388	37.54
451.513	28.54
451.639	30.54
451.765	40.54
451.89	31.54
452.016	20.54
452.142	24.54
452.268	29.54
452.393	21.54
452.519	15.54
452.645	13.54
452.771	23.54
452.896	26.54
453.022	17.54
453.148	47.54
453.273	22.54
453.399	21.54
453.525	28.54
453.65	20.54
453.776	44.54
453.902	46.54
454.027	22.54
454.153	12.54
454.279	36.54
454.404	17.54
454.53	40.54
454.656	49.54
454.781	40.54
454.907	40.54
455.032	37.54
455.158	36.54
455.284	47.54
455.409	30.54
455.535	24.54
455.66	46.54
455.786	46.54
455.912	14.54
456.037	20.54
456.163	43.54
456.288	20.54
456.414	-1.46
456.539	10.54
456.665	40.54
456.791	34.54
456.916	12.54
457.042	8.54
457.167	-4.46
457.293	3.54
457.418	22.54
457.544	35.54
457.669	25.54
457.795	37.54
457.92	27.54
458.046	23.54
458.171	19.54
458.297	14.54
458.422	2.54
458.548	15.54
458.673	26.54
458.799	28.54
458.924	16.54
459.05	25.54
459.175	21.54
459.301	5.54
459.426	41.54
459.552	21.54
459.677	12.54
459.803	30.54
459.928	9.54
460.053	24.54
460.179	13.54
460.304	26.54
460.43	-1.46
460.555	9.54
460.681	25.54
460.806	24.54
460.931	35.54
461.057	29.54
461.182	14.54
461.308	26.54
461.433	34.54
461.558	21.54
461.684	23.54
461.809	29.54
461.934	24.54
462.06	22.54
462.185	21.54
462.311	3.54
462.436	29.54
462.561	35.54
462.687	23.54
462.812	14.54
462.937	14.54
463.063	21.54
463.188	17.54
463.313	31.54
463.439	18.54
463.564	14.54
463.689	27.54
463.814	30.54
463.94	21.54
464.065	30.54
464.19	24.54
464.316	13.54
464.441	20.54
464.566	4.54
464.692	28.54
464.817	20.54
464.942	38.54
465.067	13.54
465.193	10.54
465.318	27.54
465.443	20.54
465.568	15.54
465.694	29.54
465.819	41.54
465.944	39.54
466.069	40.54
466.194	43.54
466.32	33.54
466.445	22.54
466.57	24.54
466.695	22.54
466.82	37.54
466.946	34.54
467.071	21.54
467.196	14.54
467.321	36.54
467.446	8.54
467.572	32.54
467.697	30.54
467.822	28.54
467.947	47.54
468.072	13.54
468.197	12.54
468.323	32.54
468.448	31.54
468.573	30.54
468.698	28.54
468.823	29.54
468.948	48.54
469.073	58.54
469.198	54.54
469.324	46.54
469.449	21.54
469.574	53.54
469.699	37.54
469.824	28.54
469.949	30.54
470.074	33.54
470.199	36.54
470.324	30.54
470.449	42.54
470.574	16.54
470.7	31.54
470.825	32.54
470.95	46.54
471.075	17.54
471.2	35.54
471.325	42.54
471.45	15.54
471.575	19.54
471.7	45.54
471.825	18.54
471.95	14.54
472.075	17.54
472.2	30.54
472.325	35.54
472.45	29.54
472.575	32.54
472.7	30.54
472.825	40.54
472.95	29.54
473.075	30.54
473.2	14.54
473.325	34.54
473.45	38.54
473.575	34.54
473.7	43.54
473.825	30.54
473.95	28.54
474.075	24.54
474.2	23.54
474.325	11.54
474.45	19.54
474.574	24.54
474.699	28.54
474.824	19.54
474.949	20.54
475.074	22.54
475.199	32.54
475.324	26.54
475.449	8.54
475.574	29.54
475.699	25.54
475.824	3.54
475.949	4.54
476.073	-17.46
476.198	25.54
476.323	21.54
476.448	16.54
476.573	2.54
476.698	22.54
476.823	18.54
476.947	28.54
477.072	12.54
477.197	11.54
477.322	19.54
477.447	8.54
477.572	4.54
477.697	0.54
477.821	8.54
477.946	19.54
478.071	27.54
478.196	11.54
478.321	13.54
478.445	27.54
478.57	14.54
478.695	26.54
478.82	24.54
478.945	38.54
479.069	16.54
479.194	5.54
479.319	28.54
479.444	26.54
479.569	13.54
479.693	32.54
479.818	28.54
479.943	35.54
480.068	27.54
480.192	36.54
480.317	21.54
480.442	13.54
480.567	17.54
480.691	11.54
480.816	17.54
480.941	2.54
481.066	25.54
481.19	26.54
481.315	24.54
481.44	-5.46
481.564	9.54
481.689	17.54
481.814	14.54
481.938	32.54
482.063	10.54
482.188	14.54
482.313	27.54
482.437	36.54
482.562	23.54
482.687	18.54
482.811	17.54
482.936	-7.46
483.061	25.54
483.185	21.54
483.31	10.54
483.435	12.54
483.559	17.54
483.684	30.54
483.808	41.54
483.933	14.54
484.058	12.54
484.182	28.54
484.307	21.54
484.432	24.54
484.556	20.54
484.681	15.54
484.805	13.54
484.93	25.54
485.055	29.54
485.179	35.54
485.304	22.54
485.428	28.54
485.553	8.54
485.678	40.54
485.802	3.54
485.927	28.54
486.051	40.54
486.176	19.54
486.3	28.54
486.425	20.54
486.549	14.54
486.674	26.54
486.799	11.54
486.923	12.54
487.048	11.54
487.172	8.54
487.297	23.54
487.421	30.54
487.546	9.54
487.67	15.54
487.795	-0.46
487.919	3.54
488.044	27.54
488.168	33.54
488.293	11.54
488.417	19.54
488.542	18.54
488.666	26.54
488.791	32.54
488.915	11.54
489.04	38.54
489.164	25.54
489.289	37.54
489.413	13.54
489.538	25.54
489.662	29.54
489.786	27.54
489.911	28.54
490.035	16.54
490.16	22.54
490.284	5.54
490.409	12.54
490.533	23.54
490.658	45.54
490.782	26.54
490.906	52.54
491.031	114.54
491.155	157.54
491.28	143.54
491.404	156.54
491.528	280.54
491.653	169.54
491.777	68.54
491.902	39.54
492.026	17.54
492.15	20.54
492.275	36.54
492.399	20.54
492.524	25.54
492.648	49.54
492.772	24.54
492.897	38.54
493.021	16.54
493.145	30.54
493.27	34.54
493.394	2.54
493.518	14.54
493.643	14.54
493.767	36.54
493.891	2.54
494.016	19.54
494.14	19.54
494.264	15.54
494.389	10.54
494.513	17.54
494.637	13.54
494.762	15.54
494.886	40.54
495.01	23.54
495.134	18.54
495.259	24.54
495.383	28.54
495.507	22.54
495.632	37.54
495.756	41.54
495.88	27.54
496.004	33.54
496.129	0.54
496.253	21.54
496.377	9.54
496.501	33.54
496.626	9.54
496.75	26.54
496.874	28.54
496.998	21.54
497.123	21.54
497.247	13.54
497.371	20.54
497.495	13.54
497.62	14.54
497.744	12.54
497.868	25.54
497.992	26.54
498.116	18.54
498.241	31.54
498.365	3.54
498.489	9.54
498.613	24.54
498.737	16.54
498.862	14.54
498.986	28.54
499.11	-3.46
499.234	12.54
499.358	18.54
499.482	11.54
499.607	27.54
499.731	32.54
499.855	30.54
499.979	32.54
500.103	9.54
500.227	19.54
500.351	6.54
500.476	28.54
500.6	10.54
500.724	19.54
500.848	27.54
500.972	28.54
501.096	16.54
501.22	20.54
501.344	13.54
501.469	13.54
501.593	16.54
501.717	17.54
501.841	10.54
501.965	30.54
502.089	25.54
502.213	30.54
502.337	21.54
502.461	27.54
502.585	21.54
502.709	30.54
502.834	8.54
502.958	17.54
503.082	22.54
503.206	29.54
503.33	24.54
503.454	42.54
503.578	43.54
503.702	37.54
503.826	25.54
503.95	42.54
504.074	17.54
504.198	7.54
504.322	6.54
504.446	21.54
504.57	23.54
504.694	13.54
504.818	11.54
504.942	33.54
505.066	21.54
505.19	15.54
505.314	7.54
505.438	15.54
505.562	16.54
505.686	44.54
505.81	14.54
505.934	32.54
506.058	12.54
506.182	28.54
506.306	15.54
506.43	20.54
506.554	19.54
506.678	6.54
506.802	-1.46
506.926	4.54
507.05	35.54
507.174	47.54
507.298	31.54
507.422	18.54
507.546	29.54
507.67	32.54
507.794	11.54
507.918	17.54
508.042	16.54
508.165	23.54
508.289	15.54
508.413	20.54
508.537	19.54
508.661	26.54
508.785	35.54
508.909	22.54
509.033	24.54
509.157	24.54
509.281	16.54
509.405	25.54
509.528	49.54
509.652	24.54
509.776	23.54
509.9	29.54
510.024	21.54
510.148	38.54
510.272	33.54
510.396	41.54
510.519	15.54
510.643	56.54
510.767	43.54
510.891	68.54
511.015	29.54
511.139	34.54
511.263	42.54
511.386	48.54
511.51	45.54
511.634	48.54
511.758	33.54
511.882	32.54
512.006	33.54
512.129	49.54
512.253	78.54
512.377	59.54
512.501	80.54
512.625	73.54
512.748	77.54
512.872	71.54
512.996	59.54
513.12	49.54
513.244	55.54
513.367	61.54
513.491	62.54
513.615	78.54
513.739	72.54
513.862	68.54
513.986	75.54
514.11	101.54
514.234	93.54
514.358	104.54
514.481	109.54
514.605	105.54
514.729	114.54
514.853	124.54
514.976	98.54
515.1	96.54
515.224	104.54
515.348	78.54
515.471	70.54
515.595	84.54
515.719	133.54
515.842	221.54
515.966	247.54
516.09	265.54
516.214	284.54
516.337	325.54
516.461	222.54
516.585	80.54
516.708	53.54
516.832	35.54
516.956	25.54
517.08	20.54
517.203	0.54
517.327	12.54
517.451	24.54
517.574	37.54
517.698	22.54
517.822	21.54
517.945	9.54
518.069	20.54
518.193	42.54
518.316	14.54
518.44	16.54
518.564	17.54
518.687	17.54
518.811	15.54
518.935	39.54
519.058	4.54
519.182	18.54
519.306	22.54
519.429	23.54
519.553	53.54
519.676	43.54
519.8	24.54
519.924	21.54
520.047	40.54
520.171	16.54
520.294	21.54
520.418	15.54
520.542	4.54
520.665	30.54
520.789	16.54
520.913	10.54
521.036	12.54
521.16	-3.46
521.283	10.54
521.407	-5.46
521.53	4.54
521.654	0.54
521.778	21.54
521.901	42.54
522.025	11.54
522.148	20.54
522.272	12.54
522.395	13.54
522.519	27.54
522.643	12.54
522.766	12.54
522.89	13.54
523.013	32.54
523.137	13.54
523.26	4.54
523.384	14.54
523.507	21.54
523.631	25.54
523.754	-5.46
523.878	16.54
524.002	14.54
524.125	23.54
524.249	-20.46
524.372	-0.46
524.496	6.54
524.619	35.54
524.743	21.54
524.866	11.54
524.99	9.54
525.113	4.54
525.237	25.54
525.36	20.54
525.484	22.54
525.607	23.54
525.731	19.54
525.854	20.54
525.978	38.54
526.101	-0.46
526.224	7.54
526.348	12.54
526.471	21.54
526.595	17.54
526.718	30.54
526.842	10.54
526.965	22.54
527.089	10.54
527.212	11.54
527.336	15.54
527.459	22.54
527.582	9.54
527.706	13.54
527.829	7.54
527.953	10.54
528.076	14.54
528.2	15.54
528.323	36.54
528.446	28.54
528.57	-0.46
528.693	22.54
528.817	6.54
528.94	17.54
529.064	52.54
529.187	23.54
529.31	26.54
529.434	14.54
529.557	16.54
529.68	14.54
529.804	30.54
529.927	3.54
530.051	6.54
530.174	18.54
530.297	28.54
530.421	25.54
530.544	32.54
530.668	25.54
530.791	8.54
530.914	25.54
531.038	15.54
531.161	12.54
531.284	9.54
531.408	8.54
531.531	10.54
531.654	8.54
531.778	15.54
531.901	5.54
532.024	15.54
532.148	9.54
532.271	-0.46
532.394	5.54
532.518	22.54
532.641	23.54
532.764	38.54
532.888	14.54
533.011	18.54
533.134	9.54
533.258	28.54
533.381	25.54
533.504	8.54
533.628	11.54
533.751	24.54
533.874	32.54
533.997	11.54
534.121	5.54
534.244	20.54
534.367	22.54
534.491	18.54
534.614	-1.46
534.737	-1.46
534.86	33.54
534.984	4.54
535.107	-5.46
535.23	16.54
535.354	11.54
535.477	20.54
535.6	-10.46
535.723	22.54
535.847	8.54
535.97	12.54
536.093	12.54
536.216	0.54
536.34	13.54
536.463	-1.46
536.586	12.54
536.709	9.54
536.833	26.54
536.956	-5.46
537.079	5.54
537.202	29.54
537.325	3.54
537.449	0.54
537.572	28.54
537.695	9.54
537.818	8.54
537.941	13.54
538.065	25.54
538.188	5.54
538.311	25.54
538.434	0.54
538.558	20.54
538.681	11.54
538.804	15.54
538.927	33.54
539.05	23.54
539.173	0.54
539.297	8.54
539.42	3.54
539.543	12.54
539.666	45.54
539.789	36.54
539.913	26.54
540.036	26.54
540.159	25.54
540.282	12.54
540.405	2.54
540.528	10.54
540.651	22.54
540.775	12.54
540.898	37.54
541.021	19.54
541.144	37.54
541.267	29.54
541.39	6.54
541.513	30.54
541.637	17.54
541.76	20.54
541.883	22.54
542.006	55.54
542.129	60.54
542.252	30.54
542.375	38.54
542.498	41.54
542.622	31.54
542.745	43.54
542.868	33.54
542.991	54.54
543.114	55.54
543.237	70.54
543.36	71.54
543.483	45.54
543.606	81.54
543.73	92.54
543.853	65.54
543.976	78.54
544.099	104.54
544.222	135.54
544.345	143.54
544.468	183.54
544.591	209.54
544.714	266.54
544.837	366.54
544.96	465.54
545.083	673.54
545.206	1109.54
545.329	2518.54
545.453	11179.54
545.576	15296.54
545.699	15683.54
545.822	15683.54
545.945	15683.54
546.068	15683.54
546.191	15683.54
546.314	15683.54
546.437	15683.54
546.56	15683.54
546.683	15683.54
546.806	15683.54
546.929	15683.54
547.052	15683.54
547.175	15683.54
547.298	15683.54
547.421	15683.54
547.544	15683.54
547.667	4140.54
547.79	5149.54
547.913	1461.54
548.036	1016.54
548.159	672.54
548.282	670.54
548.405	517.54
548.528	553.54
548.651	402.54
548.774	405.54
548.897	370.54
549.02	372.54
549.143	317.54
549.266	309.54
549.389	272.54
549.512	248.54
549.635	247.54
549.758	252.54
549.881	207.54
550.004	214.54
550.127	215.54
550.25	200.54
550.373	165.54
550.496	181.54
550.619	169.54
550.742	145.54
550.865	147.54
550.988	156.54
551.111	167.54
551.234	162.54
551.356	128.54
551.479	129.54
551.602	136.54
551.725	158.54
551.848	126.54
551.971	137.54
552.094	125.54
552.217	124.54
552.34	104.54
552.463	82.54
552.586	110.54
552.709	122.54
552.832	92.54
552.955	103.54
553.077	108.54
553.2	112.54
553.323	70.54
553.446	98.54
553.569	103.54
553.692	103.54
553.815	93.54
553.938	106.54
554.061	99.54
554.184	78.54
554.306	85.54
554.429	85.54
554.552	63.54
554.675	76.54
554.798	89.54
554.921	83.54
555.044	64.54
555.167	74.54
555.29	61.54
555.412	70.54
555.535	54.54
555.658	72.54
555.781	70.54
555.904	77.54
556.027	62.54
556.15	70.54
556.272	68.54
556.395	86.54
556.518	70.54
556.641	69.54
556.764	88.54
556.887	68.54
557.01	56.54
557.132	40.54
557.255	50.54
557.378	77.54
557.501	57.54
557.624	56.54
557.747	66.54
557.869	70.54
557.992	97.54
558.115	80.54
558.238	84.54
558.361	83.54
558.483	91.54
558.606	71.54
558.729	42.54
558.852	65.54
558.975	71.54
559.098	63.54
559.22	59.54
559.343	50.54
559.466	40.54
559.589	38.54
559.712	41.54
559.834	54.54
559.957	50.54
560.08	43.54
560.203	39.54
560.325	53.54
560.448	61.54
560.571	49.54
560.694	43.54
560.817	70.54
560.939	46.54
561.062	36.54
561.185	61.54
561.308	51.54
561.43	44.54
561.553	71.54
561.676	65.54
561.799	74.54
561.921	63.54
562.044	56.54
562.167	51.54
562.29	69.54
562.413	52.54
562.535	59.54
562.658	48.54
562.781	41.54
562.903	70.54
563.026	102.54
563.149	154.54
563.272	104.54
563.394	93.54
563.517	104.54
563.64	71.54
563.763	53.54
563.885	59.54
564.008	60.54
564.131	41.54
564.254	17.54
564.376	39.54
564.499	13.54
564.622	40.54
564.744	64.54
564.867	48.54
564.99	28.54
565.113	30.54
565.235	34.54
565.358	31.54
565.481	25.54
565.603	32.54
565.726	31.54
565.849	60.54
565.971	54.54
566.094	8.54
566.217	46.54
566.34	35.54
566.462	44.54
566.585	41.54
566.708	53.54
566.83	32.54
566.953	53.54
567.076	23.54
567.198	29.54
567.321	16.54
567.444	33.54
567.566	16.54
567.689	40.54
567.812	24.54
567.934	28.54
568.057	43.54
568.18	30.54
568.302	41.54
568.425	31.54
568.548	25.54
568.67	37.54
568.793	40.54
568.916	44.54
569.038	23.54
569.161	44.54
569.283	30.54
569.406	33.54
569.529	17.54
569.651	18.54
569.774	22.54
569.897	24.54
570.019	49.54
570.142	42.54
570.265	19.54
570.387	32.54
570.51	40.54
570.632	45.54
570.755	30.54
570.878	24.54
571	42.54
571.123	38.54
571.246	44.54
571.368	28.54
571.491	26.54
571.613	30.54
571.736	12.54
571.859	21.54
571.981	25.54
572.104	26.54
572.226	18.54
572.349	1.54
572.472	40.54
572.594	31.54
572.717	27.54
572.839	14.54
572.962	48.54
573.085	17.54
573.207	23.54
573.33	26.54
573.452	46.54
573.575	36.54
573.697	40.54
573.82	28.54
573.943	30.54
574.065	38.54
574.188	40.54
574.31	40.54
574.433	42.54
574.555	46.54
574.678	36.54
574.801	30.54
574.923	29.54
575.046	45.54
575.168	25.54
575.291	41.54
575.413	32.54
575.536	47.54
575.659	56.54
575.781	51.54
575.904	44.54
576.026	61.54
576.149	75.54
576.271	140.54
576.394	206.54
576.516	542.54
576.639	3724.54
576.761	10282.54
576.884	8881.54
577.007	8890.54
577.129	8142.54
577.252	3850.54
577.374	1346.54
577.497	532.54
577.619	274.54
577.742	162.54
577.864	149.54
577.987	128.54
578.109	135.54
578.232	132.54
578.354	170.54
578.477	182.54
578.599	383.54
578.722	2014.54
578.844	9307.54
578.967	10001.54
579.089	8932.54
579.212	9237.54
579.334	5351.54
579.457	1925.54
579.579	705.54
579.702	328.54
579.824	202.54
579.947	143.54
580.069	112.54
580.192	58.54
580.314	87.54
580.437	85.54
580.559	98.54
580.682	76.54
580.804	84.54
580.927	70.54
581.049	80.54
581.172	50.54
581.294	47.54
581.417	54.54
581.539	43.54
581.662	40.54
581.784	32.54
581.907	32.54
582.029	40.54
582.152	33.54
582.274	54.54
582.396	41.54
582.519	54.54
582.641	22.54
582.764	30.54
582.886	29.54
583.009	42.54
583.131	31.54
583.254	38.54
583.376	50.54
583.499	32.54
583.621	41.54
583.743	35.54
583.866	37.54
583.988	33.54
584.111	36.54
584.233	32.54
584.356	40.54
584.478	21.54
584.601	14.54
584.723	31.54
584.845	42.54
584.968	9.54
585.09	17.54
585.213	50.54
585.335	17.54
585.458	34.54
585.58	28.54
585.702	41.54
585.825	27.54
585.947	33.54
586.07	28.54
586.192	28.54
586.315	32.54
586.437	10.54
586.559	16.54
586.682	38.54
586.804	45.54
586.927	28.54
587.049	28.54
587.171	29.54
587.294	52.54
587.416	45.54
587.539	20.54
587.661	18.54
587.783	18.54
587.906	21.54
588.028	38.54
588.151	26.54
588.273	37.54
588.395	32.54
588.518	29.54
588.64	23.54
588.763	21.54
588.885	23.54
589.007	46.54
589.13	28.54
589.252	17.54
589.375	28.54
589.497	21.54
589.619	34.54
589.742	45.54
589.864	37.54
589.986	20.54
590.109	21.54
590.231	33.54
590.354	39.54
590.476	16.54
590.598	20.54
590.721	20.54
590.843	24.54
590.965	32.54
591.088	21.54
591.21	29.54
591.332	32.54
591.455	16.54
591.577	20.54
591.7	12.54
591.822	28.54
591.944	30.54
592.067	20.54
592.189	25.54
592.311	20.54
592.434	32.54
592.556	32.54
592.678	28.54
592.801	24.54
592.923	25.54
593.045	36.54
593.168	25.54
593.29	11.54
593.412	35.54
593.535	11.54
593.657	12.54
593.779	17.54
593.902	22.54
594.024	9.54
594.146	33.54
594.269	35.54
594.391	15.54
594.513	26.54
594.636	32.54
594.758	17.54
594.88	28.54
595.003	12.54
595.125	-1.46
595.247	30.54
595.37	17.54
595.492	30.54
595.614	51.54
595.737	25.54
595.859	20.54
595.981	17.54
596.104	22.54
596.226	14.54
596.348	12.54
596.471	22.54
596.593	8.54
596.715	18.54
596.838	24.54
596.96	25.54
597.082	32.54
597.204	20.54
597.327	23.54
597.449	23.54
597.571	27.54
597.694	30.54
597.816	27.54
597.938	33.54
598.061	25.54
598.183	26.54
598.305	38.54
598.427	22.54
598.55	27.54
598.672	33.54
598.794	40.54
598.917	11.54
599.039	29.54
599.161	33.54
599.283	20.54
599.406	17.54
599.528	40.54
599.65	41.54
599.773	30.54
599.895	40.54
600.017	20.54
600.139	20.54
600.262	18.54
600.384	42.54
600.506	26.54
600.628	32.54
600.751	23.54
600.873	18.54
600.995	16.54
601.118	29.54
601.24	14.54
601.362	35.54
601.484	26.54
601.607	29.54
601.729	35.54
601.851	24.54
601.973	5.54
602.096	28.54
602.218	25.54
602.34	4.54
602.462	27.54
602.585	7.54
602.707	12.54
602.829	24.54
602.951	20.54
603.074	11.54
603.196	32.54
603.318	22.54
603.44	38.54
603.563	27.54
603.685	-6.46
603.807	25.54
603.929	38.54
604.052	25.54
604.174	36.54
604.296	21.54
604.418	29.54
604.541	26.54
604.663	2.54
604.785	17.54
604.907	25.54
605.03	8.54
605.152	53.54
605.274	17.54
605.396	14.54
605.519	18.54
605.641	17.54
605.763	14.54
605.885	15.54
606.008	14.54
606.13	26.54
606.252	29.54
606.374	11.54
606.496	8.54
606.619	9.54
606.741	7.54
606.863	25.54
606.985	37.54
607.108	26.54
607.23	5.54
607.352	10.54
607.474	16.54
607.596	25.54
607.719	13.54
607.841	15.54
607.963	18.54
608.085	1.54
608.207	44.54
608.33	37.54
608.452	7.54
608.574	10.54
608.696	25.54
608.819	20.54
608.941	25.54
609.063	-1.46
609.185	8.54
609.307	23.54
609.43	19.54
609.552	19.54
609.674	3.54
609.796	21.54
609.918	23.54
610.041	20.54
610.163	17.54
610.285	15.54
610.407	28.54
610.529	4.54
610.652	24.54
610.774	29.54
610.896	15.54
611.018	17.54
611.14	10.54
611.263	8.54
611.385	4.54
611.507	19.54
611.629	13.54
611.751	17.54
611.873	46.54
611.996	17.54
612.118	30.54
612.24	9.54
612.362	22.54
612.484	43.54
612.607	61.54
612.729	52.54
612.851	20.54
612.973	20.54
613.095	25.54
613.218	22.54
613.34	20.54
613.462	21.54
613.584	29.54
613.706	16.54
613.828	38.54
613.951	19.54
614.073	5.54
614.195	0.54
614.317	18.54
614.439	17.54
614.561	23.54
614.684	29.54
614.806	33.54
614.928	28.54
615.05	20.54
615.172	20.54
615.294	25.54
615.417	14.54
615.539	8.54
615.661	17.54
615.783	32.54
615.905	14.54
616.027	20.54
616.15	23.54
616.272	6.54
616.394	2.54
616.516	16.54
616.638	8.54
616.76	26.54
616.883	15.54
617.005	20.54
617.127	19.54
617.249	26.54
617.371	36.54
617.493	19.54
617.615	38.54
617.738	39.54
617.86	16.54
617.982	24.54
618.104	22.54
618.226	14.54
618.348	11.54
618.471	29.54
618.593	14.54
618.715	2.54
618.837	17.54
618.959	15.54
619.081	34.54
619.203	24.54
619.326	17.54
619.448	29.54
619.57	34.54
619.692	22.54
619.814	37.54
619.936	6.54
620.058	20.54
620.181	33.54
620.303	32.54
620.425	20.54
620.547	-9.46
620.669	26.54
620.791	25.54
620.913	23.54
621.036	29.54
621.158	28.54
621.28	13.54
621.402	26.54
621.524	6.54
621.646	33.54
621.768	7.54
621.891	6.54
622.013	21.54
622.135	8.54
622.257	4.54
622.379	17.54
622.501	19.54
622.623	17.54
622.745	13.54
622.868	20.54
622.99	22.54
623.112	12.54
623.234	11.54
623.356	25.54
623.478	1.54
623.6	13.54
623.722	30.54
623.845	21.54
623.967	13.54
624.089	27.54
624.211	30.54
624.333	29.54
624.455	24.54
624.577	4.54
624.699	36.54
624.822	18.54
624.944	13.54
625.066	6.54
625.188	9.54
625.31	13.54
625.432	25.54
625.554	17.54
625.676	30.54
625.799	4.54
625.921	37.54
626.043	20.54
626.165	32.54
626.287	-10.46
626.409	18.54
626.531	6.54
626.653	18.54
626.775	18.54
626.898	25.54
627.02	32.54
627.142	49.54
627.264	21.54
627.386	12.54
627.508	25.54
627.63	-0.46
627.752	22.54
627.874	12.54
627.997	17.54
628.119	14.54
628.241	21.54
628.363	22.54
628.485	9.54
628.607	20.54
628.729	2.54
628.851	5.54
628.973	24.54
629.096	11.54
629.218	17.54
629.34	21.54
629.462	20.54
629.584	18.54
629.706	34.54
629.828	24.54
629.95	26.54
630.072	22.54
630.195	9.54
630.317	0.54
630.439	22.54
630.561	21.54
630.683	1.54
630.805	27.54
630.927	26.54
631.049	26.54
631.171	-3.46
631.293	5.54
631.416	20.54
631.538	-6.46
631.66	15.54
631.782	24.54
631.904	51.54
632.026	23.54
632.148	16.54
632.27	8.54
632.392	13.54
632.514	25.54
632.637	18.54
632.759	16.54
632.881	-0.46
633.003	23.54
633.125	14.54
633.247	7.54
633.369	28.54
633.491	16.54
633.613	26.54
633.735	16.54
633.858	19.54
633.98	26.54
634.102	-2.46
634.224	6.54
634.346	21.54
634.468	12.54
634.59	27.54
634.712	17.54
634.834	28.54
634.956	13.54
635.078	18.54
635.201	2.54
635.323	16.54
635.445	17.54
635.567	5.54
635.689	28.54
635.811	22.54
635.933	12.54
636.055	4.54
636.177	12.54
636.299	26.54
636.421	14.54
636.544	8.54
636.666	18.54
636.788	13.54
636.91	9.54
637.032	9.54
637.154	25.54
637.276	38.54
637.398	25.54
637.52	19.54
637.642	8.54
637.764	44.54
637.887	34.54
638.009	20.54
638.131	30.54
638.253	-5.46
638.375	20.54
638.497	15.54
638.619	-2.46
638.741	11.54
638.863	1.54
638.985	12.54
639.107	7.54
639.23	18.54
639.352	13.54
639.474	10.54
639.596	10.54
639.718	16.54
639.84	12.54
639.962	21.54
640.084	41.54
640.206	20.54
640.328	21.54
640.45	8.54
640.573	21.54
640.695	11.54
640.817	9.54
640.939	20.54
641.061	14.54
641.183	11.54
641.305	11.54
641.427	-5.46
641.549	15.54
641.671	17.54
641.793	11.54
641.915	27.54
642.038	5.54
642.16	19.54
642.282	9.54
642.404	5.54
642.526	20.54
642.648	8.54
642.77	23.54
642.892	26.54
643.014	16.54
643.136	20.54
643.258	24.54
643.381	25.54
643.503	17.54
643.625	9.54
643.747	1.54
643.869	16.54
643.991	9.54
644.113	8.54
644.235	10.54
644.357	4.54
644.479	29.54
644.601	16.54
644.723	12.54
644.846	2.54
644.968	-2.46
645.09	21.54
645.212	14.54
645.334	15.54
645.456	8.54
645.578	9.54
645.7	21.54
645.822	24.54
645.944	23.54
646.066	25.54
646.188	-8.46
646.311	14.54
646.433	7.54
646.555	31.54
646.677	21.54
646.799	14.54
646.921	17.54
647.043	34.54
647.165	8.54
647.287	20.54
647.409	-7.46
647.531	25.54
647.654	-4.46
647.776	29.54
647.898	10.54
648.02	10.54
648.142	-1.46
648.264	27.54
648.386	-1.46
648.508	2.54
648.63	12.54
648.752	7.54
648.874	16.54
648.997	1.54
649.119	38.54
649.241	9.54
649.363	42.54
649.485	22.54
649.607	13.54
649.729	12.54
649.851	17.54
649.973	19.54
650.095	28.54
650.217	8.54
650.34	1.54
650.462	29.54
650.584	-2.46
650.706	28.54
650.828	10.54
650.95	-6.46
651.072	13.54
651.194	9.54
651.316	4.54
651.438	1.54
651.56	7.54
651.683	5.54
651.805	9.54
651.927	0.54
652.049	-1.46
652.171	-0.46
652.293	9.54
652.415	4.54
652.537	-1.46
652.659	-13.46
652.781	20.54
652.903	12.54
653.026	26.54
653.148	19.54
653.27	21.54
653.392	28.54
653.514	10.54
653.636	6.54
653.758	0.54
653.88	1.54
654.002	15.54
654.124	17.54
654.247	13.54
654.369	18.54
654.491	5.54
654.613	13.54
654.735	-5.46
654.857	26.54
654.979	28.54
655.101	18.54
655.223	25.54
655.345	1.54
655.468	21.54
655.59	7.54
655.712	26.54
655.834	-1.46
655.956	29.54
656.078	30.54
656.2	8.54
656.322	8.54
656.444	-5.46
656.566	-0.46
656.689	2.54
656.811	-7.46
656.933	27.54
657.055	15.54
657.177	19.54
657.299	-0.46
657.421	4.54
657.543	18.54
657.665	6.54
657.787	6.54
657.91	4.54
658.032	8.54
658.154	-3.46
658.276	9.54
658.398	-9.46
658.52	15.54
658.642	5.54
658.764	17.54
658.886	2.54
659.009	9.54
659.131	22.54
659.253	-1.46
659.375	4.54
659.497	7.54
659.619	26.54
659.741	23.54
659.863	6.54
659.985	-6.46
660.108	4.54
660.23	17.54
660.352	-3.46
660.474	13.54
660.596	16.54
660.718	18.54
660.84	24.54
660.962	20.54
661.084	9.54
661.207	13.54
661.329	13.54
661.451	12.54
661.573	9.54
661.695	31.54
661.817	42.54
661.939	32.54
662.061	40.54
662.184	13.54
662.306	2.54
662.428	3.54
662.55	17.54
662.672	-7.46
662.794	20.54
662.916	-8.46
663.038	-11.46
663.161	36.54
663.283	19.54
663.405	41.54
663.527	13.54
663.649	11.54
663.771	-0.46
663.893	3.54
664.015	15.54
664.138	2.54
664.26	19.54
664.382	45.54
664.504	-1.46
664.626	-14.46
664.748	9.54
664.87	-0.46
664.992	21.54
665.115	9.54
665.237	1.54
665.359	-5.46
665.481	9.54
665.603	15.54
665.725	16.54
665.847	-12.46
665.97	3.54
666.092	18.54
666.214	29.54
666.336	14.54
666.458	19.54
666.58	17.54
666.702	8.54
666.825	5.54
666.947	-10.46
667.069	6.54
667.191	6.54
667.313	17.54
667.435	-4.46
667.557	-11.46
667.68	6.54
667.802	3.54
667.924	-0.46
668.046	11.54
668.168	20.54
668.29	24.54
668.412	13.54
668.535	2.54
668.657	13.54
668.779	8.54
668.901	4.54
669.023	13.54
669.145	12.54
669.267	13.54
669.39	-8.46
669.512	11.54
669.634	13.54
669.756	5.54
669.878	7.54
670	16.54
670.123	14.54
670.245	36.54
670.367	8.54
670.489	19.54
670.611	2.54
670.733	-1.46
670.856	-10.46
670.978	6.54
671.1	8.54
671.222	18.54
671.344	16.54
671.466	1.54
671.589	-16.46
671.711	-13.46
671.833	2.54
671.955	13.54
672.077	5.54
672.199	24.54
672.322	18.54
672.444	27.54
672.566	18.54
672.688	7.54
672.81	27.54
672.932	21.54
673.055	18.54
673.177	-5.46
673.299	18.54
673.421	-2.46
673.543	5.54
673.665	21.54
673.788	24.54
673.91	-5.46
674.032	-13.46
674.154	2.54
674.276	17.54
674.399	4.54
674.521	10.54
674.643	0.54
674.765	-0.46
674.887	12.54
675.009	0.54
675.132	8.54
675.254	18.54
675.376	8.54
675.498	0.54
675.62	36.54
675.743	19.54
675.865	35.54
675.987	6.54
676.109	0.54
676.231	14.54
676.354	4.54
676.476	2.54
676.598	16.54
676.72	-1.46
676.842	4.54
676.965	-2.46
677.087	10.54
677.209	13.54
677.331	22.54
677.453	14.54
677.576	10.54
677.698	24.54
677.82	14.54
677.942	7.54
678.064	22.54
678.187	2.54
678.309	8.54
678.431	8.54
678.553	6.54
678.675	34.54
678.798	27.54
678.92	7.54
679.042	13.54
679.164	4.54
679.286	20.54
679.409	12.54
679.531	0.54
679.653	-3.46
679.775	-1.46
679.898	0.54
680.02	2.54
680.142	2.54
680.264	11.54
680.386	-0.46
680.509	15.54
680.631	21.54
680.753	33.54
680.875	-3.46
680.998	17.54
681.12	10.54
681.242	21.54
681.364	8.54
681.486	9.54
681.609	-7.46
681.731	-11.46
681.853	-3.46
681.975	13.54
682.098	20.54
682.22	31.54
682.342	5.54
682.464	28.54
682.587	18.54
682.709	0.54
682.831	-2.46
682.953	-4.46
683.076	-5.46
683.198	16.54
683.32	-2.46
683.442	0.54
683.565	21.54
683.687	6.54
683.809	11.54
683.931	11.54
684.054	8.54
684.176	0.54
684.298	17.54
684.42	-2.46
684.543	9.54
684.665	9.54
684.787	7.54
684.909	1.54
685.032	13.54
685.154	6.54
685.276	28.54
685.398	8.54
685.521	-9.46
685.643	9.54
685.765	14.54
685.887	21.54
686.01	8.54
686.132	19.54
686.254	6.54
686.377	9.54
686.499	14.54
686.621	12.54
686.743	19.54
686.866	14.54
686.988	16.54
687.11	25.54
687.232	7.54
687.355	-23.46
687.477	4.54
687.599	4.54
687.722	10.54
687.844	20.54
687.966	6.54
688.088	25.54
688.211	26.54
688.333	11.54
688.455	18.54
688.578	8.54
688.7	10.54
688.822	2.54
688.944	-11.46
689.067	45.54
689.189	4.54
689.311	-10.46
689.434	-2.46
689.556	16.54
689.678	7.54
689.801	-1.46
689.923	12.54
690.045	20.54
690.167	23.54
690.29	22.54
690.412	2.54
690.534	8.54
690.657	13.54
690.779	5.54
690.901	24.54
691.024	5.54
691.146	7.54
691.268	5.54
691.391	13.54
691.513	18.54
691.635	17.54
691.758	31.54
691.88	22.54
692.002	16.54
692.125	15.54
692.247	18.54
692.369	9.54
692.492	-0.46
692.614	10.54
692.736	-6.46
692.859	-13.46
692.981	7.54
693.103	-2.46
693.226	5.54
693.348	23.54
693.47	23.54
693.593	30.54
693.715	37.54
693.837	30.54
693.96	19.54
694.082	1.54
694.204	23.54
694.327	15.54
694.449	-0.46
694.571	1.54
694.694	9.54
694.816	6.54
694.938	5.54
695.061	3.54
695.183	26.54
695.305	24.54
695.428	13.54
695.55	4.54
695.672	-13.46
695.795	22.54
695.917	36.54
696.04	-8.46
696.162	7.54
696.284	0.54
696.407	-1.46
696.529	16.54
696.651	38.54
696.774	5.54
696.896	9.54
697.019	10.54
697.141	-15.46
697.263	4.54
697.386	-9.46
697.508	12.54
697.63	2.54
697.753	15.54
697.875	6.54
697.998	5.54
698.12	13.54
698.242	1.54
698.365	13.54
698.487	10.54
698.61	2.54
698.732	2.54
698.854	21.54
698.977	5.54
699.099	15.54
699.221	6.54
699.344	15.54
699.466	6.54
699.589	6.54
699.711	0.54
699.834	-7.46
699.956	6.54
700.078	5.54
700.201	16.54
700.323	13.54
700.446	2.54
700.568	16.54
700.69	10.54
700.813	2.54
700.935	-8.46
701.058	15.54
701.18	16.54
701.302	15.54
701.425	-0.46
701.547	-1.46
701.67	4.54
701.792	5.54
701.915	3.54
702.037	5.54
702.159	30.54
702.282	9.54
702.404	4.54
702.527	15.54
702.649	33.54
702.772	9.54
702.894	6.54
703.017	22.54
703.139	9.54
703.261	11.54
703.384	3.54
703.506	-13.46
703.629	12.54
703.751	5.54
703.874	0.54
703.996	1.54
704.119	12.54
704.241	6.54
704.364	4.54
704.486	10.54
704.608	10.54
704.731	11.54
704.853	10.54
704.976	9.54
705.098	13.54
705.221	11.54
705.343	8.54
705.466	-0.46
705.588	13.54
705.711	-3.46
705.833	28.54
705.956	4.54
706.078	20.54
706.201	8.54
706.323	13.54
706.446	-0.46
