Data from LowRes_mercury_15_20_11_07_2024_HR4C61881__38__15-23-36-071.txt Node

Date: Thu Nov 07 15:23:36 EST 2024
User: crc00042
Spectrometer: HR4C6188
Trigger mode: 4
Integration Time (sec): 1.000000E-1
Scans to average: 1
Electric dark correction enabled: true
Nonlinearity correction enabled: false
Boxcar width: 0
XAxis mode: Wavelengths
Number of Pixels in Spectrum: 3648
>>>>>Begin Spectral Data<<<<<
245.66	-59.77
245.797	-59.77
245.934	-59.77
246.071	-74.77
246.208	7.23
246.344	-3.77
246.481	-6.77
246.618	-6.77
246.755	10.23
246.892	-5.77
247.029	-5.77
247.165	2.23
247.302	-8.77
247.439	1.23
247.576	16.23
247.713	4.23
247.849	9.23
247.986	-5.77
248.123	3.23
248.26	-9.77
248.396	6.23
248.533	-0.77
248.67	9.23
248.806	-3.77
248.943	-13.77
249.08	4.23
249.216	12.23
249.353	-15.77
249.49	-3.77
249.626	8.23
249.763	-4.77
249.9	5.23
250.036	-1.77
250.173	21.23
250.309	22.23
250.446	-5.77
250.582	-10.77
250.719	-1.77
250.856	1.23
250.992	5.23
251.129	-1.77
251.265	-4.77
251.402	-9.77
251.538	18.23
251.675	4.23
251.811	4.23
251.948	16.23
252.084	-1.77
252.221	11.23
252.357	-4.77
252.493	24.23
252.63	6.23
252.766	1.23
252.903	3.23
253.039	4.23
253.175	2.23
253.312	18.23
253.448	-9.77
253.585	-6.77
253.721	8.23
253.857	8.23
253.994	13.23
254.13	-3.77
254.266	19.23
254.403	8.23
254.539	5.23
254.675	18.23
254.811	10.23
254.948	-10.77
255.084	2.23
255.22	-0.77
255.356	1.23
255.493	14.23
255.629	-5.77
255.765	26.23
255.901	17.23
256.037	11.23
256.174	22.23
256.31	8.23
256.446	-14.77
256.582	-16.77
256.718	-2.77
256.854	24.23
256.991	14.23
257.127	16.23
257.263	12.23
257.399	19.23
257.535	-13.77
257.671	-3.77
257.807	3.23
257.943	-5.77
258.079	-20.77
258.215	2.23
258.351	16.23
258.487	-3.77
258.623	0.23
258.759	16.23
258.895	-3.77
259.031	-1.77
259.167	-11.77
259.303	33.23
259.439	2.23
259.575	9.23
259.711	5.23
259.847	2.23
259.983	7.23
260.119	-12.77
260.255	6.23
260.391	-4.77
260.527	13.23
260.663	19.23
260.799	22.23
260.934	-13.77
261.07	-9.77
261.206	-1.77
261.342	-13.77
261.478	5.23
261.614	21.23
261.749	3.23
261.885	11.23
262.021	3.23
262.157	22.23
262.293	16.23
262.428	6.23
262.564	-3.77
262.7	5.23
262.836	22.23
262.971	20.23
263.107	10.23
263.243	26.23
263.378	23.23
263.514	-10.77
263.65	0.23
263.785	-8.77
263.921	9.23
264.057	11.23
264.192	0.23
264.328	25.23
264.464	8.23
264.599	17.23
264.735	16.23
264.871	-3.77
265.006	12.23
265.142	-4.77
265.277	16.23
265.413	17.23
265.548	24.23
265.684	21.23
265.819	-0.77
265.955	-3.77
266.091	-24.77
266.226	2.23
266.362	24.23
266.497	12.23
266.633	12.23
266.768	-6.77
266.903	23.23
267.039	9.23
267.174	16.23
267.31	-2.77
267.445	-2.77
267.581	-9.77
267.716	1.23
267.851	3.23
267.987	10.23
268.122	15.23
268.258	8.23
268.393	-3.77
268.528	18.23
268.664	0.23
268.799	-13.77
268.934	3.23
269.07	-19.77
269.205	-2.77
269.34	28.23
269.476	14.23
269.611	-3.77
269.746	22.23
269.881	6.23
270.017	16.23
270.152	6.23
270.287	8.23
270.422	18.23
270.558	3.23
270.693	27.23
270.828	14.23
270.963	14.23
271.098	1.23
271.234	4.23
271.369	22.23
271.504	0.23
271.639	-2.77
271.774	-5.77
271.909	9.23
272.045	-16.77
272.18	15.23
272.315	13.23
272.45	33.23
272.585	-8.77
272.72	20.23
272.855	1.23
272.99	24.23
273.125	-5.77
273.26	-18.77
273.395	-5.77
273.53	-1.77
273.665	21.23
273.8	-1.77
273.935	14.23
274.07	11.23
274.205	10.23
274.34	4.23
274.475	-2.77
274.61	26.23
274.745	10.23
274.88	18.23
275.015	-5.77
275.15	6.23
275.285	3.23
275.42	10.23
275.555	21.23
275.69	9.23
275.825	-1.77
275.959	20.23
276.094	13.23
276.229	8.23
276.364	-2.77
276.499	-7.77
276.634	-11.77
276.768	6.23
276.903	15.23
277.038	10.23
277.173	7.23
277.308	3.23
277.442	-2.77
277.577	3.23
277.712	0.23
277.847	-11.77
277.981	0.23
278.116	-13.77
278.251	15.23
278.386	26.23
278.52	20.23
278.655	-6.77
278.79	18.23
278.924	12.23
279.059	26.23
279.194	-8.77
279.328	18.23
279.463	18.23
279.598	21.23
279.732	15.23
279.867	11.23
280.001	7.23
280.136	16.23
280.271	21.23
280.405	12.23
280.54	-0.77
280.674	-2.77
280.809	8.23
280.943	20.23
281.078	10.23
281.213	21.23
281.347	13.23
281.482	18.23
281.616	0.23
281.751	2.23
281.885	-18.77
282.02	13.23
282.154	16.23
282.288	-14.77
282.423	-26.77
282.557	-25.77
282.692	6.23
282.826	6.23
282.961	2.23
283.095	-1.77
283.229	0.23
283.364	7.23
283.498	7.23
283.633	9.23
283.767	15.23
283.901	14.23
284.036	9.23
284.17	3.23
284.304	-7.77
284.439	17.23
284.573	11.23
284.707	18.23
284.842	-6.77
284.976	7.23
285.11	-25.77
285.244	12.23
285.379	47.23
285.513	-13.77
285.647	4.23
285.781	-3.77
285.916	39.23
286.05	13.23
286.184	19.23
286.318	21.23
286.453	-9.77
286.587	-19.77
286.721	-15.77
286.855	21.23
286.989	18.23
287.123	12.23
287.258	-2.77
287.392	18.23
287.526	21.23
287.66	12.23
287.794	13.23
287.928	13.23
288.062	10.23
288.196	12.23
288.33	11.23
288.464	17.23
288.598	15.23
288.733	6.23
288.867	29.23
289.001	24.23
289.135	20.23
289.269	8.23
289.403	4.23
289.537	8.23
289.671	-6.77
289.805	-1.77
289.939	13.23
290.073	11.23
290.207	4.23
290.34	-11.77
290.474	26.23
290.608	24.23
290.742	9.23
290.876	2.23
291.01	2.23
291.144	30.23
291.278	20.23
291.412	18.23
291.546	25.23
291.679	4.23
291.813	10.23
291.947	18.23
292.081	4.23
292.215	6.23
292.349	22.23
292.482	20.23
292.616	-2.77
292.75	14.23
292.884	15.23
293.018	23.23
293.151	-7.77
293.285	7.23
293.419	-0.77
293.553	21.23
293.686	1.23
293.82	5.23
293.954	18.23
294.088	34.23
294.221	-5.77
294.355	10.23
294.489	-0.77
294.622	-0.77
294.756	9.23
294.89	22.23
295.023	15.23
295.157	11.23
295.291	23.23
295.424	34.23
295.558	17.23
295.691	16.23
295.825	8.23
295.959	4.23
296.092	9.23
296.226	16.23
296.359	19.23
296.493	41.23
296.627	3.23
296.76	11.23
296.894	12.23
297.027	5.23
297.161	14.23
297.294	-17.77
297.428	14.23
297.561	31.23
297.695	-2.77
297.828	-5.77
297.962	0.23
298.095	-6.77
298.229	15.23
298.362	-6.77
298.495	-4.77
298.629	-12.77
298.762	3.23
298.896	3.23
299.029	4.23
299.162	21.23
299.296	18.23
299.429	13.23
299.563	16.23
299.696	15.23
299.829	6.23
299.963	17.23
300.096	18.23
300.229	20.23
300.363	17.23
300.496	27.23
300.629	-15.77
300.763	-8.77
300.896	0.23
301.029	12.23
301.162	13.23
301.296	-6.77
301.429	10.23
301.562	-20.77
301.695	28.23
301.829	12.23
301.962	26.23
302.095	21.23
302.228	-2.77
302.362	9.23
302.495	-13.77
302.628	14.23
302.761	12.23
302.894	5.23
303.027	19.23
303.161	0.23
303.294	-7.77
303.427	29.23
303.56	-1.77
303.693	8.23
303.826	2.23
303.959	3.23
304.092	7.23
304.225	17.23
304.359	16.23
304.492	3.23
304.625	3.23
304.758	13.23
304.891	0.23
305.024	2.23
305.157	5.23
305.29	-16.77
305.423	-6.77
305.556	18.23
305.689	20.23
305.822	-9.77
305.955	0.23
306.088	2.23
306.221	-2.77
306.354	3.23
306.487	6.23
306.62	1.23
306.752	9.23
306.885	-1.77
307.018	-0.77
307.151	10.23
307.284	25.23
307.417	7.23
307.55	0.23
307.683	3.23
307.816	30.23
307.948	-0.77
308.081	22.23
308.214	7.23
308.347	15.23
308.48	-1.77
308.613	-1.77
308.745	4.23
308.878	1.23
309.011	0.23
309.144	10.23
309.277	7.23
309.409	15.23
309.542	16.23
309.675	13.23
309.808	-2.77
309.94	28.23
310.073	13.23
310.206	-4.77
310.339	15.23
310.471	9.23
310.604	2.23
310.737	-3.77
310.869	5.23
311.002	22.23
311.135	-1.77
311.267	-21.77
311.4	8.23
311.533	29.23
311.665	17.23
311.798	23.23
311.93	13.23
312.063	43.23
312.196	37.23
312.328	69.23
312.461	52.23
312.593	37.23
312.726	64.23
312.859	100.23
312.991	166.23
313.124	50.23
313.256	29.23
313.389	16.23
313.521	9.23
313.654	17.23
313.786	-4.77
313.919	-9.77
314.051	32.23
314.184	19.23
314.316	24.23
314.449	-9.77
314.581	8.23
314.714	8.23
314.846	1.23
314.978	-10.77
315.111	-0.77
315.243	13.23
315.376	11.23
315.508	17.23
315.641	11.23
315.773	20.23
315.905	-3.77
316.038	-1.77
316.17	13.23
316.302	6.23
316.435	-4.77
316.567	1.23
316.699	27.23
316.832	3.23
316.964	19.23
317.096	22.23
317.229	-9.77
317.361	-20.77
317.493	-1.77
317.625	2.23
317.758	22.23
317.89	38.23
318.022	1.23
318.155	-6.77
318.287	5.23
318.419	20.23
318.551	4.23
318.683	6.23
318.816	2.23
318.948	4.23
319.08	-5.77
319.212	15.23
319.344	13.23
319.477	-1.77
319.609	25.23
319.741	39.23
319.873	18.23
320.005	1.23
320.137	6.23
320.269	6.23
320.401	-5.77
320.534	2.23
320.666	-6.77
320.798	-7.77
320.93	9.23
321.062	8.23
321.194	-14.77
321.326	16.23
321.458	9.23
321.59	-3.77
321.722	5.23
321.854	-0.77
321.986	2.23
322.118	11.23
322.25	-9.77
322.382	20.23
322.514	15.23
322.646	1.23
322.778	31.23
322.91	7.23
323.042	20.23
323.174	14.23
323.306	-3.77
323.438	-4.77
323.57	14.23
323.702	4.23
323.834	3.23
323.966	16.23
324.097	2.23
324.229	22.23
324.361	-6.77
324.493	-0.77
324.625	2.23
324.757	17.23
324.889	-0.77
325.021	3.23
325.152	6.23
325.284	23.23
325.416	-6.77
325.548	37.23
325.68	21.23
325.811	32.23
325.943	12.23
326.075	-17.77
326.207	2.23
326.339	12.23
326.47	8.23
326.602	14.23
326.734	15.23
326.866	23.23
326.997	11.23
327.129	-13.77
327.261	-5.77
327.392	5.23
327.524	11.23
327.656	9.23
327.787	18.23
327.919	0.23
328.051	19.23
328.182	27.23
328.314	36.23
328.446	9.23
328.577	24.23
328.709	17.23
328.841	-3.77
328.972	7.23
329.104	9.23
329.235	22.23
329.367	-20.77
329.499	-4.77
329.63	18.23
329.762	24.23
329.893	5.23
330.025	13.23
330.156	-2.77
330.288	31.23
330.419	6.23
330.551	20.23
330.683	33.23
330.814	2.23
330.946	21.23
331.077	-4.77
331.208	-2.77
331.34	2.23
331.471	8.23
331.603	16.23
331.734	0.23
331.866	4.23
331.997	24.23
332.129	4.23
332.26	-4.77
332.392	23.23
332.523	2.23
332.654	-2.77
332.786	4.23
332.917	-12.77
333.048	31.23
333.18	14.23
333.311	-18.77
333.443	1.23
333.574	8.23
333.705	42.23
333.837	28.23
333.968	112.23
334.099	233.23
334.231	212.23
334.362	48.23
334.493	34.23
334.624	33.23
334.756	9.23
334.887	23.23
335.018	11.23
335.15	32.23
335.281	4.23
335.412	18.23
335.543	28.23
335.675	5.23
335.806	1.23
335.937	0.23
336.068	15.23
336.199	27.23
336.331	12.23
336.462	18.23
336.593	23.23
336.724	9.23
336.855	6.23
336.986	25.23
337.118	29.23
337.249	29.23
337.38	32.23
337.511	15.23
337.642	8.23
337.773	22.23
337.904	18.23
338.035	18.23
338.166	13.23
338.298	16.23
338.429	1.23
338.56	39.23
338.691	30.23
338.822	20.23
338.953	25.23
339.084	28.23
339.215	26.23
339.346	11.23
339.477	20.23
339.608	21.23
339.739	20.23
339.87	2.23
340.001	8.23
340.132	18.23
340.263	13.23
340.394	14.23
340.525	23.23
340.656	10.23
340.787	-0.77
340.918	45.23
341.049	14.23
341.179	21.23
341.31	17.23
341.441	18.23
341.572	12.23
341.703	6.23
341.834	13.23
341.965	9.23
342.096	-1.77
342.227	12.23
342.357	15.23
342.488	12.23
342.619	24.23
342.75	29.23
342.881	7.23
343.012	46.23
343.142	33.23
343.273	12.23
343.404	20.23
343.535	44.23
343.666	28.23
343.796	28.23
343.927	31.23
344.058	33.23
344.189	36.23
344.319	33.23
344.45	35.23
344.581	45.23
344.712	10.23
344.842	41.23
344.973	19.23
345.104	32.23
345.234	13.23
345.365	2.23
345.496	29.23
345.626	28.23
345.757	49.23
345.888	21.23
346.018	25.23
346.149	33.23
346.28	32.23
346.41	32.23
346.541	25.23
346.672	24.23
346.802	27.23
346.933	19.23
347.063	27.23
347.194	23.23
347.325	35.23
347.455	31.23
347.586	30.23
347.716	6.23
347.847	37.23
347.977	49.23
348.108	52.23
348.238	49.23
348.369	50.23
348.499	55.23
348.63	57.23
348.76	50.23
348.891	59.23
349.021	54.23
349.152	47.23
349.282	49.23
349.413	39.23
349.543	74.23
349.674	39.23
349.804	46.23
349.935	28.23
350.065	28.23
350.196	32.23
350.326	38.23
350.456	48.23
350.587	34.23
350.717	8.23
350.848	22.23
350.978	28.23
351.108	22.23
351.239	29.23
351.369	18.23
351.499	20.23
351.63	39.23
351.76	20.23
351.89	31.23
352.021	31.23
352.151	31.23
352.281	19.23
352.412	36.23
352.542	17.23
352.672	4.23
352.803	17.23
352.933	29.23
353.063	39.23
353.193	32.23
353.324	18.23
353.454	42.23
353.584	26.23
353.714	26.23
353.845	20.23
353.975	21.23
354.105	17.23
354.235	19.23
354.365	23.23
354.496	20.23
354.626	36.23
354.756	51.23
354.886	38.23
355.016	25.23
355.146	23.23
355.277	21.23
355.407	14.23
355.537	37.23
355.667	22.23
355.797	4.23
355.927	21.23
356.057	26.23
356.187	22.23
356.318	19.23
356.448	29.23
356.578	38.23
356.708	44.23
356.838	21.23
356.968	21.23
357.098	40.23
357.228	52.23
357.358	16.23
357.488	19.23
357.618	54.23
357.748	31.23
357.878	27.23
358.008	21.23
358.138	31.23
358.268	33.23
358.398	31.23
358.528	15.23
358.658	31.23
358.788	16.23
358.918	42.23
359.048	21.23
359.178	46.23
359.308	38.23
359.438	35.23
359.568	36.23
359.698	35.23
359.827	39.23
359.957	29.23
360.087	24.23
360.217	31.23
360.347	37.23
360.477	49.23
360.607	12.23
360.737	38.23
360.866	42.23
360.996	15.23
361.126	26.23
361.256	58.23
361.386	43.23
361.516	39.23
361.645	17.23
361.775	44.23
361.905	19.23
362.035	53.23
362.165	50.23
362.294	42.23
362.424	44.23
362.554	30.23
362.684	27.23
362.813	58.23
362.943	69.23
363.073	52.23
363.203	74.23
363.332	76.23
363.462	82.23
363.592	98.23
363.721	127.23
363.851	174.23
363.981	207.23
364.111	278.23
364.24	322.23
364.37	498.23
364.5	847.23
364.629	1864.23
364.759	3889.23
364.888	6316.23
365.018	9462.23
365.148	14848.23
365.277	13004.23
365.407	4811.23
365.537	3070.23
365.666	4018.23
365.796	1840.23
365.925	806.23
366.055	761.23
366.184	1038.23
366.314	1407.23
366.444	2482.23
366.573	2118.23
366.703	660.23
366.832	210.23
366.962	110.23
367.091	96.23
367.221	85.23
367.35	57.23
367.48	97.23
367.609	56.23
367.739	61.23
367.868	38.23
367.998	57.23
368.127	38.23
368.257	59.23
368.386	69.23
368.516	82.23
368.645	36.23
368.775	42.23
368.904	21.23
369.033	20.23
369.163	43.23
369.292	40.23
369.422	47.23
369.551	38.23
369.68	29.23
369.81	49.23
369.939	26.23
370.069	36.23
370.198	31.23
370.327	23.23
370.457	34.23
370.586	60.23
370.715	33.23
370.845	38.23
370.974	35.23
371.103	45.23
371.233	63.23
371.362	37.23
371.491	33.23
371.621	52.23
371.75	42.23
371.879	43.23
372.008	51.23
372.138	49.23
372.267	58.23
372.396	58.23
372.525	55.23
372.655	30.23
372.784	22.23
372.913	36.23
373.042	18.23
373.172	45.23
373.301	10.23
373.43	20.23
373.559	17.23
373.688	35.23
373.818	49.23
373.947	27.23
374.076	22.23
374.205	26.23
374.334	3.23
374.463	17.23
374.593	12.23
374.722	27.23
374.851	41.23
374.98	7.23
375.109	16.23
375.238	22.23
375.367	57.23
375.496	8.23
375.625	15.23
375.755	32.23
375.884	30.23
376.013	25.23
376.142	9.23
376.271	14.23
376.4	32.23
376.529	24.23
376.658	14.23
376.787	24.23
376.916	21.23
377.045	40.23
377.174	32.23
377.303	13.23
377.432	48.23
377.561	48.23
377.69	24.23
377.819	38.23
377.948	25.23
378.077	22.23
378.206	12.23
378.335	21.23
378.464	5.23
378.593	29.23
378.722	19.23
378.851	22.23
378.98	28.23
379.108	24.23
379.237	23.23
379.366	28.23
379.495	21.23
379.624	16.23
379.753	11.23
379.882	31.23
380.011	-4.77
380.14	4.23
380.268	21.23
380.397	23.23
380.526	17.23
380.655	6.23
380.784	-0.77
380.913	13.23
381.041	8.23
381.17	-1.77
381.299	30.23
381.428	51.23
381.557	13.23
381.685	14.23
381.814	20.23
381.943	15.23
382.072	11.23
382.2	28.23
382.329	33.23
382.458	22.23
382.587	19.23
382.715	31.23
382.844	29.23
382.973	35.23
383.102	18.23
383.23	17.23
383.359	9.23
383.488	47.23
383.616	10.23
383.745	-5.77
383.874	11.23
384.003	6.23
384.131	6.23
384.26	22.23
384.389	20.23
384.517	26.23
384.646	14.23
384.774	35.23
384.903	27.23
385.032	43.23
385.16	38.23
385.289	15.23
385.418	12.23
385.546	21.23
385.675	39.23
385.803	22.23
385.932	43.23
386.06	28.23
386.189	32.23
386.318	28.23
386.446	16.23
386.575	34.23
386.703	29.23
386.832	12.23
386.96	5.23
387.089	38.23
387.217	30.23
387.346	24.23
387.474	35.23
387.603	23.23
387.731	32.23
387.86	24.23
387.988	17.23
388.117	51.23
388.245	33.23
388.374	10.23
388.502	36.23
388.631	10.23
388.759	13.23
388.888	34.23
389.016	12.23
389.144	16.23
389.273	21.23
389.401	12.23
389.53	14.23
389.658	64.23
389.786	20.23
389.915	18.23
390.043	21.23
390.172	32.23
390.3	52.23
390.428	52.23
390.557	6.23
390.685	53.23
390.813	58.23
390.942	38.23
391.07	32.23
391.198	20.23
391.327	21.23
391.455	11.23
391.583	44.23
391.712	34.23
391.84	45.23
391.968	25.23
392.096	18.23
392.225	19.23
392.353	37.23
392.481	25.23
392.609	46.23
392.738	42.23
392.866	33.23
392.994	11.23
393.122	42.23
393.251	27.23
393.379	21.23
393.507	28.23
393.635	25.23
393.764	27.23
393.892	31.23
394.02	33.23
394.148	26.23
394.276	35.23
394.404	59.23
394.533	29.23
394.661	35.23
394.789	41.23
394.917	43.23
395.045	28.23
395.173	19.23
395.302	34.23
395.43	40.23
395.558	45.23
395.686	38.23
395.814	31.23
395.942	2.23
396.07	28.23
396.198	37.23
396.326	36.23
396.454	30.23
396.582	50.23
396.711	40.23
396.839	42.23
396.967	45.23
397.095	22.23
397.223	53.23
397.351	64.23
397.479	55.23
397.607	42.23
397.735	62.23
397.863	41.23
397.991	63.23
398.119	46.23
398.247	42.23
398.375	53.23
398.503	49.23
398.631	53.23
398.759	58.23
398.887	38.23
399.015	32.23
399.143	73.23
399.271	68.23
399.399	73.23
399.526	86.23
399.654	94.23
399.782	75.23
399.91	78.23
400.038	111.23
400.166	103.23
400.294	101.23
400.422	88.23
400.55	114.23
400.678	105.23
400.805	87.23
400.933	131.23
401.061	115.23
401.189	130.23
401.317	154.23
401.445	84.23
401.573	67.23
401.7	42.23
401.828	45.23
401.956	43.23
402.084	58.23
402.212	32.23
402.34	34.23
402.467	31.23
402.595	53.23
402.723	43.23
402.851	69.23
402.978	73.23
403.106	74.23
403.234	92.23
403.362	127.23
403.489	127.23
403.617	159.23
403.745	194.23
403.873	283.23
404	591.23
404.128	1494.23
404.256	3932.23
404.384	5135.23
404.511	5473.23
404.639	7296.23
404.767	11513.23
404.894	14685.23
405.022	4942.23
405.15	1324.23
405.277	438.23
405.405	256.23
405.533	144.23
405.66	111.23
405.788	71.23
405.916	67.23
406.043	49.23
406.171	64.23
406.299	57.23
406.426	78.23
406.554	73.23
406.681	63.23
406.809	62.23
406.937	67.23
407.064	77.23
407.192	131.23
407.319	324.23
407.447	531.23
407.574	529.23
407.702	635.23
407.83	847.23
407.957	1589.23
408.085	958.23
408.212	278.23
408.34	97.23
408.467	57.23
408.595	51.23
408.722	60.23
408.85	49.23
408.977	32.23
409.105	28.23
409.232	36.23
409.36	23.23
409.487	28.23
409.615	33.23
409.742	50.23
409.87	30.23
409.997	45.23
410.125	32.23
410.252	48.23
410.379	14.23
410.507	43.23
410.634	29.23
410.762	41.23
410.889	41.23
411.017	38.23
411.144	30.23
411.271	32.23
411.399	43.23
411.526	42.23
411.653	32.23
411.781	40.23
411.908	50.23
412.036	29.23
412.163	45.23
412.29	38.23
412.418	32.23
412.545	35.23
412.672	15.23
412.8	54.23
412.927	47.23
413.054	43.23
413.182	46.23
413.309	33.23
413.436	0.23
413.564	40.23
413.691	40.23
413.818	53.23
413.945	25.23
414.073	25.23
414.2	25.23
414.327	35.23
414.454	55.23
414.582	37.23
414.709	6.23
414.836	30.23
414.963	29.23
415.091	29.23
415.218	8.23
415.345	28.23
415.472	26.23
415.6	22.23
415.727	32.23
415.854	38.23
415.981	35.23
416.108	22.23
416.236	29.23
416.363	32.23
416.49	30.23
416.617	35.23
416.744	57.23
416.871	53.23
416.998	37.23
417.126	34.23
417.253	7.23
417.38	34.23
417.507	13.23
417.634	54.23
417.761	38.23
417.888	33.23
418.015	37.23
418.143	44.23
418.27	56.23
418.397	41.23
418.524	34.23
418.651	39.23
418.778	67.23
418.905	64.23
419.032	54.23
419.159	41.23
419.286	76.23
419.413	74.23
419.54	57.23
419.667	38.23
419.794	39.23
419.921	43.23
420.048	53.23
420.175	60.23
420.302	59.23
420.429	70.23
420.556	55.23
420.683	57.23
420.81	73.23
420.937	65.23
421.064	72.23
421.191	68.23
421.318	53.23
421.445	88.23
421.572	65.23
421.699	45.23
421.826	55.23
421.953	38.23
422.08	44.23
422.207	24.23
422.334	20.23
422.461	31.23
422.588	18.23
422.714	22.23
422.841	33.23
422.968	37.23
423.095	29.23
423.222	21.23
423.349	30.23
423.476	22.23
423.603	18.23
423.729	13.23
423.856	12.23
423.983	42.23
424.11	21.23
424.237	22.23
424.364	24.23
424.491	31.23
424.617	1.23
424.744	12.23
424.871	18.23
424.998	10.23
425.125	14.23
425.251	18.23
425.378	27.23
425.505	29.23
425.632	42.23
425.758	30.23
425.885	34.23
426.012	28.23
426.139	39.23
426.266	11.23
426.392	24.23
426.519	46.23
426.646	36.23
426.772	45.23
426.899	28.23
427.026	33.23
427.153	26.23
427.279	47.23
427.406	32.23
427.533	28.23
427.659	27.23
427.786	24.23
427.913	60.23
428.039	36.23
428.166	30.23
428.293	28.23
428.419	39.23
428.546	25.23
428.673	14.23
428.799	17.23
428.926	28.23
429.053	42.23
429.179	47.23
429.306	28.23
429.433	41.23
429.559	35.23
429.686	20.23
429.812	11.23
429.939	37.23
430.066	38.23
430.192	37.23
430.319	38.23
430.445	26.23
430.572	38.23
430.699	16.23
430.825	23.23
430.952	44.23
431.078	24.23
431.205	44.23
431.331	18.23
431.458	51.23
431.584	46.23
431.711	21.23
431.837	28.23
431.964	29.23
432.09	31.23
432.217	11.23
432.343	21.23
432.47	46.23
432.596	32.23
432.723	33.23
432.849	23.23
432.976	32.23
433.102	25.23
433.229	31.23
433.355	60.23
433.482	96.23
433.608	121.23
433.735	114.23
433.861	114.23
433.987	154.23
434.114	200.23
434.24	172.23
434.367	229.23
434.493	210.23
434.62	278.23
434.746	400.23
434.872	658.23
434.999	843.23
435.125	1744.23
435.252	5552.23
435.378	13449.23
435.504	15235.23
435.631	15433.23
435.757	15687.23
435.883	15687.23
436.01	15687.23
436.136	15687.23
436.262	15687.23
436.389	3502.23
436.515	2364.23
436.641	821.23
436.768	634.23
436.894	390.23
437.02	404.23
437.147	286.23
437.273	306.23
437.399	229.23
437.526	260.23
437.652	201.23
437.778	208.23
437.904	146.23
438.031	171.23
438.157	139.23
438.283	147.23
438.409	131.23
438.536	123.23
438.662	106.23
438.788	132.23
438.914	117.23
439.041	137.23
439.167	117.23
439.293	97.23
439.419	106.23
439.546	115.23
439.672	89.23
439.798	113.23
439.924	92.23
440.05	108.23
440.177	69.23
440.303	82.23
440.429	69.23
440.555	91.23
440.681	60.23
440.807	60.23
440.934	56.23
441.06	79.23
441.186	70.23
441.312	62.23
441.438	78.23
441.564	65.23
441.69	61.23
441.816	42.23
441.943	43.23
442.069	69.23
442.195	48.23
442.321	49.23
442.447	36.23
442.573	46.23
442.699	52.23
442.825	39.23
442.951	52.23
443.077	52.23
443.203	63.23
443.33	51.23
443.456	31.23
443.582	59.23
443.708	56.23
443.834	68.23
443.96	42.23
444.086	42.23
444.212	55.23
444.338	68.23
444.464	65.23
444.59	67.23
444.716	41.23
444.842	69.23
444.968	36.23
445.094	48.23
445.22	32.23
445.346	28.23
445.472	46.23
445.598	55.23
445.724	34.23
445.85	44.23
445.976	35.23
446.102	46.23
446.228	44.23
446.354	44.23
446.48	46.23
446.605	45.23
446.731	64.23
446.857	40.23
446.983	48.23
447.109	30.23
447.235	31.23
447.361	33.23
447.487	46.23
447.613	44.23
447.739	40.23
447.865	31.23
447.99	35.23
448.116	36.23
448.242	22.23
448.368	31.23
448.494	34.23
448.62	35.23
448.746	38.23
448.872	37.23
448.997	8.23
449.123	51.23
449.249	40.23
449.375	61.23
449.501	36.23
449.627	33.23
449.752	53.23
449.878	22.23
450.004	19.23
450.13	40.23
450.256	17.23
450.381	52.23
450.507	40.23
450.633	29.23
450.759	43.23
450.884	33.23
451.01	40.23
451.136	43.23
451.262	24.23
451.388	29.23
451.513	17.23
451.639	28.23
451.765	36.23
451.89	38.23
452.016	32.23
452.142	26.23
452.268	31.23
452.393	49.23
452.519	27.23
452.645	33.23
452.771	31.23
452.896	18.23
453.022	10.23
453.148	39.23
453.273	27.23
453.399	34.23
453.525	28.23
453.65	18.23
453.776	34.23
453.902	53.23
454.027	31.23
454.153	29.23
454.279	37.23
454.404	14.23
454.53	42.23
454.656	50.23
454.781	36.23
454.907	45.23
455.032	19.23
455.158	40.23
455.284	40.23
455.409	30.23
455.535	19.23
455.66	39.23
455.786	32.23
455.912	25.23
456.037	12.23
456.163	38.23
456.288	51.23
456.414	17.23
456.539	13.23
456.665	47.23
456.791	33.23
456.916	29.23
457.042	36.23
457.167	39.23
457.293	49.23
457.418	35.23
457.544	32.23
457.669	29.23
457.795	23.23
457.92	32.23
458.046	36.23
458.171	40.23
458.297	33.23
458.422	21.23
458.548	5.23
458.673	41.23
458.799	34.23
458.924	7.23
459.05	49.23
459.175	35.23
459.301	38.23
459.426	60.23
459.552	30.23
459.677	21.23
459.803	49.23
459.928	44.23
460.053	39.23
460.179	34.23
460.304	43.23
460.43	30.23
460.555	32.23
460.681	20.23
460.806	42.23
460.931	44.23
461.057	40.23
461.182	37.23
461.308	46.23
461.433	21.23
461.558	24.23
461.684	43.23
461.809	52.23
461.934	20.23
462.06	34.23
462.185	3.23
462.311	19.23
462.436	38.23
462.561	26.23
462.687	25.23
462.812	22.23
462.937	30.23
463.063	10.23
463.188	6.23
463.313	52.23
463.439	24.23
463.564	20.23
463.689	21.23
463.814	9.23
463.94	20.23
464.065	40.23
464.19	38.23
464.316	29.23
464.441	26.23
464.566	1.23
464.692	18.23
464.817	22.23
464.942	29.23
465.067	28.23
465.193	9.23
465.318	17.23
465.443	25.23
465.568	27.23
465.694	48.23
465.819	57.23
465.944	41.23
466.069	30.23
466.194	53.23
466.32	47.23
466.445	24.23
466.57	13.23
466.695	25.23
466.82	28.23
466.946	29.23
467.071	37.23
467.196	30.23
467.321	40.23
467.446	38.23
467.572	41.23
467.697	36.23
467.822	35.23
467.947	58.23
468.072	44.23
468.197	25.23
468.323	27.23
468.448	32.23
468.573	35.23
468.698	29.23
468.823	30.23
468.948	36.23
469.073	30.23
469.198	27.23
469.324	44.23
469.449	34.23
469.574	52.23
469.699	61.23
469.824	58.23
469.949	41.23
470.074	41.23
470.199	65.23
470.324	39.23
470.449	63.23
470.574	39.23
470.7	39.23
470.825	41.23
470.95	60.23
471.075	43.23
471.2	51.23
471.325	52.23
471.45	35.23
471.575	32.23
471.7	46.23
471.825	25.23
471.95	32.23
472.075	15.23
472.2	26.23
472.325	30.23
472.45	15.23
472.575	24.23
472.7	39.23
472.825	49.23
472.95	43.23
473.075	32.23
473.2	31.23
473.325	56.23
473.45	50.23
473.575	57.23
473.7	47.23
473.825	29.23
473.95	26.23
474.075	44.23
474.2	20.23
474.325	11.23
474.45	41.23
474.574	34.23
474.699	40.23
474.824	30.23
474.949	23.23
475.074	18.23
475.199	29.23
475.324	38.23
475.449	21.23
475.574	26.23
475.699	22.23
475.824	22.23
475.949	17.23
476.073	8.23
476.198	20.23
476.323	24.23
476.448	22.23
476.573	19.23
476.698	34.23
476.823	25.23
476.947	35.23
477.072	32.23
477.197	44.23
477.322	20.23
477.447	23.23
477.572	24.23
477.697	38.23
477.821	32.23
477.946	42.23
478.071	33.23
478.196	38.23
478.321	34.23
478.445	28.23
478.57	23.23
478.695	22.23
478.82	22.23
478.945	31.23
479.069	33.23
479.194	19.23
479.319	26.23
479.444	18.23
479.569	27.23
479.693	22.23
479.818	34.23
479.943	33.23
480.068	13.23
480.192	34.23
480.317	31.23
480.442	13.23
480.567	21.23
480.691	24.23
480.816	13.23
480.941	3.23
481.066	26.23
481.19	28.23
481.315	13.23
481.44	26.23
481.564	3.23
481.689	8.23
481.814	21.23
481.938	32.23
482.063	5.23
482.188	25.23
482.313	36.23
482.437	13.23
482.562	15.23
482.687	49.23
482.811	27.23
482.936	22.23
483.061	8.23
483.185	12.23
483.31	35.23
483.435	18.23
483.559	39.23
483.684	32.23
483.808	36.23
483.933	34.23
484.058	8.23
484.182	30.23
484.307	4.23
484.432	21.23
484.556	19.23
484.681	29.23
484.805	39.23
484.93	14.23
485.055	11.23
485.179	33.23
485.304	34.23
485.428	16.23
485.553	12.23
485.678	33.23
485.802	25.23
485.927	37.23
486.051	40.23
486.176	42.23
486.3	28.23
486.425	33.23
486.549	30.23
486.674	38.23
486.799	32.23
486.923	26.23
487.048	17.23
487.172	24.23
487.297	17.23
487.421	28.23
487.546	26.23
487.67	27.23
487.795	17.23
487.919	34.23
488.044	32.23
488.168	31.23
488.293	26.23
488.417	28.23
488.542	14.23
488.666	21.23
488.791	20.23
488.915	17.23
489.04	25.23
489.164	27.23
489.289	33.23
489.413	10.23
489.538	47.23
489.662	41.23
489.786	20.23
489.911	33.23
490.035	29.23
490.16	26.23
490.284	30.23
490.409	3.23
490.533	15.23
490.658	52.23
490.782	20.23
490.906	54.23
491.031	129.23
491.155	133.23
491.28	157.23
491.404	155.23
491.528	269.23
491.653	167.23
491.777	81.23
491.902	24.23
492.026	41.23
492.15	39.23
492.275	49.23
492.399	35.23
492.524	15.23
492.648	32.23
492.772	24.23
492.897	35.23
493.021	39.23
493.145	45.23
493.27	39.23
493.394	32.23
493.518	22.23
493.643	16.23
493.767	46.23
493.891	14.23
494.016	20.23
494.14	2.23
494.264	28.23
494.389	29.23
494.513	13.23
494.637	28.23
494.762	28.23
494.886	29.23
495.01	11.23
495.134	5.23
495.259	32.23
495.383	24.23
495.507	21.23
495.632	26.23
495.756	54.23
495.88	33.23
496.004	17.23
496.129	9.23
496.253	17.23
496.377	20.23
496.501	33.23
496.626	19.23
496.75	20.23
496.874	37.23
496.998	20.23
497.123	41.23
497.247	20.23
497.371	16.23
497.495	28.23
497.62	22.23
497.744	9.23
497.868	23.23
497.992	17.23
498.116	19.23
498.241	18.23
498.365	17.23
498.489	6.23
498.613	28.23
498.737	30.23
498.862	33.23
498.986	25.23
499.11	19.23
499.234	18.23
499.358	30.23
499.482	22.23
499.607	38.23
499.731	31.23
499.855	47.23
499.979	18.23
500.103	25.23
500.227	21.23
500.351	45.23
500.476	23.23
500.6	20.23
500.724	22.23
500.848	23.23
500.972	30.23
501.096	30.23
501.22	31.23
501.344	25.23
501.469	29.23
501.593	30.23
501.717	33.23
501.841	18.23
501.965	17.23
502.089	11.23
502.213	20.23
502.337	31.23
502.461	50.23
502.585	27.23
502.709	17.23
502.834	30.23
502.958	20.23
503.082	17.23
503.206	30.23
503.33	28.23
503.454	14.23
503.578	39.23
503.702	36.23
503.826	36.23
503.95	55.23
504.074	17.23
504.198	20.23
504.322	16.23
504.446	18.23
504.57	33.23
504.694	23.23
504.818	15.23
504.942	50.23
505.066	32.23
505.19	28.23
505.314	31.23
505.438	39.23
505.562	18.23
505.686	31.23
505.81	9.23
505.934	24.23
506.058	26.23
506.182	37.23
506.306	24.23
506.43	21.23
506.554	33.23
506.678	36.23
506.802	23.23
506.926	20.23
507.05	37.23
507.174	35.23
507.298	34.23
507.422	10.23
507.546	16.23
507.67	38.23
507.794	27.23
507.918	36.23
508.042	32.23
508.165	15.23
508.289	15.23
508.413	14.23
508.537	25.23
508.661	41.23
508.785	24.23
508.909	32.23
509.033	39.23
509.157	33.23
509.281	27.23
509.405	47.23
509.528	47.23
509.652	46.23
509.776	26.23
509.9	44.23
510.024	40.23
510.148	41.23
510.272	62.23
510.396	52.23
510.519	20.23
510.643	42.23
510.767	35.23
510.891	54.23
511.015	32.23
511.139	46.23
511.263	62.23
511.386	48.23
511.51	54.23
511.634	45.23
511.758	32.23
511.882	50.23
512.006	71.23
512.129	66.23
512.253	107.23
512.377	90.23
512.501	104.23
512.625	111.23
512.748	93.23
512.872	73.23
512.996	66.23
513.12	68.23
513.244	53.23
513.367	62.23
513.491	78.23
513.615	81.23
513.739	69.23
513.862	80.23
513.986	75.23
514.11	108.23
514.234	91.23
514.358	124.23
514.481	114.23
514.605	113.23
514.729	125.23
514.853	125.23
514.976	93.23
515.1	110.23
515.224	123.23
515.348	98.23
515.471	92.23
515.595	121.23
515.719	141.23
515.842	232.23
515.966	291.23
516.09	314.23
516.214	296.23
516.337	332.23
516.461	227.23
516.585	107.23
516.708	53.23
516.832	36.23
516.956	25.23
517.08	16.23
517.203	-8.77
517.327	6.23
517.451	36.23
517.574	50.23
517.698	20.23
517.822	19.23
517.945	47.23
518.069	38.23
518.193	43.23
518.316	31.23
518.44	32.23
518.564	22.23
518.687	12.23
518.811	20.23
518.935	55.23
519.058	21.23
519.182	19.23
519.306	37.23
519.429	28.23
519.553	52.23
519.676	25.23
519.8	2.23
519.924	10.23
520.047	30.23
520.171	22.23
520.294	31.23
520.418	13.23
520.542	22.23
520.665	39.23
520.789	18.23
520.913	22.23
521.036	15.23
521.16	22.23
521.283	27.23
521.407	30.23
521.53	15.23
521.654	-3.77
521.778	36.23
521.901	36.23
522.025	30.23
522.148	13.23
522.272	27.23
522.395	21.23
522.519	33.23
522.643	24.23
522.766	18.23
522.89	21.23
523.013	26.23
523.137	22.23
523.26	21.23
523.384	38.23
523.507	21.23
523.631	14.23
523.754	13.23
523.878	4.23
524.002	25.23
524.125	6.23
524.249	6.23
524.372	22.23
524.496	17.23
524.619	16.23
524.743	16.23
524.866	25.23
524.99	6.23
525.113	16.23
525.237	23.23
525.36	12.23
525.484	19.23
525.607	0.23
525.731	-0.77
525.854	14.23
525.978	48.23
526.101	15.23
526.224	19.23
526.348	36.23
526.471	32.23
526.595	36.23
526.718	27.23
526.842	10.23
526.965	41.23
527.089	16.23
527.212	24.23
527.336	18.23
527.459	30.23
527.582	19.23
527.706	20.23
527.829	32.23
527.953	21.23
528.076	19.23
528.2	12.23
528.323	24.23
528.446	63.23
528.57	28.23
528.693	19.23
528.817	17.23
528.94	27.23
529.064	47.23
529.187	18.23
529.31	8.23
529.434	28.23
529.557	26.23
529.68	33.23
529.804	20.23
529.927	20.23
530.051	21.23
530.174	24.23
530.297	25.23
530.421	34.23
530.544	35.23
530.668	30.23
530.791	-2.77
530.914	29.23
531.038	19.23
531.161	28.23
531.284	24.23
531.408	34.23
531.531	18.23
531.654	27.23
531.778	28.23
531.901	8.23
532.024	18.23
532.148	21.23
532.271	28.23
532.394	19.23
532.518	35.23
532.641	33.23
532.764	31.23
532.888	38.23
533.011	-0.77
533.134	15.23
533.258	26.23
533.381	17.23
533.504	24.23
533.628	24.23
533.751	29.23
533.874	4.23
533.997	17.23
534.121	21.23
534.244	16.23
534.367	28.23
534.491	8.23
534.614	1.23
534.737	27.23
534.86	45.23
534.984	22.23
535.107	9.23
535.23	20.23
535.354	29.23
535.477	14.23
535.6	25.23
535.723	34.23
535.847	34.23
535.97	25.23
536.093	34.23
536.216	12.23
536.34	24.23
536.463	8.23
536.586	29.23
536.709	21.23
536.833	26.23
536.956	24.23
537.079	27.23
537.202	24.23
537.325	14.23
537.449	12.23
537.572	32.23
537.695	10.23
537.818	22.23
537.941	29.23
538.065	18.23
538.188	28.23
538.311	36.23
538.434	33.23
538.558	16.23
538.681	22.23
538.804	24.23
538.927	39.23
539.05	33.23
539.173	14.23
539.297	-5.77
539.42	25.23
539.543	30.23
539.666	36.23
539.789	39.23
539.913	28.23
540.036	18.23
540.159	27.23
540.282	32.23
540.405	9.23
540.528	26.23
540.651	32.23
540.775	34.23
540.898	26.23
541.021	13.23
541.144	28.23
541.267	32.23
541.39	23.23
541.513	30.23
541.637	36.23
541.76	30.23
541.883	30.23
542.006	35.23
542.129	60.23
542.252	43.23
542.375	37.23
542.498	37.23
542.622	43.23
542.745	48.23
542.868	42.23
542.991	58.23
543.114	68.23
543.237	67.23
543.36	66.23
543.483	59.23
543.606	68.23
543.73	93.23
543.853	91.23
543.976	102.23
544.099	120.23
544.222	142.23
544.345	140.23
544.468	194.23
544.591	224.23
544.714	277.23
544.837	360.23
544.96	453.23
545.083	680.23
545.206	1121.23
545.329	2475.23
545.453	10990.23
545.576	15266.23
545.699	15687.23
545.822	15687.23
545.945	15687.23
546.068	15687.23
546.191	15687.23
546.314	15687.23
546.437	15687.23
546.56	15687.23
546.683	15687.23
546.806	15687.23
546.929	15687.23
547.052	15687.23
547.175	15687.23
547.298	15687.23
547.421	15687.23
547.544	15687.23
547.667	3694.23
547.79	3313.23
547.913	1189.23
548.036	948.23
548.159	652.23
548.282	654.23
548.405	492.23
548.528	498.23
548.651	415.23
548.774	394.23
548.897	356.23
549.02	368.23
549.143	312.23
549.266	312.23
549.389	270.23
549.512	291.23
549.635	265.23
549.758	268.23
549.881	226.23
550.004	218.23
550.127	210.23
550.25	202.23
550.373	182.23
550.496	186.23
550.619	175.23
550.742	163.23
550.865	150.23
550.988	166.23
551.111	169.23
551.234	145.23
551.356	134.23
551.479	131.23
551.602	141.23
551.725	140.23
551.848	137.23
551.971	152.23
552.094	127.23
552.217	116.23
552.34	118.23
552.463	111.23
552.586	117.23
552.709	118.23
552.832	105.23
552.955	115.23
553.077	100.23
553.2	118.23
553.323	102.23
553.446	110.23
553.569	105.23
553.692	117.23
553.815	98.23
553.938	105.23
554.061	108.23
554.184	102.23
554.306	90.23
554.429	106.23
554.552	89.23
554.675	77.23
554.798	85.23
554.921	76.23
555.044	91.23
555.167	84.23
555.29	80.23
555.412	86.23
555.535	82.23
555.658	85.23
555.781	82.23
555.904	92.23
556.027	99.23
556.15	81.23
556.272	70.23
556.395	84.23
556.518	63.23
556.641	68.23
556.764	85.23
556.887	78.23
557.01	57.23
557.132	67.23
557.255	66.23
557.378	76.23
557.501	74.23
557.624	66.23
557.747	67.23
557.869	83.23
557.992	105.23
558.115	109.23
558.238	89.23
558.361	109.23
558.483	110.23
558.606	85.23
558.729	52.23
558.852	91.23
558.975	62.23
559.098	69.23
559.22	74.23
559.343	43.23
559.466	58.23
559.589	67.23
559.712	62.23
559.834	59.23
559.957	62.23
560.08	53.23
560.203	65.23
560.325	74.23
560.448	79.23
560.571	76.23
560.694	64.23
560.817	71.23
560.939	53.23
561.062	45.23
561.185	61.23
561.308	65.23
561.43	46.23
561.553	54.23
561.676	70.23
561.799	76.23
561.921	61.23
562.044	68.23
562.167	70.23
562.29	91.23
562.413	69.23
562.535	70.23
562.658	40.23
562.781	72.23
562.903	56.23
563.026	99.23
563.149	138.23
563.272	136.23
563.394	113.23
563.517	127.23
563.64	74.23
563.763	47.23
563.885	40.23
564.008	55.23
564.131	60.23
564.254	33.23
564.376	48.23
564.499	37.23
564.622	51.23
564.744	77.23
564.867	44.23
564.99	40.23
565.113	43.23
565.235	58.23
565.358	36.23
565.481	22.23
565.603	37.23
565.726	54.23
565.849	44.23
565.971	48.23
566.094	25.23
566.217	58.23
566.34	42.23
566.462	57.23
566.585	58.23
566.708	54.23
566.83	34.23
566.953	40.23
567.076	30.23
567.198	32.23
567.321	21.23
567.444	48.23
567.566	40.23
567.689	45.23
567.812	33.23
567.934	64.23
568.057	45.23
568.18	56.23
568.302	29.23
568.425	21.23
568.548	42.23
568.67	32.23
568.793	44.23
568.916	48.23
569.038	34.23
569.161	36.23
569.283	39.23
569.406	47.23
569.529	34.23
569.651	16.23
569.774	28.23
569.897	35.23
570.019	49.23
570.142	48.23
570.265	52.23
570.387	29.23
570.51	27.23
570.632	56.23
570.755	35.23
570.878	35.23
571	57.23
571.123	60.23
571.246	43.23
571.368	37.23
571.491	31.23
571.613	31.23
571.736	21.23
571.859	22.23
571.981	37.23
572.104	38.23
572.226	42.23
572.349	36.23
572.472	33.23
572.594	48.23
572.717	46.23
572.839	24.23
572.962	29.23
573.085	35.23
573.207	34.23
573.33	38.23
573.452	22.23
573.575	45.23
573.697	46.23
573.82	20.23
573.943	29.23
574.065	36.23
574.188	51.23
574.31	36.23
574.433	48.23
574.555	63.23
574.678	57.23
574.801	58.23
574.923	39.23
575.046	26.23
575.168	39.23
575.291	40.23
575.413	35.23
575.536	54.23
575.659	72.23
575.781	51.23
575.904	52.23
576.026	69.23
576.149	92.23
576.271	119.23
576.394	201.23
576.516	538.23
576.639	3657.23
576.761	10181.23
576.884	8858.23
577.007	8760.23
577.129	8028.23
577.252	3752.23
577.374	1305.23
577.497	523.23
577.619	285.23
577.742	188.23
577.864	172.23
577.987	164.23
578.109	142.23
578.232	124.23
578.354	167.23
578.477	208.23
578.599	371.23
578.722	1973.23
578.844	9164.23
578.967	9950.23
579.089	8841.23
579.212	9143.23
579.334	5282.23
579.457	1915.23
579.579	713.23
579.702	343.23
579.824	199.23
579.947	149.23
580.069	130.23
580.192	93.23
580.314	89.23
580.437	70.23
580.559	86.23
580.682	78.23
580.804	80.23
580.927	77.23
581.049	68.23
581.172	70.23
581.294	56.23
581.417	53.23
581.539	43.23
581.662	64.23
581.784	41.23
581.907	56.23
582.029	48.23
582.152	36.23
582.274	40.23
582.396	56.23
582.519	14.23
582.641	16.23
582.764	39.23
582.886	70.23
583.009	30.23
583.131	36.23
583.254	23.23
583.376	56.23
583.499	39.23
583.621	34.23
583.743	37.23
583.866	39.23
583.988	45.23
584.111	53.23
584.233	39.23
584.356	54.23
584.478	41.23
584.601	9.23
584.723	35.23
584.845	41.23
584.968	15.23
585.09	15.23
585.213	21.23
585.335	12.23
585.458	21.23
585.58	40.23
585.702	30.23
585.825	29.23
585.947	32.23
586.07	18.23
586.192	20.23
586.315	45.23
586.437	18.23
586.559	24.23
586.682	25.23
586.804	31.23
586.927	38.23
587.049	24.23
587.171	38.23
587.294	53.23
587.416	46.23
587.539	41.23
587.661	35.23
587.783	37.23
587.906	29.23
588.028	32.23
588.151	48.23
588.273	56.23
588.395	25.23
588.518	18.23
588.64	40.23
588.763	51.23
588.885	52.23
589.007	37.23
589.13	32.23
589.252	32.23
589.375	35.23
589.497	44.23
589.619	27.23
589.742	33.23
589.864	44.23
589.986	28.23
590.109	26.23
590.231	33.23
590.354	25.23
590.476	4.23
590.598	28.23
590.721	5.23
590.843	27.23
590.965	30.23
591.088	31.23
591.21	36.23
591.332	42.23
591.455	0.23
591.577	25.23
591.7	22.23
591.822	24.23
591.944	21.23
592.067	12.23
592.189	40.23
592.311	35.23
592.434	20.23
592.556	53.23
592.678	19.23
592.801	34.23
592.923	38.23
593.045	26.23
593.168	29.23
593.29	32.23
593.412	32.23
593.535	17.23
593.657	23.23
593.779	42.23
593.902	32.23
594.024	27.23
594.146	48.23
594.269	29.23
594.391	26.23
594.513	36.23
594.636	35.23
594.758	27.23
594.88	31.23
595.003	32.23
595.125	32.23
595.247	33.23
595.37	24.23
595.492	23.23
595.614	37.23
595.737	35.23
595.859	30.23
595.981	41.23
596.104	31.23
596.226	32.23
596.348	33.23
596.471	30.23
596.593	24.23
596.715	33.23
596.838	28.23
596.96	15.23
597.082	15.23
597.204	19.23
597.327	21.23
597.449	21.23
597.571	26.23
597.694	25.23
597.816	42.23
597.938	29.23
598.061	6.23
598.183	26.23
598.305	33.23
598.427	34.23
598.55	29.23
598.672	49.23
598.794	46.23
598.917	20.23
599.039	4.23
599.161	25.23
599.283	26.23
599.406	35.23
599.528	41.23
599.65	43.23
599.773	29.23
599.895	48.23
600.017	48.23
600.139	27.23
600.262	18.23
600.384	20.23
600.506	36.23
600.628	47.23
600.751	24.23
600.873	28.23
600.995	36.23
601.118	27.23
601.24	28.23
601.362	48.23
601.484	31.23
601.607	26.23
601.729	25.23
601.851	22.23
601.973	25.23
602.096	41.23
602.218	41.23
602.34	25.23
602.462	34.23
602.585	26.23
602.707	21.23
602.829	26.23
602.951	28.23
603.074	29.23
603.196	25.23
603.318	25.23
603.44	33.23
603.563	8.23
603.685	3.23
603.807	30.23
603.929	29.23
604.052	25.23
604.174	25.23
604.296	37.23
604.418	35.23
604.541	18.23
604.663	16.23
604.785	26.23
604.907	28.23
605.03	21.23
605.152	59.23
605.274	17.23
605.396	27.23
605.519	28.23
605.641	29.23
605.763	14.23
605.885	31.23
606.008	22.23
606.13	24.23
606.252	30.23
606.374	16.23
606.496	16.23
606.619	10.23
606.741	16.23
606.863	32.23
606.985	31.23
607.108	25.23
607.23	28.23
607.352	37.23
607.474	18.23
607.596	34.23
607.719	17.23
607.841	42.23
607.963	25.23
608.085	20.23
608.207	61.23
608.33	42.23
608.452	22.23
608.574	28.23
608.696	43.23
608.819	30.23
608.941	32.23
609.063	28.23
609.185	26.23
609.307	48.23
609.43	42.23
609.552	33.23
609.674	1.23
609.796	22.23
609.918	29.23
610.041	16.23
610.163	25.23
610.285	44.23
610.407	35.23
610.529	15.23
610.652	32.23
610.774	34.23
610.896	33.23
611.018	29.23
611.14	21.23
611.263	10.23
611.385	32.23
611.507	29.23
611.629	31.23
611.751	24.23
611.873	35.23
611.996	28.23
612.118	37.23
612.24	35.23
612.362	38.23
612.484	39.23
612.607	37.23
612.729	46.23
612.851	44.23
612.973	22.23
613.095	8.23
613.218	30.23
613.34	30.23
613.462	28.23
613.584	33.23
613.706	19.23
613.828	48.23
613.951	13.23
614.073	14.23
614.195	2.23
614.317	28.23
614.439	32.23
614.561	35.23
614.684	41.23
614.806	40.23
614.928	16.23
615.05	26.23
615.172	39.23
615.294	25.23
615.417	21.23
615.539	16.23
615.661	26.23
615.783	33.23
615.905	28.23
616.027	12.23
616.15	35.23
616.272	19.23
616.394	12.23
616.516	19.23
616.638	22.23
616.76	18.23
616.883	18.23
617.005	17.23
617.127	21.23
617.249	33.23
617.371	38.23
617.493	12.23
617.615	27.23
617.738	34.23
617.86	28.23
617.982	26.23
618.104	20.23
618.226	25.23
618.348	15.23
618.471	21.23
618.593	15.23
618.715	26.23
618.837	31.23
618.959	28.23
619.081	52.23
619.203	33.23
619.326	19.23
619.448	25.23
619.57	29.23
619.692	29.23
619.814	36.23
619.936	26.23
620.058	32.23
620.181	9.23
620.303	17.23
620.425	29.23
620.547	9.23
620.669	18.23
620.791	25.23
620.913	29.23
621.036	17.23
621.158	21.23
621.28	29.23
621.402	17.23
621.524	29.23
621.646	27.23
621.768	21.23
621.891	10.23
622.013	16.23
622.135	14.23
622.257	8.23
622.379	27.23
622.501	26.23
622.623	25.23
622.745	19.23
622.868	13.23
622.99	17.23
623.112	20.23
623.234	25.23
623.356	41.23
623.478	12.23
623.6	25.23
623.722	19.23
623.845	22.23
623.967	23.23
624.089	17.23
624.211	25.23
624.333	30.23
624.455	17.23
624.577	21.23
624.699	38.23
624.822	34.23
624.944	16.23
625.066	20.23
625.188	13.23
625.31	13.23
625.432	34.23
625.554	36.23
625.676	35.23
625.799	44.23
625.921	35.23
626.043	24.23
626.165	18.23
626.287	-12.77
626.409	33.23
626.531	26.23
626.653	31.23
626.775	24.23
626.898	21.23
627.02	42.23
627.142	66.23
627.264	44.23
627.386	28.23
627.508	31.23
627.63	31.23
627.752	27.23
627.874	23.23
627.997	9.23
628.119	22.23
628.241	20.23
628.363	18.23
628.485	28.23
628.607	26.23
628.729	22.23
628.851	5.23
628.973	21.23
629.096	12.23
629.218	12.23
629.34	1.23
629.462	14.23
629.584	11.23
629.706	19.23
629.828	34.23
629.95	39.23
630.072	21.23
630.195	22.23
630.317	24.23
630.439	25.23
630.561	29.23
630.683	14.23
630.805	22.23
630.927	22.23
631.049	21.23
631.171	4.23
631.293	13.23
631.416	17.23
631.538	3.23
631.66	8.23
631.782	32.23
631.904	46.23
632.026	12.23
632.148	28.23
632.27	17.23
632.392	15.23
632.514	20.23
632.637	5.23
632.759	6.23
632.881	10.23
633.003	19.23
633.125	11.23
633.247	6.23
633.369	8.23
633.491	27.23
633.613	46.23
633.735	24.23
633.858	30.23
633.98	5.23
634.102	1.23
634.224	17.23
634.346	25.23
634.468	24.23
634.59	18.23
634.712	14.23
634.834	19.23
634.956	12.23
635.078	-0.77
635.201	14.23
635.323	21.23
635.445	11.23
635.567	4.23
635.689	25.23
635.811	-3.77
635.933	14.23
636.055	14.23
636.177	23.23
636.299	23.23
636.421	12.23
636.544	-0.77
636.666	18.23
636.788	24.23
636.91	14.23
637.032	25.23
637.154	25.23
637.276	30.23
637.398	27.23
637.52	23.23
637.642	26.23
637.764	16.23
637.887	2.23
638.009	11.23
638.131	12.23
638.253	23.23
638.375	24.23
638.497	13.23
638.619	7.23
638.741	18.23
638.863	8.23
638.985	9.23
639.107	10.23
639.23	14.23
639.352	19.23
639.474	16.23
639.596	20.23
639.718	9.23
639.84	5.23
639.962	23.23
640.084	27.23
640.206	28.23
640.328	5.23
640.45	24.23
640.573	22.23
640.695	3.23
640.817	17.23
640.939	37.23
641.061	26.23
641.183	15.23
641.305	32.23
641.427	16.23
641.549	17.23
641.671	21.23
641.793	20.23
641.915	47.23
642.038	17.23
642.16	18.23
642.282	25.23
642.404	-4.77
642.526	21.23
642.648	17.23
642.77	10.23
642.892	12.23
643.014	24.23
643.136	33.23
643.258	20.23
643.381	27.23
643.503	34.23
643.625	8.23
643.747	4.23
643.869	19.23
643.991	32.23
644.113	14.23
644.235	5.23
644.357	24.23
644.479	18.23
644.601	25.23
644.723	12.23
644.846	25.23
644.968	15.23
645.09	26.23
645.212	12.23
645.334	30.23
645.456	28.23
645.578	26.23
645.7	29.23
645.822	25.23
645.944	16.23
646.066	21.23
646.188	8.23
646.311	24.23
646.433	11.23
646.555	33.23
646.677	21.23
646.799	24.23
646.921	25.23
647.043	26.23
647.165	2.23
647.287	23.23
647.409	2.23
647.531	26.23
647.654	-4.77
647.776	26.23
647.898	27.23
648.02	25.23
648.142	8.23
648.264	25.23
648.386	20.23
648.508	21.23
648.63	28.23
648.752	28.23
648.874	16.23
648.997	17.23
649.119	24.23
649.241	17.23
649.363	39.23
649.485	34.23
649.607	19.23
649.729	1.23
649.851	2.23
649.973	12.23
650.095	25.23
650.217	8.23
650.34	-0.77
650.462	-3.77
650.584	19.23
650.706	31.23
650.828	36.23
650.95	-5.77
651.072	22.23
651.194	21.23
651.316	17.23
651.438	25.23
651.56	-1.77
651.683	-1.77
651.805	20.23
651.927	5.23
652.049	19.23
652.171	27.23
652.293	3.23
652.415	1.23
652.537	4.23
652.659	14.23
652.781	29.23
652.903	31.23
653.026	44.23
653.148	17.23
653.27	28.23
653.392	24.23
653.514	7.23
653.636	20.23
653.758	29.23
653.88	12.23
654.002	14.23
654.124	19.23
654.247	12.23
654.369	25.23
654.491	8.23
654.613	10.23
654.735	14.23
654.857	26.23
654.979	1.23
655.101	12.23
655.223	38.23
655.345	42.23
655.468	18.23
655.59	11.23
655.712	17.23
655.834	19.23
655.956	12.23
656.078	-4.77
656.2	9.23
656.322	12.23
656.444	-1.77
656.566	9.23
656.689	12.23
656.811	12.23
656.933	23.23
657.055	0.23
657.177	10.23
657.299	9.23
657.421	14.23
657.543	25.23
657.665	26.23
657.787	22.23
657.91	18.23
658.032	17.23
658.154	18.23
658.276	22.23
658.398	-6.77
658.52	15.23
658.642	32.23
658.764	14.23
658.886	8.23
659.009	16.23
659.131	34.23
659.253	21.23
659.375	23.23
659.497	17.23
659.619	26.23
659.741	5.23
659.863	-11.77
659.985	-5.77
660.108	36.23
660.23	1.23
660.352	11.23
660.474	17.23
660.596	32.23
660.718	9.23
660.84	10.23
660.962	27.23
661.084	12.23
661.207	6.23
661.329	34.23
661.451	15.23
661.573	4.23
661.695	33.23
661.817	25.23
661.939	44.23
662.061	31.23
662.184	6.23
662.306	17.23
662.428	30.23
662.55	43.23
662.672	20.23
662.794	-0.77
662.916	6.23
663.038	5.23
663.161	26.23
663.283	7.23
663.405	20.23
663.527	7.23
663.649	33.23
663.771	5.23
663.893	31.23
664.015	21.23
664.138	6.23
664.26	22.23
664.382	17.23
664.504	8.23
664.626	0.23
664.748	4.23
664.87	3.23
664.992	40.23
665.115	14.23
665.237	13.23
665.359	2.23
665.481	13.23
665.603	24.23
665.725	1.23
665.847	2.23
665.97	15.23
666.092	21.23
666.214	28.23
666.336	20.23
666.458	13.23
666.58	14.23
666.702	-6.77
666.825	1.23
666.947	24.23
667.069	12.23
667.191	14.23
667.313	39.23
667.435	8.23
667.557	-2.77
667.68	3.23
667.802	12.23
667.924	8.23
668.046	0.23
668.168	19.23
668.29	29.23
668.412	19.23
668.535	8.23
668.657	-1.77
668.779	5.23
668.901	13.23
669.023	28.23
669.145	22.23
669.267	33.23
669.39	18.23
669.512	16.23
669.634	20.23
669.756	10.23
669.878	4.23
670	22.23
670.123	25.23
670.245	40.23
670.367	26.23
670.489	22.23
670.611	2.23
670.733	4.23
670.856	14.23
670.978	24.23
671.1	24.23
671.222	26.23
671.344	14.23
671.466	12.23
671.589	1.23
671.711	21.23
671.833	4.23
671.955	22.23
672.077	14.23
672.199	33.23
672.322	41.23
672.444	13.23
672.566	8.23
672.688	-1.77
672.81	11.23
672.932	28.23
673.055	14.23
673.177	-11.77
673.299	14.23
673.421	11.23
673.543	11.23
673.665	22.23
673.788	17.23
673.91	9.23
674.032	0.23
674.154	9.23
674.276	12.23
674.399	23.23
674.521	5.23
674.643	14.23
674.765	17.23
674.887	34.23
675.009	24.23
675.132	16.23
675.254	18.23
675.376	12.23
675.498	22.23
675.62	33.23
675.743	3.23
675.865	18.23
675.987	-4.77
676.109	9.23
676.231	14.23
676.354	30.23
676.476	4.23
676.598	14.23
676.72	18.23
676.842	23.23
676.965	5.23
677.087	12.23
677.209	28.23
677.331	24.23
677.453	9.23
677.576	8.23
677.698	0.23
677.82	14.23
677.942	5.23
678.064	6.23
678.187	20.23
678.309	13.23
678.431	13.23
678.553	13.23
678.675	27.23
678.798	17.23
678.92	10.23
679.042	4.23
679.164	-3.77
679.286	13.23
679.409	7.23
679.531	0.23
679.653	19.23
679.775	10.23
679.898	12.23
680.02	6.23
680.142	-0.77
680.264	12.23
680.386	-3.77
680.509	7.23
680.631	31.23
680.753	21.23
680.875	-14.77
680.998	24.23
681.12	20.23
681.242	19.23
681.364	1.23
681.486	14.23
681.609	3.23
681.731	1.23
681.853	19.23
681.975	-1.77
682.098	23.23
682.22	26.23
682.342	23.23
682.464	22.23
682.587	13.23
682.709	9.23
682.831	14.23
682.953	8.23
683.076	5.23
683.198	27.23
683.32	11.23
683.442	22.23
683.565	20.23
683.687	12.23
683.809	2.23
683.931	-11.77
684.054	14.23
684.176	7.23
684.298	19.23
684.42	16.23
684.543	12.23
684.665	35.23
684.787	19.23
684.909	12.23
685.032	19.23
685.154	3.23
685.276	8.23
685.398	6.23
685.521	-2.77
685.643	8.23
685.765	3.23
685.887	16.23
686.01	20.23
686.132	22.23
686.254	15.23
686.377	17.23
686.499	4.23
686.621	18.23
686.743	19.23
686.866	20.23
686.988	39.23
687.11	34.23
687.232	10.23
687.355	-7.77
687.477	25.23
687.599	22.23
687.722	-0.77
687.844	8.23
687.966	24.23
688.088	32.23
688.211	39.23
688.333	32.23
688.455	20.23
688.578	12.23
688.7	46.23
688.822	45.23
688.944	-3.77
689.067	45.23
689.189	9.23
689.311	2.23
689.434	28.23
689.556	25.23
689.678	6.23
689.801	3.23
689.923	45.23
690.045	20.23
690.167	22.23
690.29	18.23
690.412	17.23
690.534	32.23
690.657	-1.77
690.779	16.23
690.901	20.23
691.024	-1.77
691.146	9.23
691.268	28.23
691.391	33.23
691.513	33.23
691.635	19.23
691.758	6.23
691.88	14.23
692.002	-3.77
692.125	15.23
692.247	16.23
692.369	16.23
692.492	12.23
692.614	12.23
692.736	1.23
692.859	18.23
692.981	13.23
693.103	9.23
693.226	14.23
693.348	26.23
693.47	0.23
693.593	25.23
693.715	52.23
693.837	34.23
693.96	22.23
694.082	14.23
694.204	29.23
694.327	12.23
694.449	6.23
694.571	8.23
694.694	33.23
694.816	13.23
694.938	14.23
695.061	21.23
695.183	12.23
695.305	19.23
695.428	14.23
695.55	-2.77
695.672	-1.77
695.795	13.23
695.917	24.23
696.04	10.23
696.162	-1.77
696.284	24.23
696.407	11.23
696.529	8.23
696.651	21.23
696.774	19.23
696.896	33.23
697.019	8.23
697.141	14.23
697.263	-7.77
697.386	2.23
697.508	21.23
697.63	12.23
697.753	9.23
697.875	27.23
697.998	18.23
698.12	19.23
698.242	-0.77
698.365	9.23
698.487	33.23
698.61	28.23
698.732	12.23
698.854	24.23
698.977	7.23
699.099	25.23
699.221	5.23
699.344	13.23
699.466	21.23
699.589	9.23
699.711	9.23
699.834	1.23
699.956	25.23
700.078	9.23
700.201	5.23
700.323	28.23
700.446	20.23
700.568	18.23
700.69	20.23
700.813	18.23
700.935	8.23
701.058	4.23
701.18	3.23
701.302	10.23
701.425	17.23
701.547	10.23
701.67	33.23
701.792	12.23
701.915	2.23
702.037	9.23
702.159	16.23
702.282	1.23
702.404	4.23
702.527	28.23
702.649	32.23
702.772	16.23
702.894	10.23
703.017	18.23
703.139	21.23
703.261	29.23
703.384	38.23
703.506	2.23
703.629	6.23
703.751	21.23
703.874	2.23
703.996	3.23
704.119	0.23
704.241	21.23
704.364	-9.77
704.486	18.23
704.608	17.23
704.731	11.23
704.853	10.23
704.976	5.23
705.098	26.23
705.221	0.23
705.343	9.23
705.466	30.23
705.588	20.23
705.711	12.23
705.833	26.23
705.956	13.23
706.078	20.23
706.201	22.23
706.323	19.23
706.446	25.23
