Data from LowRes_mercury_15_20_11_07_2024_HR4C61881__26__15-23-34-871.txt Node

Date: Thu Nov 07 15:23:34 EST 2024
User: crc00042
Spectrometer: HR4C6188
Trigger mode: 4
Integration Time (sec): 1.000000E-1
Scans to average: 1
Electric dark correction enabled: true
Nonlinearity correction enabled: false
Boxcar width: 0
XAxis mode: Wavelengths
Number of Pixels in Spectrum: 3648
>>>>>Begin Spectral Data<<<<<
245.66	-57.38
245.797	-57.38
245.934	-57.38
246.071	-73.38
246.208	7.62
246.344	0.62
246.481	5.62
246.618	-25.38
246.755	20.62
246.892	-1.38
247.029	-8.38
247.165	-10.38
247.302	17.62
247.439	-15.38
247.576	-2.38
247.713	-14.38
247.849	38.62
247.986	-5.38
248.123	-5.38
248.26	-14.38
248.396	12.62
248.533	6.62
248.67	-21.38
248.806	-4.38
248.943	-10.38
249.08	-6.38
249.216	10.62
249.353	-14.38
249.49	-19.38
249.626	-5.38
249.763	6.62
249.9	6.62
250.036	2.62
250.173	13.62
250.309	6.62
250.446	9.62
250.582	-12.38
250.719	-11.38
250.856	6.62
250.992	1.62
251.129	-11.38
251.265	1.62
251.402	-0.38
251.538	-4.38
251.675	-2.38
251.811	21.62
251.948	6.62
252.084	23.62
252.221	-6.38
252.357	-26.38
252.493	2.62
252.63	4.62
252.766	7.62
252.903	7.62
253.039	-1.38
253.175	-3.38
253.312	4.62
253.448	-19.38
253.585	-22.38
253.721	2.62
253.857	-10.38
253.994	18.62
254.13	8.62
254.266	10.62
254.403	-5.38
254.539	-0.38
254.675	7.62
254.811	-6.38
254.948	-6.38
255.084	-11.38
255.22	-6.38
255.356	11.62
255.493	-14.38
255.629	6.62
255.765	5.62
255.901	12.62
256.037	-6.38
256.174	-5.38
256.31	-7.38
256.446	-10.38
256.582	5.62
256.718	4.62
256.854	16.62
256.991	17.62
257.127	4.62
257.263	5.62
257.399	17.62
257.535	-1.38
257.671	-4.38
257.807	-9.38
257.943	-4.38
258.079	-11.38
258.215	-13.38
258.351	6.62
258.487	5.62
258.623	30.62
258.759	-0.38
258.895	-4.38
259.031	-10.38
259.167	-3.38
259.303	35.62
259.439	-3.38
259.575	-1.38
259.711	-9.38
259.847	-17.38
259.983	8.62
260.119	0.62
260.255	-5.38
260.391	25.62
260.527	12.62
260.663	9.62
260.799	1.62
260.934	-1.38
261.07	5.62
261.206	-11.38
261.342	-17.38
261.478	14.62
261.614	12.62
261.749	14.62
261.885	-9.38
262.021	0.62
262.157	11.62
262.293	-10.38
262.428	-4.38
262.564	-10.38
262.7	36.62
262.836	13.62
262.971	21.62
263.107	15.62
263.243	43.62
263.378	22.62
263.514	-5.38
263.65	-5.38
263.785	-2.38
263.921	6.62
264.057	8.62
264.192	15.62
264.328	31.62
264.464	-2.38
264.599	22.62
264.735	3.62
264.871	-11.38
265.006	23.62
265.142	0.62
265.277	18.62
265.413	22.62
265.548	27.62
265.684	13.62
265.819	17.62
265.955	4.62
266.091	-5.38
266.226	-7.38
266.362	-3.38
266.497	4.62
266.633	-2.38
266.768	-8.38
266.903	11.62
267.039	18.62
267.174	4.62
267.31	-5.38
267.445	-12.38
267.581	-8.38
267.716	6.62
267.851	17.62
267.987	1.62
268.122	37.62
268.258	-12.38
268.393	6.62
268.528	5.62
268.664	1.62
268.799	-16.38
268.934	17.62
269.07	-0.38
269.205	-13.38
269.34	24.62
269.476	-4.38
269.611	-4.38
269.746	21.62
269.881	13.62
270.017	12.62
270.152	-0.38
270.287	20.62
270.422	27.62
270.558	-4.38
270.693	11.62
270.828	12.62
270.963	25.62
271.098	-11.38
271.234	-6.38
271.369	14.62
271.504	5.62
271.639	-5.38
271.774	0.62
271.909	1.62
272.045	-19.38
272.18	-0.38
272.315	-3.38
272.45	19.62
272.585	-7.38
272.72	5.62
272.855	14.62
272.99	24.62
273.125	-12.38
273.26	-13.38
273.395	0.62
273.53	-6.38
273.665	25.62
273.8	-4.38
273.935	1.62
274.07	5.62
274.205	9.62
274.34	8.62
274.475	9.62
274.61	13.62
274.745	3.62
274.88	23.62
275.015	-1.38
275.15	-4.38
275.285	15.62
275.42	10.62
275.555	17.62
275.69	7.62
275.825	-0.38
275.959	21.62
276.094	3.62
276.229	4.62
276.364	-2.38
276.499	-15.38
276.634	-2.38
276.768	6.62
276.903	-2.38
277.038	27.62
277.173	24.62
277.308	-4.38
277.442	-3.38
277.577	1.62
277.712	12.62
277.847	3.62
277.981	25.62
278.116	-16.38
278.251	9.62
278.386	23.62
278.52	-0.38
278.655	-10.38
278.79	17.62
278.924	12.62
279.059	11.62
279.194	4.62
279.328	34.62
279.463	16.62
279.598	20.62
279.732	17.62
279.867	19.62
280.001	31.62
280.136	13.62
280.271	12.62
280.405	19.62
280.54	-14.38
280.674	-8.38
280.809	24.62
280.943	0.62
281.078	13.62
281.213	27.62
281.347	17.62
281.482	21.62
281.616	-8.38
281.751	2.62
281.885	-10.38
282.02	-0.38
282.154	18.62
282.288	-7.38
282.423	-2.38
282.557	-9.38
282.692	4.62
282.826	10.62
282.961	14.62
283.095	-17.38
283.229	-15.38
283.364	-27.38
283.498	0.62
283.633	-11.38
283.767	-9.38
283.901	2.62
284.036	-2.38
284.17	-9.38
284.304	-5.38
284.439	16.62
284.573	8.62
284.707	8.62
284.842	-6.38
284.976	-1.38
285.11	-12.38
285.244	18.62
285.379	56.62
285.513	-10.38
285.647	17.62
285.781	8.62
285.916	21.62
286.05	-7.38
286.184	24.62
286.318	29.62
286.453	-1.38
286.587	-23.38
286.721	-13.38
286.855	3.62
286.989	12.62
287.123	-9.38
287.258	6.62
287.392	4.62
287.526	12.62
287.66	-3.38
287.794	-5.38
287.928	7.62
288.062	11.62
288.196	5.62
288.33	21.62
288.464	24.62
288.598	5.62
288.733	9.62
288.867	8.62
289.001	22.62
289.135	0.62
289.269	-12.38
289.403	3.62
289.537	5.62
289.671	10.62
289.805	-4.38
289.939	-9.38
290.073	5.62
290.207	17.62
290.34	8.62
290.474	28.62
290.608	21.62
290.742	2.62
290.876	-6.38
291.01	12.62
291.144	12.62
291.278	20.62
291.412	2.62
291.546	-2.38
291.679	-4.38
291.813	-12.38
291.947	14.62
292.081	3.62
292.215	6.62
292.349	-0.38
292.482	2.62
292.616	9.62
292.75	2.62
292.884	11.62
293.018	19.62
293.151	-18.38
293.285	20.62
293.419	0.62
293.553	-4.38
293.686	-0.38
293.82	9.62
293.954	29.62
294.088	8.62
294.221	10.62
294.355	6.62
294.489	-2.38
294.622	-21.38
294.756	-6.38
294.89	5.62
295.023	23.62
295.157	10.62
295.291	14.62
295.424	10.62
295.558	-8.38
295.691	-8.38
295.825	-10.38
295.959	12.62
296.092	3.62
296.226	-1.38
296.359	11.62
296.493	23.62
296.627	15.62
296.76	-1.38
296.894	-1.38
297.027	15.62
297.161	6.62
297.294	-5.38
297.428	13.62
297.561	34.62
297.695	-5.38
297.828	4.62
297.962	17.62
298.095	5.62
298.229	12.62
298.362	4.62
298.495	-7.38
298.629	-13.38
298.762	-2.38
298.896	4.62
299.029	6.62
299.162	8.62
299.296	14.62
299.429	2.62
299.563	6.62
299.696	10.62
299.829	0.62
299.963	32.62
300.096	4.62
300.229	1.62
300.363	-6.38
300.496	4.62
300.629	-19.38
300.763	-10.38
300.896	15.62
301.029	-0.38
301.162	9.62
301.296	-18.38
301.429	-3.38
301.562	-24.38
301.695	12.62
301.829	18.62
301.962	13.62
302.095	1.62
302.228	4.62
302.362	-1.38
302.495	-19.38
302.628	17.62
302.761	8.62
302.894	5.62
303.027	11.62
303.161	-3.38
303.294	7.62
303.427	6.62
303.56	5.62
303.693	6.62
303.826	-12.38
303.959	-10.38
304.092	-2.38
304.225	0.62
304.359	4.62
304.492	-1.38
304.625	-0.38
304.758	17.62
304.891	5.62
305.024	5.62
305.157	9.62
305.29	-15.38
305.423	-0.38
305.556	18.62
305.689	10.62
305.822	-13.38
305.955	2.62
306.088	-5.38
306.221	0.62
306.354	10.62
306.487	-3.38
306.62	-6.38
306.752	-5.38
306.885	28.62
307.018	7.62
307.151	18.62
307.284	7.62
307.417	-14.38
307.55	-1.38
307.683	-5.38
307.816	26.62
307.948	26.62
308.081	0.62
308.214	17.62
308.347	12.62
308.48	-4.38
308.613	-19.38
308.745	7.62
308.878	2.62
309.011	-6.38
309.144	6.62
309.277	0.62
309.409	15.62
309.542	8.62
309.675	9.62
309.808	11.62
309.94	26.62
310.073	-7.38
310.206	12.62
310.339	6.62
310.471	-18.38
310.604	16.62
310.737	-1.38
310.869	10.62
311.002	-3.38
311.135	-0.38
311.267	-4.38
311.4	3.62
311.533	10.62
311.665	-11.38
311.798	2.62
311.93	5.62
312.063	29.62
312.196	39.62
312.328	73.62
312.461	61.62
312.593	26.62
312.726	39.62
312.859	90.62
312.991	151.62
313.124	39.62
313.256	11.62
313.389	3.62
313.521	-5.38
313.654	9.62
313.786	-14.38
313.919	-10.38
314.051	-6.38
314.184	9.62
314.316	16.62
314.449	-24.38
314.581	1.62
314.714	14.62
314.846	-3.38
314.978	-11.38
315.111	-2.38
315.243	14.62
315.376	-1.38
315.508	-0.38
315.641	4.62
315.773	6.62
315.905	13.62
316.038	-2.38
316.17	11.62
316.302	18.62
316.435	9.62
316.567	7.62
316.699	18.62
316.832	10.62
316.964	11.62
317.096	8.62
317.229	0.62
317.361	-21.38
317.493	-12.38
317.625	-24.38
317.758	16.62
317.89	8.62
318.022	-7.38
318.155	-3.38
318.287	8.62
318.419	13.62
318.551	-6.38
318.683	-3.38
318.816	-1.38
318.948	4.62
319.08	1.62
319.212	18.62
319.344	-5.38
319.477	8.62
319.609	9.62
319.741	14.62
319.873	-5.38
320.005	-5.38
320.137	8.62
320.269	5.62
320.401	12.62
320.534	-9.38
320.666	-10.38
320.798	-5.38
320.93	3.62
321.062	-15.38
321.194	-9.38
321.326	10.62
321.458	20.62
321.59	-14.38
321.722	-15.38
321.854	-2.38
321.986	-0.38
322.118	2.62
322.25	-12.38
322.382	-1.38
322.514	-5.38
322.646	-13.38
322.778	10.62
322.91	-1.38
323.042	3.62
323.174	-0.38
323.306	-5.38
323.438	-9.38
323.57	14.62
323.702	-13.38
323.834	-6.38
323.966	5.62
324.097	-8.38
324.229	25.62
324.361	21.62
324.493	7.62
324.625	-0.38
324.757	-0.38
324.889	18.62
325.021	16.62
325.152	22.62
325.284	11.62
325.416	8.62
325.548	7.62
325.68	2.62
325.811	19.62
325.943	21.62
326.075	-13.38
326.207	-1.38
326.339	25.62
326.47	6.62
326.602	16.62
326.734	21.62
326.866	1.62
326.997	-20.38
327.129	-19.38
327.261	1.62
327.392	1.62
327.524	-3.38
327.656	8.62
327.787	-3.38
327.919	12.62
328.051	15.62
328.182	36.62
328.314	33.62
328.446	8.62
328.577	16.62
328.709	26.62
328.841	-30.38
328.972	-13.38
329.104	-3.38
329.235	-4.38
329.367	3.62
329.499	-3.38
329.63	8.62
329.762	11.62
329.893	3.62
330.025	2.62
330.156	-13.38
330.288	6.62
330.419	21.62
330.551	13.62
330.683	5.62
330.814	5.62
330.946	18.62
331.077	13.62
331.208	4.62
331.34	9.62
331.471	-10.38
331.603	3.62
331.734	-6.38
331.866	-3.38
331.997	-0.38
332.129	4.62
332.26	-5.38
332.392	19.62
332.523	-1.38
332.654	-3.38
332.786	24.62
332.917	-6.38
333.048	-0.38
333.18	29.62
333.311	-6.38
333.443	16.62
333.574	17.62
333.705	46.62
333.837	36.62
333.968	125.62
334.099	231.62
334.231	202.62
334.362	71.62
334.493	31.62
334.624	25.62
334.756	-3.38
334.887	21.62
335.018	8.62
335.15	12.62
335.281	19.62
335.412	14.62
335.543	15.62
335.675	12.62
335.806	0.62
335.937	-13.38
336.068	23.62
336.199	45.62
336.331	-4.38
336.462	11.62
336.593	29.62
336.724	-8.38
336.855	24.62
336.986	20.62
337.118	20.62
337.249	10.62
337.38	1.62
337.511	13.62
337.642	16.62
337.773	15.62
337.904	-4.38
338.035	18.62
338.166	6.62
338.298	14.62
338.429	10.62
338.56	20.62
338.691	17.62
338.822	3.62
338.953	5.62
339.084	25.62
339.215	14.62
339.346	14.62
339.477	17.62
339.608	9.62
339.739	13.62
339.87	27.62
340.001	10.62
340.132	30.62
340.263	5.62
340.394	13.62
340.525	13.62
340.656	3.62
340.787	-8.38
340.918	23.62
341.049	20.62
341.179	14.62
341.31	34.62
341.441	25.62
341.572	26.62
341.703	11.62
341.834	-16.38
341.965	2.62
342.096	18.62
342.227	19.62
342.357	22.62
342.488	11.62
342.619	6.62
342.75	6.62
342.881	-7.38
343.012	41.62
343.142	34.62
343.273	10.62
343.404	40.62
343.535	38.62
343.666	30.62
343.796	20.62
343.927	38.62
344.058	35.62
344.189	47.62
344.319	45.62
344.45	21.62
344.581	45.62
344.712	-0.38
344.842	23.62
344.973	13.62
345.104	43.62
345.234	17.62
345.365	3.62
345.496	36.62
345.626	36.62
345.757	21.62
345.888	12.62
346.018	24.62
346.149	14.62
346.28	48.62
346.41	30.62
346.541	39.62
346.672	18.62
346.802	22.62
346.933	21.62
347.063	15.62
347.194	25.62
347.325	20.62
347.455	32.62
347.586	21.62
347.716	20.62
347.847	26.62
347.977	21.62
348.108	42.62
348.238	40.62
348.369	41.62
348.499	49.62
348.63	31.62
348.76	46.62
348.891	53.62
349.021	55.62
349.152	40.62
349.282	31.62
349.413	46.62
349.543	52.62
349.674	32.62
349.804	42.62
349.935	16.62
350.065	30.62
350.196	36.62
350.326	34.62
350.456	28.62
350.587	39.62
350.717	24.62
350.848	15.62
350.978	33.62
351.108	19.62
351.239	34.62
351.369	27.62
351.499	24.62
351.63	34.62
351.76	9.62
351.89	20.62
352.021	40.62
352.151	16.62
352.281	39.62
352.412	35.62
352.542	22.62
352.672	12.62
352.803	18.62
352.933	23.62
353.063	13.62
353.193	13.62
353.324	23.62
353.454	29.62
353.584	35.62
353.714	29.62
353.845	22.62
353.975	7.62
354.105	31.62
354.235	26.62
354.365	37.62
354.496	12.62
354.626	29.62
354.756	34.62
354.886	9.62
355.016	42.62
355.146	20.62
355.277	32.62
355.407	19.62
355.537	27.62
355.667	13.62
355.797	10.62
355.927	27.62
356.057	43.62
356.187	14.62
356.318	24.62
356.448	5.62
356.578	22.62
356.708	27.62
356.838	42.62
356.968	41.62
357.098	44.62
357.228	36.62
357.358	14.62
357.488	29.62
357.618	71.62
357.748	50.62
357.878	31.62
358.008	22.62
358.138	17.62
358.268	20.62
358.398	39.62
358.528	8.62
358.658	26.62
358.788	27.62
358.918	34.62
359.048	36.62
359.178	42.62
359.308	22.62
359.438	37.62
359.568	24.62
359.698	45.62
359.827	35.62
359.957	32.62
360.087	14.62
360.217	21.62
360.347	36.62
360.477	41.62
360.607	21.62
360.737	30.62
360.866	20.62
360.996	18.62
361.126	16.62
361.256	67.62
361.386	45.62
361.516	41.62
361.645	26.62
361.775	55.62
361.905	13.62
362.035	35.62
362.165	30.62
362.294	30.62
362.424	46.62
362.554	38.62
362.684	24.62
362.813	65.62
362.943	45.62
363.073	54.62
363.203	73.62
363.332	63.62
363.462	78.62
363.592	98.62
363.721	131.62
363.851	149.62
363.981	197.62
364.111	261.62
364.24	320.62
364.37	489.62
364.5	878.62
364.629	1850.62
364.759	3858.62
364.888	6299.62
365.018	9349.62
365.148	14810.62
365.277	12963.62
365.407	4787.62
365.537	3100.62
365.666	4010.62
365.796	1834.62
365.925	825.62
366.055	758.62
366.184	1028.62
366.314	1383.62
366.444	2439.62
366.573	2109.62
366.703	657.62
366.832	210.62
366.962	107.62
367.091	84.62
367.221	89.62
367.35	67.62
367.48	81.62
367.609	47.62
367.739	63.62
367.868	33.62
367.998	58.62
368.127	57.62
368.257	69.62
368.386	52.62
368.516	68.62
368.645	41.62
368.775	47.62
368.904	31.62
369.033	43.62
369.163	35.62
369.292	27.62
369.422	39.62
369.551	39.62
369.68	38.62
369.81	41.62
369.939	25.62
370.069	52.62
370.198	32.62
370.327	31.62
370.457	24.62
370.586	44.62
370.715	30.62
370.845	42.62
370.974	44.62
371.103	52.62
371.233	37.62
371.362	49.62
371.491	38.62
371.621	56.62
371.75	62.62
371.879	46.62
372.008	52.62
372.138	54.62
372.267	49.62
372.396	43.62
372.525	32.62
372.655	24.62
372.784	28.62
372.913	25.62
373.042	17.62
373.172	22.62
373.301	6.62
373.43	7.62
373.559	-2.38
373.688	8.62
373.818	28.62
373.947	30.62
374.076	21.62
374.205	25.62
374.334	26.62
374.463	-5.38
374.593	29.62
374.722	30.62
374.851	34.62
374.98	-5.38
375.109	17.62
375.238	39.62
375.367	52.62
375.496	29.62
375.625	20.62
375.755	47.62
375.884	34.62
376.013	26.62
376.142	8.62
376.271	5.62
376.4	23.62
376.529	20.62
376.658	28.62
376.787	26.62
376.916	35.62
377.045	23.62
377.174	36.62
377.303	29.62
377.432	30.62
377.561	27.62
377.69	27.62
377.819	58.62
377.948	12.62
378.077	9.62
378.206	0.62
378.335	2.62
378.464	2.62
378.593	22.62
378.722	9.62
378.851	1.62
378.98	12.62
379.108	10.62
379.237	14.62
379.366	23.62
379.495	32.62
379.624	9.62
379.753	18.62
379.882	6.62
380.011	1.62
380.14	6.62
380.268	12.62
380.397	29.62
380.526	36.62
380.655	6.62
380.784	-2.38
380.913	2.62
381.041	13.62
381.17	4.62
381.299	9.62
381.428	26.62
381.557	14.62
381.685	9.62
381.814	22.62
381.943	21.62
382.072	6.62
382.2	19.62
382.329	29.62
382.458	22.62
382.587	20.62
382.715	28.62
382.844	-0.38
382.973	9.62
383.102	20.62
383.23	19.62
383.359	-15.38
383.488	18.62
383.616	18.62
383.745	-10.38
383.874	17.62
384.003	30.62
384.131	19.62
384.26	24.62
384.389	18.62
384.517	9.62
384.646	10.62
384.774	5.62
384.903	35.62
385.032	52.62
385.16	28.62
385.289	17.62
385.418	27.62
385.546	16.62
385.675	23.62
385.803	24.62
385.932	33.62
386.06	-6.38
386.189	16.62
386.318	21.62
386.446	15.62
386.575	14.62
386.703	25.62
386.832	8.62
386.96	-13.38
387.089	14.62
387.217	9.62
387.346	-3.38
387.474	9.62
387.603	10.62
387.731	19.62
387.86	21.62
387.988	18.62
388.117	9.62
388.245	7.62
388.374	11.62
388.502	20.62
388.631	5.62
388.759	10.62
388.888	34.62
389.016	14.62
389.144	12.62
389.273	23.62
389.401	23.62
389.53	3.62
389.658	30.62
389.786	10.62
389.915	25.62
390.043	2.62
390.172	25.62
390.3	31.62
390.428	46.62
390.557	31.62
390.685	49.62
390.813	36.62
390.942	41.62
391.07	25.62
391.198	26.62
391.327	24.62
391.455	9.62
391.583	29.62
391.712	18.62
391.84	11.62
391.968	12.62
392.096	18.62
392.225	34.62
392.353	32.62
392.481	26.62
392.609	33.62
392.738	25.62
392.866	34.62
392.994	2.62
393.122	24.62
393.251	32.62
393.379	9.62
393.507	6.62
393.635	20.62
393.764	31.62
393.892	29.62
394.02	18.62
394.148	32.62
394.276	20.62
394.404	37.62
394.533	34.62
394.661	46.62
394.789	42.62
394.917	28.62
395.045	7.62
395.173	6.62
395.302	21.62
395.43	47.62
395.558	37.62
395.686	33.62
395.814	50.62
395.942	28.62
396.07	17.62
396.198	42.62
396.326	34.62
396.454	40.62
396.582	37.62
396.711	30.62
396.839	27.62
396.967	10.62
397.095	31.62
397.223	26.62
397.351	48.62
397.479	53.62
397.607	24.62
397.735	66.62
397.863	63.62
397.991	53.62
398.119	26.62
398.247	46.62
398.375	40.62
398.503	56.62
398.631	60.62
398.759	67.62
398.887	51.62
399.015	42.62
399.143	35.62
399.271	60.62
399.399	58.62
399.526	80.62
399.654	77.62
399.782	72.62
399.91	92.62
400.038	90.62
400.166	89.62
400.294	75.62
400.422	72.62
400.55	119.62
400.678	99.62
400.805	109.62
400.933	108.62
401.061	139.62
401.189	127.62
401.317	136.62
401.445	93.62
401.573	89.62
401.7	43.62
401.828	48.62
401.956	41.62
402.084	58.62
402.212	30.62
402.34	23.62
402.467	49.62
402.595	41.62
402.723	31.62
402.851	66.62
402.978	62.62
403.106	84.62
403.234	80.62
403.362	101.62
403.489	123.62
403.617	152.62
403.745	197.62
403.873	285.62
404	576.62
404.128	1458.62
404.256	3921.62
404.384	5103.62
404.511	5446.62
404.639	7243.62
404.767	11369.62
404.894	14632.62
405.022	4913.62
405.15	1291.62
405.277	440.62
405.405	246.62
405.533	134.62
405.66	128.62
405.788	63.62
405.916	69.62
406.043	39.62
406.171	59.62
406.299	63.62
406.426	57.62
406.554	62.62
406.681	57.62
406.809	40.62
406.937	52.62
407.064	56.62
407.192	134.62
407.319	312.62
407.447	512.62
407.574	563.62
407.702	661.62
407.83	849.62
407.957	1577.62
408.085	926.62
408.212	290.62
408.34	98.62
408.467	74.62
408.595	56.62
408.722	51.62
408.85	63.62
408.977	38.62
409.105	34.62
409.232	27.62
409.36	36.62
409.487	30.62
409.615	41.62
409.742	32.62
409.87	38.62
409.997	35.62
410.125	36.62
410.252	55.62
410.379	29.62
410.507	36.62
410.634	24.62
410.762	30.62
410.889	42.62
411.017	32.62
411.144	40.62
411.271	19.62
411.399	35.62
411.526	42.62
411.653	40.62
411.781	19.62
411.908	26.62
412.036	10.62
412.163	39.62
412.29	26.62
412.418	26.62
412.545	38.62
412.672	20.62
412.8	34.62
412.927	33.62
413.054	53.62
413.182	52.62
413.309	43.62
413.436	34.62
413.564	16.62
413.691	24.62
413.818	45.62
413.945	17.62
414.073	24.62
414.2	34.62
414.327	26.62
414.454	37.62
414.582	24.62
414.709	3.62
414.836	13.62
414.963	22.62
415.091	24.62
415.218	32.62
415.345	34.62
415.472	25.62
415.6	24.62
415.727	29.62
415.854	36.62
415.981	33.62
416.108	27.62
416.236	17.62
416.363	43.62
416.49	12.62
416.617	12.62
416.744	33.62
416.871	27.62
416.998	17.62
417.126	17.62
417.253	17.62
417.38	26.62
417.507	42.62
417.634	26.62
417.761	38.62
417.888	23.62
418.015	31.62
418.143	34.62
418.27	41.62
418.397	41.62
418.524	42.62
418.651	28.62
418.778	27.62
418.905	38.62
419.032	42.62
419.159	27.62
419.286	46.62
419.413	57.62
419.54	46.62
419.667	19.62
419.794	27.62
419.921	56.62
420.048	50.62
420.175	59.62
420.302	34.62
420.429	58.62
420.556	61.62
420.683	63.62
420.81	60.62
420.937	67.62
421.064	69.62
421.191	60.62
421.318	79.62
421.445	86.62
421.572	51.62
421.699	48.62
421.826	27.62
421.953	40.62
422.08	30.62
422.207	11.62
422.334	11.62
422.461	36.62
422.588	25.62
422.714	40.62
422.841	37.62
422.968	30.62
423.095	30.62
423.222	5.62
423.349	26.62
423.476	31.62
423.603	16.62
423.729	12.62
423.856	36.62
423.983	29.62
424.11	21.62
424.237	9.62
424.364	30.62
424.491	23.62
424.617	-2.38
424.744	9.62
424.871	17.62
424.998	1.62
425.125	16.62
425.251	1.62
425.378	5.62
425.505	19.62
425.632	22.62
425.758	15.62
425.885	25.62
426.012	33.62
426.139	36.62
426.266	4.62
426.392	43.62
426.519	32.62
426.646	24.62
426.772	19.62
426.899	10.62
427.026	16.62
427.153	17.62
427.279	32.62
427.406	11.62
427.533	12.62
427.659	24.62
427.786	24.62
427.913	27.62
428.039	39.62
428.166	17.62
428.293	24.62
428.419	45.62
428.546	36.62
428.673	35.62
428.799	0.62
428.926	17.62
429.053	33.62
429.179	36.62
429.306	32.62
429.433	57.62
429.559	37.62
429.686	26.62
429.812	17.62
429.939	23.62
430.066	33.62
430.192	20.62
430.319	20.62
430.445	25.62
430.572	30.62
430.699	29.62
430.825	4.62
430.952	38.62
431.078	27.62
431.205	36.62
431.331	34.62
431.458	35.62
431.584	22.62
431.711	27.62
431.837	39.62
431.964	21.62
432.09	38.62
432.217	22.62
432.343	15.62
432.47	35.62
432.596	35.62
432.723	7.62
432.849	29.62
432.976	32.62
433.102	18.62
433.229	23.62
433.355	36.62
433.482	89.62
433.608	117.62
433.735	123.62
433.861	108.62
433.987	151.62
434.114	187.62
434.24	163.62
434.367	223.62
434.493	208.62
434.62	262.62
434.746	363.62
434.872	622.62
434.999	823.62
435.125	1748.62
435.252	5559.62
435.378	13404.62
435.504	15215.62
435.631	15422.62
435.757	15683.62
435.883	15683.62
436.01	15683.62
436.136	15683.62
436.262	15683.62
436.389	3440.62
436.515	2162.62
436.641	795.62
436.768	633.62
436.894	390.62
437.02	398.62
437.147	291.62
437.273	292.62
437.399	207.62
437.526	245.62
437.652	170.62
437.778	203.62
437.904	153.62
438.031	173.62
438.157	141.62
438.283	157.62
438.409	117.62
438.536	123.62
438.662	119.62
438.788	119.62
438.914	100.62
439.041	97.62
439.167	106.62
439.293	83.62
439.419	80.62
439.546	111.62
439.672	87.62
439.798	98.62
439.924	103.62
440.05	93.62
440.177	69.62
440.303	82.62
440.429	69.62
440.555	85.62
440.681	64.62
440.807	84.62
440.934	67.62
441.06	65.62
441.186	55.62
441.312	59.62
441.438	73.62
441.564	64.62
441.69	46.62
441.816	60.62
441.943	44.62
442.069	62.62
442.195	44.62
442.321	64.62
442.447	37.62
442.573	55.62
442.699	48.62
442.825	49.62
442.951	64.62
443.077	54.62
443.203	57.62
443.33	52.62
443.456	17.62
443.582	56.62
443.708	27.62
443.834	51.62
443.96	51.62
444.086	31.62
444.212	68.62
444.338	61.62
444.464	48.62
444.59	61.62
444.716	41.62
444.842	52.62
444.968	20.62
445.094	32.62
445.22	20.62
445.346	19.62
445.472	26.62
445.598	41.62
445.724	49.62
445.85	31.62
445.976	40.62
446.102	35.62
446.228	42.62
446.354	33.62
446.48	39.62
446.605	35.62
446.731	37.62
446.857	22.62
446.983	40.62
447.109	27.62
447.235	36.62
447.361	43.62
447.487	51.62
447.613	41.62
447.739	27.62
447.865	18.62
447.99	23.62
448.116	33.62
448.242	39.62
448.368	28.62
448.494	33.62
448.62	44.62
448.746	31.62
448.872	20.62
448.997	11.62
449.123	28.62
449.249	46.62
449.375	38.62
449.501	22.62
449.627	27.62
449.752	42.62
449.878	22.62
450.004	25.62
450.13	18.62
450.256	16.62
450.381	35.62
450.507	34.62
450.633	15.62
450.759	50.62
450.884	15.62
451.01	24.62
451.136	10.62
451.262	34.62
451.388	33.62
451.513	11.62
451.639	30.62
451.765	26.62
451.89	24.62
452.016	6.62
452.142	16.62
452.268	29.62
452.393	28.62
452.519	25.62
452.645	32.62
452.771	21.62
452.896	17.62
453.022	12.62
453.148	33.62
453.273	35.62
453.399	34.62
453.525	27.62
453.65	11.62
453.776	32.62
453.902	44.62
454.027	41.62
454.153	33.62
454.279	34.62
454.404	25.62
454.53	46.62
454.656	54.62
454.781	8.62
454.907	9.62
455.032	27.62
455.158	29.62
455.284	46.62
455.409	28.62
455.535	22.62
455.66	38.62
455.786	25.62
455.912	11.62
456.037	2.62
456.163	21.62
456.288	26.62
456.414	27.62
456.539	20.62
456.665	10.62
456.791	11.62
456.916	22.62
457.042	36.62
457.167	12.62
457.293	24.62
457.418	37.62
457.544	31.62
457.669	19.62
457.795	31.62
457.92	34.62
458.046	51.62
458.171	36.62
458.297	14.62
458.422	12.62
458.548	8.62
458.673	21.62
458.799	22.62
458.924	22.62
459.05	14.62
459.175	14.62
459.301	10.62
459.426	32.62
459.552	18.62
459.677	21.62
459.803	53.62
459.928	28.62
460.053	34.62
460.179	25.62
460.304	33.62
460.43	17.62
460.555	17.62
460.681	15.62
460.806	20.62
460.931	23.62
461.057	32.62
461.182	4.62
461.308	31.62
461.433	43.62
461.558	26.62
461.684	30.62
461.809	25.62
461.934	30.62
462.06	38.62
462.185	10.62
462.311	20.62
462.436	29.62
462.561	14.62
462.687	14.62
462.812	25.62
462.937	21.62
463.063	20.62
463.188	8.62
463.313	27.62
463.439	35.62
463.564	12.62
463.689	20.62
463.814	33.62
463.94	36.62
464.065	52.62
464.19	32.62
464.316	-3.38
464.441	17.62
464.566	19.62
464.692	15.62
464.817	14.62
464.942	19.62
465.067	26.62
465.193	-3.38
465.318	4.62
465.443	18.62
465.568	29.62
465.694	24.62
465.819	24.62
465.944	37.62
466.069	29.62
466.194	14.62
466.32	33.62
466.445	20.62
466.57	12.62
466.695	19.62
466.82	28.62
466.946	41.62
467.071	43.62
467.196	33.62
467.321	27.62
467.446	24.62
467.572	26.62
467.697	27.62
467.822	37.62
467.947	35.62
468.072	19.62
468.197	19.62
468.323	14.62
468.448	41.62
468.573	7.62
468.698	27.62
468.823	18.62
468.948	40.62
469.073	48.62
469.198	50.62
469.324	43.62
469.449	25.62
469.574	55.62
469.699	52.62
469.824	32.62
469.949	36.62
470.074	37.62
470.199	55.62
470.324	51.62
470.449	53.62
470.574	19.62
470.7	26.62
470.825	22.62
470.95	46.62
471.075	30.62
471.2	48.62
471.325	63.62
471.45	42.62
471.575	36.62
471.7	46.62
471.825	24.62
471.95	24.62
472.075	31.62
472.2	35.62
472.325	33.62
472.45	33.62
472.575	24.62
472.7	19.62
472.825	48.62
472.95	44.62
473.075	48.62
473.2	24.62
473.325	36.62
473.45	31.62
473.575	52.62
473.7	52.62
473.825	34.62
473.95	32.62
474.075	40.62
474.2	26.62
474.325	13.62
474.45	26.62
474.574	18.62
474.699	29.62
474.824	22.62
474.949	17.62
475.074	29.62
475.199	23.62
475.324	44.62
475.449	28.62
475.574	31.62
475.699	32.62
475.824	39.62
475.949	24.62
476.073	25.62
476.198	18.62
476.323	22.62
476.448	14.62
476.573	29.62
476.698	16.62
476.823	18.62
476.947	22.62
477.072	20.62
477.197	4.62
477.322	14.62
477.447	14.62
477.572	32.62
477.697	2.62
477.821	10.62
477.946	21.62
478.071	34.62
478.196	46.62
478.321	30.62
478.445	25.62
478.57	27.62
478.695	21.62
478.82	18.62
478.945	23.62
479.069	13.62
479.194	13.62
479.319	18.62
479.444	15.62
479.569	15.62
479.693	28.62
479.818	21.62
479.943	31.62
480.068	24.62
480.192	26.62
480.317	30.62
480.442	9.62
480.567	11.62
480.691	22.62
480.816	11.62
480.941	28.62
481.066	42.62
481.19	41.62
481.315	16.62
481.44	30.62
481.564	3.62
481.689	17.62
481.814	17.62
481.938	22.62
482.063	7.62
482.188	26.62
482.313	33.62
482.437	18.62
482.562	22.62
482.687	24.62
482.811	25.62
482.936	21.62
483.061	35.62
483.185	21.62
483.31	21.62
483.435	9.62
483.559	21.62
483.684	18.62
483.808	32.62
483.933	12.62
484.058	18.62
484.182	18.62
484.307	32.62
484.432	25.62
484.556	5.62
484.681	9.62
484.805	21.62
484.93	29.62
485.055	23.62
485.179	44.62
485.304	36.62
485.428	33.62
485.553	25.62
485.678	19.62
485.802	39.62
485.927	47.62
486.051	37.62
486.176	31.62
486.3	14.62
486.425	17.62
486.549	21.62
486.674	33.62
486.799	12.62
486.923	18.62
487.048	18.62
487.172	8.62
487.297	13.62
487.421	24.62
487.546	14.62
487.67	24.62
487.795	15.62
487.919	15.62
488.044	30.62
488.168	21.62
488.293	16.62
488.417	20.62
488.542	20.62
488.666	40.62
488.791	26.62
488.915	25.62
489.04	33.62
489.164	26.62
489.289	39.62
489.413	17.62
489.538	12.62
489.662	31.62
489.786	28.62
489.911	18.62
490.035	4.62
490.16	12.62
490.284	15.62
490.409	14.62
490.533	13.62
490.658	33.62
490.782	25.62
490.906	59.62
491.031	127.62
491.155	137.62
491.28	140.62
491.404	153.62
491.528	265.62
491.653	167.62
491.777	71.62
491.902	21.62
492.026	30.62
492.15	28.62
492.275	30.62
492.399	30.62
492.524	10.62
492.648	38.62
492.772	29.62
492.897	37.62
493.021	-6.38
493.145	38.62
493.27	18.62
493.394	23.62
493.518	21.62
493.643	7.62
493.767	27.62
493.891	-4.38
494.016	11.62
494.14	17.62
494.264	24.62
494.389	34.62
494.513	16.62
494.637	10.62
494.762	18.62
494.886	25.62
495.01	29.62
495.134	10.62
495.259	30.62
495.383	27.62
495.507	12.62
495.632	42.62
495.756	47.62
495.88	37.62
496.004	35.62
496.129	20.62
496.253	38.62
496.377	24.62
496.501	22.62
496.626	4.62
496.75	28.62
496.874	34.62
496.998	15.62
497.123	21.62
497.247	22.62
497.371	19.62
497.495	20.62
497.62	11.62
497.744	6.62
497.868	20.62
497.992	20.62
498.116	13.62
498.241	36.62
498.365	24.62
498.489	16.62
498.613	33.62
498.737	21.62
498.862	20.62
498.986	13.62
499.11	22.62
499.234	23.62
499.358	17.62
499.482	26.62
499.607	28.62
499.731	23.62
499.855	7.62
499.979	30.62
500.103	30.62
500.227	10.62
500.351	5.62
500.476	32.62
500.6	19.62
500.724	33.62
500.848	20.62
500.972	37.62
501.096	19.62
501.22	41.62
501.344	47.62
501.469	9.62
501.593	11.62
501.717	-0.38
501.841	8.62
501.965	13.62
502.089	4.62
502.213	25.62
502.337	25.62
502.461	11.62
502.585	29.62
502.709	18.62
502.834	-2.38
502.958	9.62
503.082	12.62
503.206	27.62
503.33	45.62
503.454	41.62
503.578	30.62
503.702	41.62
503.826	16.62
503.95	27.62
504.074	17.62
504.198	17.62
504.322	8.62
504.446	28.62
504.57	17.62
504.694	13.62
504.818	-1.38
504.942	39.62
505.066	10.62
505.19	17.62
505.314	18.62
505.438	15.62
505.562	15.62
505.686	27.62
505.81	18.62
505.934	32.62
506.058	21.62
506.182	33.62
506.306	32.62
506.43	17.62
506.554	10.62
506.678	20.62
506.802	34.62
506.926	27.62
507.05	20.62
507.174	22.62
507.298	20.62
507.422	17.62
507.546	17.62
507.67	42.62
507.794	10.62
507.918	14.62
508.042	23.62
508.165	21.62
508.289	30.62
508.413	29.62
508.537	26.62
508.661	25.62
508.785	19.62
508.909	35.62
509.033	29.62
509.157	25.62
509.281	18.62
509.405	16.62
509.528	36.62
509.652	34.62
509.776	38.62
509.9	60.62
510.024	27.62
510.148	31.62
510.272	39.62
510.396	41.62
510.519	16.62
510.643	43.62
510.767	32.62
510.891	40.62
511.015	32.62
511.139	35.62
511.263	57.62
511.386	41.62
511.51	27.62
511.634	42.62
511.758	32.62
511.882	22.62
512.006	46.62
512.129	55.62
512.253	78.62
512.377	72.62
512.501	84.62
512.625	84.62
512.748	81.62
512.872	64.62
512.996	56.62
513.12	49.62
513.244	55.62
513.367	68.62
513.491	64.62
513.615	51.62
513.739	60.62
513.862	66.62
513.986	76.62
514.11	89.62
514.234	95.62
514.358	116.62
514.481	126.62
514.605	101.62
514.729	93.62
514.853	122.62
514.976	100.62
515.1	83.62
515.224	92.62
515.348	79.62
515.471	78.62
515.595	86.62
515.719	122.62
515.842	220.62
515.966	246.62
516.09	296.62
516.214	299.62
516.337	325.62
516.461	210.62
516.585	72.62
516.708	50.62
516.832	45.62
516.956	25.62
517.08	22.62
517.203	8.62
517.327	22.62
517.451	19.62
517.574	34.62
517.698	8.62
517.822	17.62
517.945	20.62
518.069	26.62
518.193	59.62
518.316	24.62
518.44	33.62
518.564	21.62
518.687	8.62
518.811	1.62
518.935	44.62
519.058	14.62
519.182	14.62
519.306	17.62
519.429	-3.38
519.553	41.62
519.676	16.62
519.8	20.62
519.924	13.62
520.047	25.62
520.171	6.62
520.294	2.62
520.418	26.62
520.542	26.62
520.665	17.62
520.789	9.62
520.913	9.62
521.036	5.62
521.16	11.62
521.283	18.62
521.407	13.62
521.53	10.62
521.654	-5.38
521.778	26.62
521.901	10.62
522.025	15.62
522.148	6.62
522.272	10.62
522.395	-0.38
522.519	14.62
522.643	12.62
522.766	11.62
522.89	17.62
523.013	28.62
523.137	17.62
523.26	7.62
523.384	15.62
523.507	13.62
523.631	22.62
523.754	24.62
523.878	17.62
524.002	4.62
524.125	0.62
524.249	4.62
524.372	20.62
524.496	38.62
524.619	12.62
524.743	17.62
524.866	8.62
524.99	24.62
525.113	6.62
525.237	15.62
525.36	23.62
525.484	25.62
525.607	18.62
525.731	8.62
525.854	11.62
525.978	13.62
526.101	20.62
526.224	17.62
526.348	8.62
526.471	10.62
526.595	3.62
526.718	16.62
526.842	0.62
526.965	36.62
527.089	20.62
527.212	17.62
527.336	22.62
527.459	37.62
527.582	4.62
527.706	17.62
527.829	29.62
527.953	20.62
528.076	4.62
528.2	7.62
528.323	18.62
528.446	45.62
528.57	13.62
528.693	25.62
528.817	7.62
528.94	40.62
529.064	50.62
529.187	21.62
529.31	15.62
529.434	22.62
529.557	26.62
529.68	8.62
529.804	31.62
529.927	31.62
530.051	17.62
530.174	-7.38
530.297	10.62
530.421	16.62
530.544	37.62
530.668	24.62
530.791	3.62
530.914	28.62
531.038	7.62
531.161	1.62
531.284	12.62
531.408	11.62
531.531	12.62
531.654	21.62
531.778	11.62
531.901	1.62
532.024	8.62
532.148	14.62
532.271	35.62
532.394	11.62
532.518	24.62
532.641	23.62
532.764	26.62
532.888	11.62
533.011	-1.38
533.134	9.62
533.258	22.62
533.381	16.62
533.504	16.62
533.628	11.62
533.751	17.62
533.874	28.62
533.997	17.62
534.121	-5.38
534.244	11.62
534.367	11.62
534.491	26.62
534.614	13.62
534.737	23.62
534.86	20.62
534.984	24.62
535.107	25.62
535.23	16.62
535.354	15.62
535.477	-4.38
535.6	2.62
535.723	14.62
535.847	18.62
535.97	-7.38
536.093	28.62
536.216	4.62
536.34	21.62
536.463	-1.38
536.586	26.62
536.709	18.62
536.833	19.62
536.956	-0.38
537.079	9.62
537.202	43.62
537.325	13.62
537.449	11.62
537.572	13.62
537.695	29.62
537.818	25.62
537.941	23.62
538.065	8.62
538.188	22.62
538.311	33.62
538.434	4.62
538.558	23.62
538.681	19.62
538.804	16.62
538.927	21.62
539.05	28.62
539.173	4.62
539.297	21.62
539.42	17.62
539.543	22.62
539.666	39.62
539.789	42.62
539.913	30.62
540.036	22.62
540.159	28.62
540.282	19.62
540.405	19.62
540.528	18.62
540.651	39.62
540.775	24.62
540.898	41.62
541.021	21.62
541.144	54.62
541.267	22.62
541.39	31.62
541.513	44.62
541.637	40.62
541.76	25.62
541.883	19.62
542.006	39.62
542.129	43.62
542.252	31.62
542.375	45.62
542.498	39.62
542.622	46.62
542.745	50.62
542.868	39.62
542.991	58.62
543.114	57.62
543.237	56.62
543.36	53.62
543.483	57.62
543.606	66.62
543.73	86.62
543.853	74.62
543.976	85.62
544.099	103.62
544.222	128.62
544.345	146.62
544.468	175.62
544.591	216.62
544.714	274.62
544.837	334.62
544.96	444.62
545.083	651.62
545.206	1090.62
545.329	2473.62
545.453	11038.62
545.576	15270.62
545.699	15683.62
545.822	15683.62
545.945	15683.62
546.068	15683.62
546.191	15683.62
546.314	15683.62
546.437	15683.62
546.56	15683.62
546.683	15683.62
546.806	15683.62
546.929	15683.62
547.052	15683.62
547.175	15683.62
547.298	15683.62
547.421	15683.62
547.544	15683.62
547.667	3573.62
547.79	2995.62
547.913	1105.62
548.036	919.62
548.159	628.62
548.282	629.62
548.405	479.62
548.528	487.62
548.651	382.62
548.774	371.62
548.897	335.62
549.02	351.62
549.143	320.62
549.266	315.62
549.389	261.62
549.512	264.62
549.635	264.62
549.758	251.62
549.881	210.62
550.004	225.62
550.127	196.62
550.25	206.62
550.373	172.62
550.496	186.62
550.619	155.62
550.742	144.62
550.865	144.62
550.988	151.62
551.111	166.62
551.234	145.62
551.356	106.62
551.479	108.62
551.602	118.62
551.725	133.62
551.848	133.62
551.971	132.62
552.094	120.62
552.217	117.62
552.34	106.62
552.463	90.62
552.586	112.62
552.709	100.62
552.832	109.62
552.955	108.62
553.077	109.62
553.2	103.62
553.323	77.62
553.446	105.62
553.569	95.62
553.692	114.62
553.815	100.62
553.938	102.62
554.061	89.62
554.184	99.62
554.306	98.62
554.429	96.62
554.552	62.62
554.675	58.62
554.798	85.62
554.921	83.62
555.044	63.62
555.167	77.62
555.29	82.62
555.412	85.62
555.535	69.62
555.658	62.62
555.781	89.62
555.904	77.62
556.027	73.62
556.15	84.62
556.272	78.62
556.395	84.62
556.518	68.62
556.641	69.62
556.764	80.62
556.887	68.62
557.01	78.62
557.132	54.62
557.255	69.62
557.378	82.62
557.501	59.62
557.624	67.62
557.747	75.62
557.869	72.62
557.992	85.62
558.115	104.62
558.238	67.62
558.361	78.62
558.483	91.62
558.606	70.62
558.729	49.62
558.852	65.62
558.975	61.62
559.098	68.62
559.22	62.62
559.343	58.62
559.466	51.62
559.589	41.62
559.712	37.62
559.834	68.62
559.957	49.62
560.08	48.62
560.203	49.62
560.325	63.62
560.448	62.62
560.571	57.62
560.694	47.62
560.817	69.62
560.939	54.62
561.062	59.62
561.185	59.62
561.308	58.62
561.43	50.62
561.553	58.62
561.676	75.62
561.799	81.62
561.921	66.62
562.044	77.62
562.167	61.62
562.29	77.62
562.413	73.62
562.535	66.62
562.658	49.62
562.781	44.62
562.903	66.62
563.026	99.62
563.149	127.62
563.272	106.62
563.394	103.62
563.517	99.62
563.64	84.62
563.763	64.62
563.885	73.62
564.008	76.62
564.131	37.62
564.254	25.62
564.376	36.62
564.499	30.62
564.622	26.62
564.744	61.62
564.867	35.62
564.99	43.62
565.113	40.62
565.235	32.62
565.358	11.62
565.481	15.62
565.603	21.62
565.726	53.62
565.849	43.62
565.971	30.62
566.094	36.62
566.217	36.62
566.34	28.62
566.462	42.62
566.585	44.62
566.708	70.62
566.83	29.62
566.953	39.62
567.076	32.62
567.198	52.62
567.321	42.62
567.444	38.62
567.566	32.62
567.689	27.62
567.812	29.62
567.934	41.62
568.057	24.62
568.18	31.62
568.302	34.62
568.425	40.62
568.548	17.62
568.67	46.62
568.793	22.62
568.916	45.62
569.038	18.62
569.161	38.62
569.283	35.62
569.406	48.62
569.529	26.62
569.651	26.62
569.774	25.62
569.897	20.62
570.019	40.62
570.142	44.62
570.265	37.62
570.387	33.62
570.51	32.62
570.632	48.62
570.755	34.62
570.878	21.62
571	30.62
571.123	32.62
571.246	49.62
571.368	25.62
571.491	22.62
571.613	25.62
571.736	23.62
571.859	28.62
571.981	32.62
572.104	19.62
572.226	32.62
572.349	27.62
572.472	38.62
572.594	35.62
572.717	39.62
572.839	33.62
572.962	37.62
573.085	50.62
573.207	20.62
573.33	26.62
573.452	44.62
573.575	42.62
573.697	41.62
573.82	35.62
573.943	24.62
574.065	39.62
574.188	45.62
574.31	57.62
574.433	34.62
574.555	41.62
574.678	40.62
574.801	42.62
574.923	22.62
575.046	45.62
575.168	30.62
575.291	44.62
575.413	36.62
575.536	44.62
575.659	57.62
575.781	47.62
575.904	55.62
576.026	69.62
576.149	77.62
576.271	141.62
576.394	199.62
576.516	513.62
576.639	3609.62
576.761	10168.62
576.884	8801.62
577.007	8842.62
577.129	8090.62
577.252	3726.62
577.374	1312.62
577.497	526.62
577.619	277.62
577.742	162.62
577.864	157.62
577.987	128.62
578.109	138.62
578.232	124.62
578.354	170.62
578.477	208.62
578.599	417.62
578.722	1936.62
578.844	9097.62
578.967	9948.62
579.089	8817.62
579.212	9087.62
579.334	5281.62
579.457	1933.62
579.579	736.62
579.702	327.62
579.824	214.62
579.947	125.62
580.069	114.62
580.192	99.62
580.314	102.62
580.437	74.62
580.559	93.62
580.682	71.62
580.804	70.62
580.927	74.62
581.049	65.62
581.172	54.62
581.294	40.62
581.417	56.62
581.539	28.62
581.662	43.62
581.784	50.62
581.907	37.62
582.029	40.62
582.152	32.62
582.274	40.62
582.396	25.62
582.519	28.62
582.641	12.62
582.764	32.62
582.886	53.62
583.009	32.62
583.131	21.62
583.254	36.62
583.376	36.62
583.499	29.62
583.621	41.62
583.743	33.62
583.866	37.62
583.988	36.62
584.111	58.62
584.233	50.62
584.356	33.62
584.478	34.62
584.601	23.62
584.723	39.62
584.845	38.62
584.968	30.62
585.09	29.62
585.213	26.62
585.335	20.62
585.458	30.62
585.58	35.62
585.702	48.62
585.825	53.62
585.947	40.62
586.07	20.62
586.192	32.62
586.315	32.62
586.437	14.62
586.559	13.62
586.682	20.62
586.804	33.62
586.927	38.62
587.049	25.62
587.171	40.62
587.294	36.62
587.416	43.62
587.539	34.62
587.661	-0.38
587.783	31.62
587.906	20.62
588.028	30.62
588.151	24.62
588.273	40.62
588.395	15.62
588.518	24.62
588.64	27.62
588.763	29.62
588.885	18.62
589.007	29.62
589.13	27.62
589.252	15.62
589.375	34.62
589.497	45.62
589.619	29.62
589.742	22.62
589.864	35.62
589.986	28.62
590.109	16.62
590.231	23.62
590.354	30.62
590.476	23.62
590.598	25.62
590.721	11.62
590.843	49.62
590.965	36.62
591.088	28.62
591.21	20.62
591.332	36.62
591.455	28.62
591.577	30.62
591.7	26.62
591.822	29.62
591.944	33.62
592.067	34.62
592.189	25.62
592.311	15.62
592.434	4.62
592.556	42.62
592.678	31.62
592.801	26.62
592.923	24.62
593.045	24.62
593.168	29.62
593.29	16.62
593.412	39.62
593.535	8.62
593.657	17.62
593.779	28.62
593.902	40.62
594.024	25.62
594.146	27.62
594.269	28.62
594.391	24.62
594.513	34.62
594.636	28.62
594.758	12.62
594.88	28.62
595.003	36.62
595.125	6.62
595.247	21.62
595.37	25.62
595.492	26.62
595.614	34.62
595.737	31.62
595.859	23.62
595.981	19.62
596.104	16.62
596.226	23.62
596.348	26.62
596.471	22.62
596.593	28.62
596.715	8.62
596.838	11.62
596.96	13.62
597.082	17.62
597.204	16.62
597.327	25.62
597.449	23.62
597.571	30.62
597.694	22.62
597.816	31.62
597.938	32.62
598.061	28.62
598.183	16.62
598.305	34.62
598.427	38.62
598.55	30.62
598.672	39.62
598.794	20.62
598.917	10.62
599.039	32.62
599.161	30.62
599.283	30.62
599.406	28.62
599.528	36.62
599.65	45.62
599.773	31.62
599.895	51.62
600.017	21.62
600.139	16.62
600.262	11.62
600.384	20.62
600.506	29.62
600.628	36.62
600.751	36.62
600.873	28.62
600.995	24.62
601.118	32.62
601.24	36.62
601.362	52.62
601.484	44.62
601.607	16.62
601.729	17.62
601.851	32.62
601.973	11.62
602.096	30.62
602.218	26.62
602.34	17.62
602.462	36.62
602.585	20.62
602.707	27.62
602.829	14.62
602.951	19.62
603.074	6.62
603.196	21.62
603.318	5.62
603.44	29.62
603.563	21.62
603.685	1.62
603.807	21.62
603.929	30.62
604.052	33.62
604.174	32.62
604.296	11.62
604.418	32.62
604.541	43.62
604.663	21.62
604.785	4.62
604.907	21.62
605.03	0.62
605.152	51.62
605.274	4.62
605.396	28.62
605.519	33.62
605.641	24.62
605.763	11.62
605.885	20.62
606.008	17.62
606.13	28.62
606.252	27.62
606.374	20.62
606.496	22.62
606.619	18.62
606.741	6.62
606.863	35.62
606.985	40.62
607.108	37.62
607.23	12.62
607.352	28.62
607.474	19.62
607.596	32.62
607.719	26.62
607.841	31.62
607.963	12.62
608.085	30.62
608.207	37.62
608.33	16.62
608.452	12.62
608.574	11.62
608.696	38.62
608.819	34.62
608.941	10.62
609.063	-2.38
609.185	2.62
609.307	14.62
609.43	29.62
609.552	38.62
609.674	9.62
609.796	44.62
609.918	31.62
610.041	22.62
610.163	28.62
610.285	23.62
610.407	25.62
610.529	14.62
610.652	42.62
610.774	32.62
610.896	24.62
611.018	26.62
611.14	13.62
611.263	13.62
611.385	8.62
611.507	15.62
611.629	5.62
611.751	20.62
611.873	43.62
611.996	26.62
612.118	42.62
612.24	34.62
612.362	29.62
612.484	46.62
612.607	57.62
612.729	47.62
612.851	40.62
612.973	21.62
613.095	10.62
613.218	30.62
613.34	37.62
613.462	28.62
613.584	13.62
613.706	21.62
613.828	28.62
613.951	12.62
614.073	3.62
614.195	-2.38
614.317	38.62
614.439	35.62
614.561	17.62
614.684	6.62
614.806	30.62
614.928	31.62
615.05	12.62
615.172	41.62
615.294	50.62
615.417	39.62
615.539	17.62
615.661	14.62
615.783	32.62
615.905	25.62
616.027	32.62
616.15	38.62
616.272	23.62
616.394	36.62
616.516	28.62
616.638	12.62
616.76	16.62
616.883	23.62
617.005	26.62
617.127	22.62
617.249	25.62
617.371	20.62
617.493	10.62
617.615	31.62
617.738	12.62
617.86	14.62
617.982	20.62
618.104	37.62
618.226	21.62
618.348	18.62
618.471	33.62
618.593	37.62
618.715	20.62
618.837	21.62
618.959	22.62
619.081	32.62
619.203	36.62
619.326	33.62
619.448	32.62
619.57	17.62
619.692	34.62
619.814	34.62
619.936	57.62
620.058	27.62
620.181	22.62
620.303	29.62
620.425	39.62
620.547	16.62
620.669	8.62
620.791	28.62
620.913	14.62
621.036	-2.38
621.158	16.62
621.28	14.62
621.402	13.62
621.524	14.62
621.646	32.62
621.768	8.62
621.891	3.62
622.013	29.62
622.135	31.62
622.257	25.62
622.379	14.62
622.501	16.62
622.623	15.62
622.745	25.62
622.868	31.62
622.99	12.62
623.112	18.62
623.234	21.62
623.356	33.62
623.478	8.62
623.6	30.62
623.722	20.62
623.845	31.62
623.967	11.62
624.089	42.62
624.211	14.62
624.333	15.62
624.455	28.62
624.577	7.62
624.699	33.62
624.822	6.62
624.944	6.62
625.066	21.62
625.188	17.62
625.31	10.62
625.432	38.62
625.554	24.62
625.676	48.62
625.799	35.62
625.921	35.62
626.043	15.62
626.165	23.62
626.287	-1.38
626.409	26.62
626.531	12.62
626.653	18.62
626.775	12.62
626.898	21.62
627.02	32.62
627.142	43.62
627.264	21.62
627.386	26.62
627.508	15.62
627.63	12.62
627.752	28.62
627.874	20.62
627.997	29.62
628.119	23.62
628.241	27.62
628.363	23.62
628.485	22.62
628.607	10.62
628.729	19.62
628.851	17.62
628.973	24.62
629.096	-11.38
629.218	11.62
629.34	28.62
629.462	15.62
629.584	18.62
629.706	19.62
629.828	40.62
629.95	26.62
630.072	11.62
630.195	7.62
630.317	-2.38
630.439	8.62
630.561	24.62
630.683	10.62
630.805	8.62
630.927	25.62
631.049	12.62
631.171	8.62
631.293	8.62
631.416	20.62
631.538	23.62
631.66	22.62
631.782	24.62
631.904	29.62
632.026	10.62
632.148	25.62
632.27	16.62
632.392	18.62
632.514	15.62
632.637	8.62
632.759	-2.38
632.881	1.62
633.003	9.62
633.125	-1.38
633.247	21.62
633.369	27.62
633.491	14.62
633.613	33.62
633.735	15.62
633.858	24.62
633.98	25.62
634.102	23.62
634.224	13.62
634.346	-0.38
634.468	20.62
634.59	4.62
634.712	3.62
634.834	22.62
634.956	0.62
635.078	0.62
635.201	9.62
635.323	10.62
635.445	-1.38
635.567	-23.38
635.689	9.62
635.811	8.62
635.933	14.62
636.055	15.62
636.177	-3.38
636.299	32.62
636.421	-0.38
636.544	-3.38
636.666	24.62
636.788	31.62
636.91	14.62
637.032	6.62
637.154	14.62
637.276	39.62
637.398	24.62
637.52	33.62
637.642	20.62
637.764	24.62
637.887	8.62
638.009	10.62
638.131	20.62
638.253	-0.38
638.375	15.62
638.497	9.62
638.619	6.62
638.741	-5.38
638.863	-1.38
638.985	13.62
639.107	17.62
639.23	-1.38
639.352	21.62
639.474	10.62
639.596	27.62
639.718	5.62
639.84	18.62
639.962	5.62
640.084	14.62
640.206	17.62
640.328	8.62
640.45	14.62
640.573	18.62
640.695	23.62
640.817	21.62
640.939	1.62
641.061	3.62
641.183	13.62
641.305	22.62
641.427	14.62
641.549	16.62
641.671	31.62
641.793	25.62
641.915	24.62
642.038	18.62
642.16	4.62
642.282	4.62
642.404	9.62
642.526	21.62
642.648	-8.38
642.77	22.62
642.892	4.62
643.014	27.62
643.136	9.62
643.258	15.62
643.381	25.62
643.503	36.62
643.625	9.62
643.747	5.62
643.869	6.62
643.991	12.62
644.113	18.62
644.235	10.62
644.357	20.62
644.479	26.62
644.601	16.62
644.723	12.62
644.846	9.62
644.968	1.62
645.09	9.62
645.212	16.62
645.334	26.62
645.456	25.62
645.578	18.62
645.7	13.62
645.822	19.62
645.944	25.62
646.066	21.62
646.188	16.62
646.311	24.62
646.433	10.62
646.555	30.62
646.677	16.62
646.799	6.62
646.921	7.62
647.043	22.62
647.165	1.62
647.287	6.62
647.409	-0.38
647.531	28.62
647.654	-9.38
647.776	28.62
647.898	9.62
648.02	14.62
648.142	15.62
648.264	7.62
648.386	4.62
648.508	-11.38
648.63	21.62
648.752	26.62
648.874	8.62
648.997	10.62
649.119	29.62
649.241	12.62
649.363	20.62
649.485	26.62
649.607	20.62
649.729	-3.38
649.851	20.62
649.973	14.62
650.095	15.62
650.217	11.62
650.34	-8.38
650.462	4.62
650.584	10.62
650.706	15.62
650.828	25.62
650.95	-3.38
651.072	0.62
651.194	0.62
651.316	20.62
651.438	9.62
651.56	9.62
651.683	5.62
651.805	13.62
651.927	24.62
652.049	13.62
652.171	3.62
652.293	0.62
652.415	9.62
652.537	-15.38
652.659	7.62
652.781	12.62
652.903	19.62
653.026	37.62
653.148	4.62
653.27	20.62
653.392	27.62
653.514	10.62
653.636	6.62
653.758	5.62
653.88	8.62
654.002	-1.38
654.124	-7.38
654.247	-9.38
654.369	36.62
654.491	14.62
654.613	20.62
654.735	15.62
654.857	15.62
654.979	4.62
655.101	11.62
655.223	16.62
655.345	8.62
655.468	14.62
655.59	10.62
655.712	21.62
655.834	10.62
655.956	22.62
656.078	16.62
656.2	13.62
656.322	-4.38
656.444	-2.38
656.566	23.62
656.689	16.62
656.811	20.62
656.933	34.62
657.055	0.62
657.177	4.62
657.299	13.62
657.421	4.62
657.543	17.62
657.665	8.62
657.787	6.62
657.91	-1.38
658.032	-0.38
658.154	1.62
658.276	18.62
658.398	-10.38
658.52	1.62
658.642	0.62
658.764	12.62
658.886	-5.38
659.009	15.62
659.131	16.62
659.253	15.62
659.375	15.62
659.497	-6.38
659.619	13.62
659.741	12.62
659.863	11.62
659.985	4.62
660.108	27.62
660.23	3.62
660.352	13.62
660.474	5.62
660.596	10.62
660.718	16.62
660.84	12.62
660.962	28.62
661.084	-5.38
661.207	15.62
661.329	12.62
661.451	-3.38
661.573	13.62
661.695	26.62
661.817	24.62
661.939	42.62
662.061	25.62
662.184	5.62
662.306	6.62
662.428	16.62
662.55	19.62
662.672	10.62
662.794	3.62
662.916	2.62
663.038	-3.38
663.161	23.62
663.283	19.62
663.405	12.62
663.527	-1.38
663.649	14.62
663.771	16.62
663.893	-2.38
664.015	-1.38
664.138	-4.38
664.26	10.62
664.382	13.62
664.504	12.62
664.626	-10.38
664.748	0.62
664.87	0.62
664.992	-0.38
665.115	0.62
665.237	-2.38
665.359	0.62
665.481	14.62
665.603	22.62
665.725	2.62
665.847	-11.38
665.97	-7.38
666.092	13.62
666.214	6.62
666.336	-5.38
666.458	9.62
666.58	5.62
666.702	5.62
666.825	-4.38
666.947	-6.38
667.069	21.62
667.191	12.62
667.313	25.62
667.435	4.62
667.557	-9.38
667.68	7.62
667.802	9.62
667.924	0.62
668.046	18.62
668.168	24.62
668.29	29.62
668.412	-0.38
668.535	13.62
668.657	20.62
668.779	2.62
668.901	3.62
669.023	13.62
669.145	12.62
669.267	15.62
669.39	10.62
669.512	20.62
669.634	12.62
669.756	-2.38
669.878	-0.38
670	10.62
670.123	23.62
670.245	43.62
670.367	28.62
670.489	11.62
670.611	14.62
670.733	6.62
670.856	9.62
670.978	22.62
671.1	13.62
671.222	6.62
671.344	13.62
671.466	-6.38
671.589	8.62
671.711	7.62
671.833	-9.38
671.955	0.62
672.077	20.62
672.199	29.62
672.322	30.62
672.444	8.62
672.566	12.62
672.688	-0.38
672.81	22.62
672.932	10.62
673.055	16.62
673.177	-1.38
673.299	17.62
673.421	-2.38
673.543	-0.38
673.665	16.62
673.788	23.62
673.91	14.62
674.032	-0.38
674.154	1.62
674.276	17.62
674.399	4.62
674.521	1.62
674.643	16.62
674.765	-0.38
674.887	8.62
675.009	5.62
675.132	-6.38
675.254	6.62
675.376	3.62
675.498	14.62
675.62	25.62
675.743	18.62
675.865	18.62
675.987	-8.38
676.109	3.62
676.231	4.62
676.354	22.62
676.476	6.62
676.598	25.62
676.72	9.62
676.842	9.62
676.965	8.62
677.087	17.62
677.209	15.62
677.331	13.62
677.453	26.62
677.576	7.62
677.698	19.62
677.82	25.62
677.942	14.62
678.064	6.62
678.187	13.62
678.309	10.62
678.431	4.62
678.553	6.62
678.675	20.62
678.798	20.62
678.92	8.62
679.042	20.62
679.164	2.62
679.286	23.62
679.409	13.62
679.531	1.62
679.653	13.62
679.775	-15.38
679.898	0.62
680.02	16.62
680.142	14.62
680.264	19.62
680.386	16.62
680.509	16.62
680.631	24.62
680.753	16.62
680.875	8.62
680.998	5.62
681.12	18.62
681.242	17.62
681.364	-7.38
681.486	16.62
681.609	8.62
681.731	8.62
681.853	4.62
681.975	11.62
682.098	17.62
682.22	33.62
682.342	2.62
682.464	16.62
682.587	9.62
682.709	4.62
682.831	-7.38
682.953	7.62
683.076	7.62
683.198	24.62
683.32	0.62
683.442	18.62
683.565	12.62
683.687	4.62
683.809	13.62
683.931	0.62
684.054	28.62
684.176	14.62
684.298	27.62
684.42	-7.38
684.543	8.62
684.665	9.62
684.787	-4.38
684.909	6.62
685.032	12.62
685.154	-13.38
685.276	8.62
685.398	10.62
685.521	10.62
685.643	17.62
685.765	12.62
685.887	12.62
686.01	0.62
686.132	16.62
686.254	14.62
686.377	12.62
686.499	14.62
686.621	18.62
686.743	2.62
686.866	-0.38
686.988	20.62
687.11	24.62
687.232	4.62
687.355	2.62
687.477	-3.38
687.599	20.62
687.722	-7.38
687.844	-1.38
687.966	9.62
688.088	22.62
688.211	23.62
688.333	12.62
688.455	4.62
688.578	6.62
688.7	25.62
688.822	16.62
688.944	-14.38
689.067	32.62
689.189	6.62
689.311	6.62
689.434	-2.38
689.556	14.62
689.678	20.62
689.801	-0.38
689.923	4.62
690.045	16.62
690.167	25.62
690.29	9.62
690.412	13.62
690.534	29.62
690.657	16.62
690.779	1.62
690.901	18.62
691.024	5.62
691.146	11.62
691.268	5.62
691.391	1.62
691.513	12.62
691.635	11.62
691.758	21.62
691.88	24.62
692.002	16.62
692.125	11.62
692.247	1.62
692.369	10.62
692.492	8.62
692.614	7.62
692.736	6.62
692.859	14.62
692.981	4.62
693.103	9.62
693.226	15.62
693.348	24.62
693.47	15.62
693.593	39.62
693.715	31.62
693.837	33.62
693.96	19.62
694.082	12.62
694.204	20.62
694.327	6.62
694.449	-4.38
694.571	11.62
694.694	14.62
694.816	6.62
694.938	-0.38
695.061	10.62
695.183	8.62
695.305	9.62
695.428	-3.38
695.55	-10.38
695.672	0.62
695.795	15.62
695.917	17.62
696.04	-6.38
696.162	9.62
696.284	14.62
696.407	16.62
696.529	0.62
696.651	44.62
696.774	6.62
696.896	7.62
697.019	8.62
697.141	-3.38
697.263	6.62
697.386	1.62
697.508	16.62
697.63	8.62
697.753	17.62
697.875	10.62
697.998	5.62
698.12	9.62
698.242	18.62
698.365	11.62
698.487	10.62
698.61	20.62
698.732	18.62
698.854	12.62
698.977	7.62
699.099	-0.38
699.221	7.62
699.344	6.62
699.466	24.62
699.589	17.62
699.711	-7.38
699.834	-18.38
699.956	-0.38
700.078	4.62
700.201	-0.38
700.323	26.62
700.446	9.62
700.568	9.62
700.69	20.62
700.813	16.62
700.935	11.62
701.058	9.62
701.18	13.62
701.302	4.62
701.425	10.62
701.547	12.62
701.67	4.62
701.792	15.62
701.915	6.62
702.037	-1.38
702.159	15.62
702.282	12.62
702.404	0.62
702.527	17.62
702.649	17.62
702.772	16.62
702.894	13.62
703.017	1.62
703.139	8.62
703.261	17.62
703.384	29.62
703.506	-8.38
703.629	-1.38
703.751	9.62
703.874	16.62
703.996	2.62
704.119	1.62
704.241	22.62
704.364	-0.38
704.486	15.62
704.608	11.62
704.731	20.62
704.853	22.62
704.976	8.62
705.098	20.62
705.221	9.62
705.343	14.62
705.466	17.62
705.588	18.62
705.711	3.62
705.833	25.62
705.956	24.62
706.078	15.62
706.201	0.62
706.323	18.62
706.446	3.62
