Data from LowRes_mercury_15_20_11_07_2024_HR4C61881__36__15-23-35-871.txt Node

Date: Thu Nov 07 15:23:35 EST 2024
User: crc00042
Spectrometer: HR4C6188
Trigger mode: 4
Integration Time (sec): 1.000000E-1
Scans to average: 1
Electric dark correction enabled: true
Nonlinearity correction enabled: false
Boxcar width: 0
XAxis mode: Wavelengths
Number of Pixels in Spectrum: 3648
>>>>>Begin Spectral Data<<<<<
245.66	-74.77
245.797	-74.77
245.934	-74.77
246.071	-74.77
246.208	8.23
246.344	9.23
246.481	-10.77
246.618	2.23
246.755	23.23
246.892	-2.77
247.029	-19.77
247.165	-22.77
247.302	4.23
247.439	-2.77
247.576	15.23
247.713	-7.77
247.849	21.23
247.986	-8.77
248.123	10.23
248.26	-1.77
248.396	16.23
248.533	9.23
248.67	-9.77
248.806	16.23
248.943	-9.77
249.08	-0.77
249.216	8.23
249.353	-19.77
249.49	-19.77
249.626	14.23
249.763	6.23
249.9	-0.77
250.036	-2.77
250.173	12.23
250.309	-4.77
250.446	2.23
250.582	-3.77
250.719	-8.77
250.856	5.23
250.992	-3.77
251.129	-7.77
251.265	-15.77
251.402	-9.77
251.538	-15.77
251.675	-16.77
251.811	14.23
251.948	4.23
252.084	0.23
252.221	-8.77
252.357	-10.77
252.493	24.23
252.63	8.23
252.766	10.23
252.903	-11.77
253.039	-2.77
253.175	-3.77
253.312	3.23
253.448	3.23
253.585	-8.77
253.721	1.23
253.857	-5.77
253.994	8.23
254.13	2.23
254.266	15.23
254.403	12.23
254.539	2.23
254.675	6.23
254.811	-18.77
254.948	-5.77
255.084	0.23
255.22	-4.77
255.356	4.23
255.493	1.23
255.629	4.23
255.765	-3.77
255.901	12.23
256.037	-5.77
256.174	7.23
256.31	-9.77
256.446	-13.77
256.582	-13.77
256.718	-1.77
256.854	25.23
256.991	14.23
257.127	21.23
257.263	25.23
257.399	13.23
257.535	-12.77
257.671	-24.77
257.807	-12.77
257.943	-15.77
258.079	-16.77
258.215	-4.77
258.351	19.23
258.487	-0.77
258.623	15.23
258.759	4.23
258.895	-8.77
259.031	2.23
259.167	-17.77
259.303	14.23
259.439	0.23
259.575	3.23
259.711	6.23
259.847	-4.77
259.983	-2.77
260.119	2.23
260.255	-4.77
260.391	5.23
260.527	-4.77
260.663	12.23
260.799	4.23
260.934	-3.77
261.07	4.23
261.206	-13.77
261.342	-9.77
261.478	-3.77
261.614	6.23
261.749	19.23
261.885	-16.77
262.021	10.23
262.157	8.23
262.293	-2.77
262.428	4.23
262.564	14.23
262.7	-10.77
262.836	-13.77
262.971	0.23
263.107	5.23
263.243	26.23
263.378	-5.77
263.514	-19.77
263.65	-6.77
263.785	-7.77
263.921	4.23
264.057	2.23
264.192	-5.77
264.328	32.23
264.464	13.23
264.599	3.23
264.735	11.23
264.871	6.23
265.006	15.23
265.142	9.23
265.277	21.23
265.413	24.23
265.548	20.23
265.684	21.23
265.819	-4.77
265.955	-3.77
266.091	-5.77
266.226	-5.77
266.362	17.23
266.497	10.23
266.633	11.23
266.768	-0.77
266.903	17.23
267.039	22.23
267.174	26.23
267.31	7.23
267.445	-10.77
267.581	-12.77
267.716	5.23
267.851	0.23
267.987	-1.77
268.122	6.23
268.258	-8.77
268.393	-6.77
268.528	13.23
268.664	-23.77
268.799	-9.77
268.934	5.23
269.07	-9.77
269.205	13.23
269.34	13.23
269.476	-6.77
269.611	-5.77
269.746	11.23
269.881	-3.77
270.017	16.23
270.152	0.23
270.287	-3.77
270.422	4.23
270.558	-14.77
270.693	20.23
270.828	-10.77
270.963	-18.77
271.098	-9.77
271.234	-7.77
271.369	14.23
271.504	14.23
271.639	-17.77
271.774	-15.77
271.909	3.23
272.045	-20.77
272.18	-5.77
272.315	-4.77
272.45	11.23
272.585	-9.77
272.72	-2.77
272.855	-0.77
272.99	14.23
273.125	3.23
273.26	-4.77
273.395	8.23
273.53	-12.77
273.665	13.23
273.8	7.23
273.935	20.23
274.07	6.23
274.205	24.23
274.34	-9.77
274.475	-7.77
274.61	20.23
274.745	1.23
274.88	12.23
275.015	-19.77
275.15	2.23
275.285	6.23
275.42	-0.77
275.555	24.23
275.69	7.23
275.825	-8.77
275.959	14.23
276.094	0.23
276.229	9.23
276.364	1.23
276.499	-1.77
276.634	-21.77
276.768	2.23
276.903	7.23
277.038	6.23
277.173	8.23
277.308	2.23
277.442	-15.77
277.577	-22.77
277.712	-7.77
277.847	2.23
277.981	-0.77
278.116	-3.77
278.251	17.23
278.386	15.23
278.52	11.23
278.655	8.23
278.79	9.23
278.924	2.23
279.059	0.23
279.194	-15.77
279.328	11.23
279.463	11.23
279.598	9.23
279.732	36.23
279.867	11.23
280.001	0.23
280.136	-5.77
280.271	0.23
280.405	10.23
280.54	-7.77
280.674	-12.77
280.809	13.23
280.943	3.23
281.078	-1.77
281.213	21.23
281.347	19.23
281.482	-0.77
281.616	-3.77
281.751	-2.77
281.885	-22.77
282.02	-2.77
282.154	10.23
282.288	-18.77
282.423	-4.77
282.557	-9.77
282.692	12.23
282.826	1.23
282.961	13.23
283.095	13.23
283.229	7.23
283.364	-1.77
283.498	-15.77
283.633	-8.77
283.767	-2.77
283.901	3.23
284.036	7.23
284.17	1.23
284.304	-10.77
284.439	4.23
284.573	-4.77
284.707	14.23
284.842	-19.77
284.976	6.23
285.11	-3.77
285.244	19.23
285.379	46.23
285.513	-5.77
285.647	15.23
285.781	28.23
285.916	5.23
286.05	-5.77
286.184	23.23
286.318	11.23
286.453	-12.77
286.587	-9.77
286.721	-19.77
286.855	12.23
286.989	7.23
287.123	1.23
287.258	-0.77
287.392	-2.77
287.526	12.23
287.66	-13.77
287.794	2.23
287.928	22.23
288.062	6.23
288.196	0.23
288.33	7.23
288.464	17.23
288.598	22.23
288.733	3.23
288.867	15.23
289.001	7.23
289.135	14.23
289.269	3.23
289.403	-0.77
289.537	10.23
289.671	-8.77
289.805	-23.77
289.939	15.23
290.073	11.23
290.207	3.23
290.34	3.23
290.474	28.23
290.608	8.23
290.742	-2.77
290.876	10.23
291.01	-5.77
291.144	17.23
291.278	4.23
291.412	-4.77
291.546	7.23
291.679	0.23
291.813	-7.77
291.947	10.23
292.081	9.23
292.215	2.23
292.349	18.23
292.482	22.23
292.616	-8.77
292.75	-6.77
292.884	2.23
293.018	13.23
293.151	4.23
293.285	4.23
293.419	-13.77
293.553	-7.77
293.686	2.23
293.82	-3.77
293.954	8.23
294.088	17.23
294.221	5.23
294.355	-25.77
294.489	10.23
294.622	7.23
294.756	-1.77
294.89	-8.77
295.023	12.23
295.157	4.23
295.291	14.23
295.424	23.23
295.558	9.23
295.691	0.23
295.825	2.23
295.959	5.23
296.092	-15.77
296.226	-4.77
296.359	0.23
296.493	11.23
296.627	-1.77
296.76	7.23
296.894	6.23
297.027	15.23
297.161	-1.77
297.294	-16.77
297.428	2.23
297.561	11.23
297.695	14.23
297.828	10.23
297.962	-15.77
298.095	2.23
298.229	6.23
298.362	-13.77
298.495	7.23
298.629	1.23
298.762	11.23
298.896	-0.77
299.029	7.23
299.162	1.23
299.296	14.23
299.429	8.23
299.563	3.23
299.696	2.23
299.829	7.23
299.963	14.23
300.096	17.23
300.229	19.23
300.363	-20.77
300.496	2.23
300.629	-9.77
300.763	-9.77
300.896	2.23
301.029	10.23
301.162	6.23
301.296	5.23
301.429	20.23
301.562	4.23
301.695	12.23
301.829	6.23
301.962	2.23
302.095	4.23
302.228	-18.77
302.362	6.23
302.495	-13.77
302.628	-2.77
302.761	0.23
302.894	7.23
303.027	34.23
303.161	3.23
303.294	-3.77
303.427	16.23
303.56	9.23
303.693	-7.77
303.826	-9.77
303.959	-2.77
304.092	0.23
304.225	-5.77
304.359	6.23
304.492	2.23
304.625	-15.77
304.758	2.23
304.891	-19.77
305.024	-0.77
305.157	-11.77
305.29	-8.77
305.423	-12.77
305.556	15.23
305.689	0.23
305.822	0.23
305.955	22.23
306.088	-4.77
306.221	-10.77
306.354	-7.77
306.487	-4.77
306.62	-5.77
306.752	-9.77
306.885	10.23
307.018	-12.77
307.151	2.23
307.284	3.23
307.417	-11.77
307.55	27.23
307.683	20.23
307.816	21.23
307.948	15.23
308.081	11.23
308.214	-3.77
308.347	19.23
308.48	6.23
308.613	-12.77
308.745	11.23
308.878	-1.77
309.011	14.23
309.144	-1.77
309.277	-5.77
309.409	8.23
309.542	2.23
309.675	16.23
309.808	0.23
309.94	27.23
310.073	-13.77
310.206	-10.77
310.339	26.23
310.471	-9.77
310.604	8.23
310.737	0.23
310.869	-8.77
311.002	-1.77
311.135	16.23
311.267	-7.77
311.4	0.23
311.533	3.23
311.665	-12.77
311.798	6.23
311.93	5.23
312.063	11.23
312.196	54.23
312.328	87.23
312.461	48.23
312.593	32.23
312.726	74.23
312.859	105.23
312.991	170.23
313.124	38.23
313.256	8.23
313.389	3.23
313.521	15.23
313.654	10.23
313.786	-12.77
313.919	-0.77
314.051	-0.77
314.184	-0.77
314.316	-10.77
314.449	-29.77
314.581	-5.77
314.714	-9.77
314.846	-2.77
314.978	-8.77
315.111	-11.77
315.243	4.23
315.376	0.23
315.508	-9.77
315.641	-4.77
315.773	17.23
315.905	20.23
316.038	14.23
316.17	23.23
316.302	29.23
316.435	4.23
316.567	3.23
316.699	26.23
316.832	-8.77
316.964	-2.77
317.096	-9.77
317.229	-2.77
317.361	-16.77
317.493	-9.77
317.625	-3.77
317.758	3.23
317.89	5.23
318.022	3.23
318.155	-7.77
318.287	3.23
318.419	-4.77
318.551	11.23
318.683	9.23
318.816	-18.77
318.948	-27.77
319.08	-1.77
319.212	1.23
319.344	-4.77
319.477	10.23
319.609	6.23
319.741	-5.77
319.873	-3.77
320.005	-10.77
320.137	6.23
320.269	12.23
320.401	8.23
320.534	1.23
320.666	-12.77
320.798	-5.77
320.93	0.23
321.062	0.23
321.194	5.23
321.326	8.23
321.458	5.23
321.59	-4.77
321.722	12.23
321.854	-3.77
321.986	5.23
322.118	5.23
322.25	-12.77
322.382	13.23
322.514	-1.77
322.646	12.23
322.778	14.23
322.91	5.23
323.042	6.23
323.174	11.23
323.306	8.23
323.438	-6.77
323.57	5.23
323.702	0.23
323.834	1.23
323.966	-7.77
324.097	-5.77
324.229	0.23
324.361	14.23
324.493	-11.77
324.625	-18.77
324.757	12.23
324.889	-1.77
325.021	15.23
325.152	21.23
325.284	10.23
325.416	-18.77
325.548	15.23
325.68	-3.77
325.811	25.23
325.943	17.23
326.075	0.23
326.207	7.23
326.339	-11.77
326.47	12.23
326.602	-0.77
326.734	0.23
326.866	17.23
326.997	-9.77
327.129	3.23
327.261	-17.77
327.392	1.23
327.524	20.23
327.656	-0.77
327.787	20.23
327.919	-3.77
328.051	8.23
328.182	12.23
328.314	32.23
328.446	9.23
328.577	21.23
328.709	-5.77
328.841	-5.77
328.972	-18.77
329.104	-6.77
329.235	7.23
329.367	-7.77
329.499	7.23
329.63	17.23
329.762	0.23
329.893	16.23
330.025	8.23
330.156	-14.77
330.288	14.23
330.419	16.23
330.551	2.23
330.683	0.23
330.814	7.23
330.946	28.23
331.077	-16.77
331.208	-13.77
331.34	4.23
331.471	-5.77
331.603	13.23
331.734	-5.77
331.866	-0.77
331.997	-10.77
332.129	3.23
332.26	5.23
332.392	26.23
332.523	2.23
332.654	6.23
332.786	-3.77
332.917	-3.77
333.048	16.23
333.18	15.23
333.311	-6.77
333.443	11.23
333.574	-1.77
333.705	43.23
333.837	27.23
333.968	90.23
334.099	207.23
334.231	204.23
334.362	52.23
334.493	36.23
334.624	23.23
334.756	23.23
334.887	3.23
335.018	5.23
335.15	15.23
335.281	6.23
335.412	18.23
335.543	9.23
335.675	3.23
335.806	9.23
335.937	-5.77
336.068	-0.77
336.199	26.23
336.331	-0.77
336.462	3.23
336.593	14.23
336.724	-7.77
336.855	-2.77
336.986	4.23
337.118	20.23
337.249	18.23
337.38	10.23
337.511	10.23
337.642	19.23
337.773	-3.77
337.904	-2.77
338.035	-4.77
338.166	10.23
338.298	0.23
338.429	-20.77
338.56	10.23
338.691	17.23
338.822	12.23
338.953	14.23
339.084	19.23
339.215	24.23
339.346	7.23
339.477	15.23
339.608	22.23
339.739	11.23
339.87	-10.77
340.001	-1.77
340.132	6.23
340.263	17.23
340.394	21.23
340.525	6.23
340.656	10.23
340.787	18.23
340.918	19.23
341.049	14.23
341.179	13.23
341.31	16.23
341.441	8.23
341.572	9.23
341.703	5.23
341.834	3.23
341.965	36.23
342.096	13.23
342.227	13.23
342.357	0.23
342.488	14.23
342.619	33.23
342.75	20.23
342.881	5.23
343.012	33.23
343.142	32.23
343.273	13.23
343.404	28.23
343.535	47.23
343.666	38.23
343.796	8.23
343.927	33.23
344.058	27.23
344.189	26.23
344.319	24.23
344.45	23.23
344.581	3.23
344.712	3.23
344.842	0.23
344.973	33.23
345.104	25.23
345.234	13.23
345.365	3.23
345.496	5.23
345.626	11.23
345.757	31.23
345.888	24.23
346.018	30.23
346.149	28.23
346.28	51.23
346.41	34.23
346.541	27.23
346.672	17.23
346.802	24.23
346.933	13.23
347.063	38.23
347.194	25.23
347.325	21.23
347.455	30.23
347.586	31.23
347.716	8.23
347.847	41.23
347.977	28.23
348.108	47.23
348.238	41.23
348.369	51.23
348.499	50.23
348.63	30.23
348.76	56.23
348.891	32.23
349.021	47.23
349.152	29.23
349.282	57.23
349.413	36.23
349.543	39.23
349.674	30.23
349.804	26.23
349.935	30.23
350.065	24.23
350.196	21.23
350.326	38.23
350.456	21.23
350.587	27.23
350.717	23.23
350.848	26.23
350.978	33.23
351.108	4.23
351.239	38.23
351.369	13.23
351.499	12.23
351.63	24.23
351.76	37.23
351.89	3.23
352.021	10.23
352.151	4.23
352.281	27.23
352.412	33.23
352.542	29.23
352.672	22.23
352.803	28.23
352.933	10.23
353.063	12.23
353.193	16.23
353.324	-6.77
353.454	33.23
353.584	43.23
353.714	25.23
353.845	34.23
353.975	24.23
354.105	29.23
354.235	21.23
354.365	30.23
354.496	6.23
354.626	36.23
354.756	31.23
354.886	4.23
355.016	39.23
355.146	29.23
355.277	21.23
355.407	15.23
355.537	39.23
355.667	23.23
355.797	17.23
355.927	27.23
356.057	26.23
356.187	11.23
356.318	13.23
356.448	27.23
356.578	32.23
356.708	23.23
356.838	44.23
356.968	38.23
357.098	25.23
357.228	39.23
357.358	17.23
357.488	7.23
357.618	44.23
357.748	40.23
357.878	26.23
358.008	35.23
358.138	20.23
358.268	14.23
358.398	24.23
358.528	4.23
358.658	46.23
358.788	28.23
358.918	16.23
359.048	25.23
359.178	25.23
359.308	15.23
359.438	57.23
359.568	37.23
359.698	43.23
359.827	16.23
359.957	21.23
360.087	31.23
360.217	34.23
360.347	26.23
360.477	42.23
360.607	13.23
360.737	18.23
360.866	13.23
360.996	12.23
361.126	31.23
361.256	56.23
361.386	39.23
361.516	61.23
361.645	15.23
361.775	51.23
361.905	14.23
362.035	48.23
362.165	31.23
362.294	48.23
362.424	37.23
362.554	48.23
362.684	19.23
362.813	37.23
362.943	59.23
363.073	60.23
363.203	72.23
363.332	79.23
363.462	85.23
363.592	111.23
363.721	122.23
363.851	178.23
363.981	202.23
364.111	255.23
364.24	326.23
364.37	470.23
364.5	851.23
364.629	1808.23
364.759	3870.23
364.888	6270.23
365.018	9489.23
365.148	14848.23
365.277	13125.23
365.407	4868.23
365.537	3154.23
365.666	4068.23
365.796	1867.23
365.925	809.23
366.055	768.23
366.184	1027.23
366.314	1419.23
366.444	2457.23
366.573	2166.23
366.703	660.23
366.832	208.23
366.962	119.23
367.091	94.23
367.221	90.23
367.35	65.23
367.48	90.23
367.609	55.23
367.739	56.23
367.868	28.23
367.998	46.23
368.127	40.23
368.257	48.23
368.386	58.23
368.516	52.23
368.645	41.23
368.775	47.23
368.904	46.23
369.033	33.23
369.163	24.23
369.292	29.23
369.422	46.23
369.551	70.23
369.68	52.23
369.81	39.23
369.939	33.23
370.069	72.23
370.198	37.23
370.327	25.23
370.457	39.23
370.586	46.23
370.715	24.23
370.845	30.23
370.974	42.23
371.103	47.23
371.233	57.23
371.362	48.23
371.491	29.23
371.621	48.23
371.75	42.23
371.879	47.23
372.008	42.23
372.138	49.23
372.267	54.23
372.396	45.23
372.525	19.23
372.655	34.23
372.784	20.23
372.913	28.23
373.042	28.23
373.172	44.23
373.301	22.23
373.43	10.23
373.559	18.23
373.688	31.23
373.818	31.23
373.947	35.23
374.076	14.23
374.205	26.23
374.334	8.23
374.463	6.23
374.593	20.23
374.722	17.23
374.851	10.23
374.98	33.23
375.109	10.23
375.238	21.23
375.367	40.23
375.496	12.23
375.625	3.23
375.755	19.23
375.884	20.23
376.013	37.23
376.142	6.23
376.271	7.23
376.4	26.23
376.529	23.23
376.658	38.23
376.787	29.23
376.916	22.23
377.045	23.23
377.174	39.23
377.303	26.23
377.432	34.23
377.561	31.23
377.69	19.23
377.819	32.23
377.948	21.23
378.077	12.23
378.206	3.23
378.335	8.23
378.464	12.23
378.593	38.23
378.722	4.23
378.851	18.23
378.98	17.23
379.108	7.23
379.237	17.23
379.366	27.23
379.495	24.23
379.624	11.23
379.753	8.23
379.882	12.23
380.011	-0.77
380.14	5.23
380.268	18.23
380.397	12.23
380.526	35.23
380.655	16.23
380.784	-24.77
380.913	20.23
381.041	20.23
381.17	5.23
381.299	17.23
381.428	37.23
381.557	9.23
381.685	26.23
381.814	15.23
381.943	6.23
382.072	6.23
382.2	-8.77
382.329	23.23
382.458	24.23
382.587	23.23
382.715	47.23
382.844	23.23
382.973	9.23
383.102	19.23
383.23	20.23
383.359	0.23
383.488	17.23
383.616	30.23
383.745	7.23
383.874	20.23
384.003	8.23
384.131	26.23
384.26	30.23
384.389	31.23
384.517	10.23
384.646	-8.77
384.774	10.23
384.903	54.23
385.032	40.23
385.16	22.23
385.289	15.23
385.418	29.23
385.546	25.23
385.675	15.23
385.803	19.23
385.932	13.23
386.06	13.23
386.189	18.23
386.318	8.23
386.446	15.23
386.575	28.23
386.703	16.23
386.832	6.23
386.96	13.23
387.089	34.23
387.217	34.23
387.346	4.23
387.474	8.23
387.603	29.23
387.731	24.23
387.86	16.23
387.988	16.23
388.117	19.23
388.245	30.23
388.374	25.23
388.502	27.23
388.631	12.23
388.759	23.23
388.888	15.23
389.016	18.23
389.144	20.23
389.273	24.23
389.401	22.23
389.53	4.23
389.658	34.23
389.786	15.23
389.915	11.23
390.043	18.23
390.172	19.23
390.3	39.23
390.428	36.23
390.557	22.23
390.685	22.23
390.813	40.23
390.942	46.23
391.07	27.23
391.198	13.23
391.327	8.23
391.455	14.23
391.583	32.23
391.712	24.23
391.84	27.23
391.968	22.23
392.096	21.23
392.225	36.23
392.353	27.23
392.481	29.23
392.609	33.23
392.738	9.23
392.866	36.23
392.994	-2.77
393.122	24.23
393.251	9.23
393.379	6.23
393.507	20.23
393.635	1.23
393.764	28.23
393.892	35.23
394.02	20.23
394.148	19.23
394.276	18.23
394.404	57.23
394.533	34.23
394.661	43.23
394.789	36.23
394.917	36.23
395.045	20.23
395.173	24.23
395.302	13.23
395.43	27.23
395.558	26.23
395.686	39.23
395.814	40.23
395.942	24.23
396.07	30.23
396.198	32.23
396.326	41.23
396.454	40.23
396.582	26.23
396.711	22.23
396.839	29.23
396.967	35.23
397.095	6.23
397.223	39.23
397.351	50.23
397.479	34.23
397.607	21.23
397.735	48.23
397.863	68.23
397.991	53.23
398.119	24.23
398.247	58.23
398.375	32.23
398.503	39.23
398.631	52.23
398.759	52.23
398.887	41.23
399.015	50.23
399.143	62.23
399.271	79.23
399.399	74.23
399.526	94.23
399.654	96.23
399.782	69.23
399.91	92.23
400.038	91.23
400.166	97.23
400.294	78.23
400.422	68.23
400.55	109.23
400.678	109.23
400.805	108.23
400.933	127.23
401.061	93.23
401.189	103.23
401.317	150.23
401.445	95.23
401.573	69.23
401.7	43.23
401.828	35.23
401.956	45.23
402.084	23.23
402.212	29.23
402.34	16.23
402.467	31.23
402.595	36.23
402.723	45.23
402.851	75.23
402.978	63.23
403.106	69.23
403.234	102.23
403.362	116.23
403.489	122.23
403.617	143.23
403.745	198.23
403.873	275.23
404	581.23
404.128	1513.23
404.256	3968.23
404.384	5166.23
404.511	5529.23
404.639	7318.23
404.767	11513.23
404.894	14695.23
405.022	4996.23
405.15	1320.23
405.277	411.23
405.405	222.23
405.533	128.23
405.66	121.23
405.788	69.23
405.916	63.23
406.043	52.23
406.171	61.23
406.299	62.23
406.426	70.23
406.554	68.23
406.681	78.23
406.809	56.23
406.937	57.23
407.064	74.23
407.192	130.23
407.319	307.23
407.447	536.23
407.574	534.23
407.702	619.23
407.83	848.23
407.957	1624.23
408.085	964.23
408.212	271.23
408.34	101.23
408.467	58.23
408.595	39.23
408.722	57.23
408.85	45.23
408.977	33.23
409.105	30.23
409.232	45.23
409.36	42.23
409.487	44.23
409.615	19.23
409.742	38.23
409.87	25.23
409.997	58.23
410.125	35.23
410.252	43.23
410.379	19.23
410.507	34.23
410.634	22.23
410.762	19.23
410.889	42.23
411.017	52.23
411.144	37.23
411.271	28.23
411.399	17.23
411.526	26.23
411.653	22.23
411.781	44.23
411.908	24.23
412.036	31.23
412.163	44.23
412.29	42.23
412.418	24.23
412.545	31.23
412.672	15.23
412.8	70.23
412.927	36.23
413.054	44.23
413.182	28.23
413.309	26.23
413.436	18.23
413.564	20.23
413.691	23.23
413.818	49.23
413.945	5.23
414.073	13.23
414.2	35.23
414.327	39.23
414.454	39.23
414.582	36.23
414.709	13.23
414.836	23.23
414.963	24.23
415.091	33.23
415.218	16.23
415.345	15.23
415.472	21.23
415.6	27.23
415.727	28.23
415.854	19.23
415.981	22.23
416.108	14.23
416.236	41.23
416.363	28.23
416.49	22.23
416.617	35.23
416.744	45.23
416.871	26.23
416.998	4.23
417.126	30.23
417.253	8.23
417.38	20.23
417.507	24.23
417.634	43.23
417.761	42.23
417.888	51.23
418.015	16.23
418.143	39.23
418.27	44.23
418.397	35.23
418.524	33.23
418.651	25.23
418.778	45.23
418.905	48.23
419.032	35.23
419.159	38.23
419.286	52.23
419.413	40.23
419.54	57.23
419.667	42.23
419.794	17.23
419.921	49.23
420.048	19.23
420.175	43.23
420.302	44.23
420.429	42.23
420.556	37.23
420.683	45.23
420.81	39.23
420.937	70.23
421.064	65.23
421.191	43.23
421.318	63.23
421.445	72.23
421.572	58.23
421.699	54.23
421.826	24.23
421.953	47.23
422.08	23.23
422.207	16.23
422.334	6.23
422.461	30.23
422.588	6.23
422.714	27.23
422.841	16.23
422.968	32.23
423.095	15.23
423.222	10.23
423.349	22.23
423.476	15.23
423.603	5.23
423.729	7.23
423.856	10.23
423.983	39.23
424.11	15.23
424.237	34.23
424.364	15.23
424.491	18.23
424.617	-2.77
424.744	6.23
424.871	19.23
424.998	2.23
425.125	13.23
425.251	23.23
425.378	1.23
425.505	4.23
425.632	16.23
425.758	6.23
425.885	19.23
426.012	23.23
426.139	30.23
426.266	6.23
426.392	11.23
426.519	31.23
426.646	16.23
426.772	34.23
426.899	6.23
427.026	27.23
427.153	27.23
427.279	23.23
427.406	21.23
427.533	16.23
427.659	3.23
427.786	14.23
427.913	31.23
428.039	28.23
428.166	25.23
428.293	29.23
428.419	19.23
428.546	7.23
428.673	6.23
428.799	14.23
428.926	16.23
429.053	34.23
429.179	28.23
429.306	31.23
429.433	34.23
429.559	17.23
429.686	14.23
429.812	8.23
429.939	11.23
430.066	22.23
430.192	12.23
430.319	21.23
430.445	23.23
430.572	32.23
430.699	1.23
430.825	14.23
430.952	24.23
431.078	27.23
431.205	46.23
431.331	41.23
431.458	25.23
431.584	33.23
431.711	9.23
431.837	14.23
431.964	19.23
432.09	30.23
432.217	20.23
432.343	9.23
432.47	19.23
432.596	11.23
432.723	19.23
432.849	10.23
432.976	10.23
433.102	36.23
433.229	30.23
433.355	61.23
433.482	80.23
433.608	93.23
433.735	88.23
433.861	111.23
433.987	181.23
434.114	210.23
434.24	174.23
434.367	214.23
434.493	211.23
434.62	283.23
434.746	415.23
434.872	632.23
434.999	839.23
435.125	1787.23
435.252	5548.23
435.378	13514.23
435.504	15264.23
435.631	15432.23
435.757	15681.23
435.883	15681.23
436.01	15681.23
436.136	15681.23
436.262	15681.23
436.389	3551.23
436.515	2435.23
436.641	845.23
436.768	626.23
436.894	404.23
437.02	403.23
437.147	319.23
437.273	314.23
437.399	214.23
437.526	242.23
437.652	182.23
437.778	187.23
437.904	155.23
438.031	161.23
438.157	130.23
438.283	145.23
438.409	128.23
438.536	143.23
438.662	124.23
438.788	129.23
438.914	114.23
439.041	121.23
439.167	118.23
439.293	95.23
439.419	109.23
439.546	102.23
439.672	74.23
439.798	89.23
439.924	78.23
440.05	81.23
440.177	71.23
440.303	81.23
440.429	67.23
440.555	76.23
440.681	65.23
440.807	90.23
440.934	55.23
441.06	73.23
441.186	51.23
441.312	48.23
441.438	46.23
441.564	70.23
441.69	55.23
441.816	53.23
441.943	66.23
442.069	64.23
442.195	38.23
442.321	68.23
442.447	33.23
442.573	34.23
442.699	27.23
442.825	21.23
442.951	49.23
443.077	56.23
443.203	57.23
443.33	33.23
443.456	29.23
443.582	46.23
443.708	37.23
443.834	51.23
443.96	44.23
444.086	50.23
444.212	44.23
444.338	51.23
444.464	59.23
444.59	45.23
444.716	27.23
444.842	52.23
444.968	28.23
445.094	52.23
445.22	39.23
445.346	20.23
445.472	17.23
445.598	3.23
445.724	23.23
445.85	42.23
445.976	51.23
446.102	31.23
446.228	40.23
446.354	39.23
446.48	16.23
446.605	20.23
446.731	48.23
446.857	21.23
446.983	30.23
447.109	32.23
447.235	44.23
447.361	35.23
447.487	28.23
447.613	29.23
447.739	16.23
447.865	25.23
447.99	14.23
448.116	29.23
448.242	34.23
448.368	35.23
448.494	14.23
448.62	27.23
448.746	36.23
448.872	34.23
448.997	14.23
449.123	24.23
449.249	49.23
449.375	47.23
449.501	21.23
449.627	24.23
449.752	39.23
449.878	16.23
450.004	22.23
450.13	32.23
450.256	17.23
450.381	28.23
450.507	16.23
450.633	26.23
450.759	37.23
450.884	18.23
451.01	38.23
451.136	24.23
451.262	34.23
451.388	20.23
451.513	35.23
451.639	26.23
451.765	29.23
451.89	35.23
452.016	22.23
452.142	30.23
452.268	32.23
452.393	37.23
452.519	17.23
452.645	14.23
452.771	28.23
452.896	18.23
453.022	11.23
453.148	36.23
453.273	15.23
453.399	20.23
453.525	6.23
453.65	32.23
453.776	38.23
453.902	31.23
454.027	40.23
454.153	51.23
454.279	55.23
454.404	28.23
454.53	50.23
454.656	32.23
454.781	27.23
454.907	32.23
455.032	11.23
455.158	34.23
455.284	48.23
455.409	18.23
455.535	26.23
455.66	28.23
455.786	44.23
455.912	35.23
456.037	15.23
456.163	26.23
456.288	19.23
456.414	7.23
456.539	-2.77
456.665	38.23
456.791	32.23
456.916	-0.77
457.042	33.23
457.167	19.23
457.293	23.23
457.418	26.23
457.544	27.23
457.669	33.23
457.795	14.23
457.92	21.23
458.046	14.23
458.171	33.23
458.297	16.23
458.422	4.23
458.548	3.23
458.673	24.23
458.799	24.23
458.924	6.23
459.05	20.23
459.175	17.23
459.301	23.23
459.426	23.23
459.552	18.23
459.677	22.23
459.803	48.23
459.928	27.23
460.053	33.23
460.179	29.23
460.304	19.23
460.43	17.23
460.555	24.23
460.681	15.23
460.806	9.23
460.931	34.23
461.057	21.23
461.182	16.23
461.308	44.23
461.433	37.23
461.558	15.23
461.684	31.23
461.809	39.23
461.934	36.23
462.06	52.23
462.185	19.23
462.311	16.23
462.436	26.23
462.561	35.23
462.687	24.23
462.812	24.23
462.937	17.23
463.063	16.23
463.188	13.23
463.313	29.23
463.439	22.23
463.564	14.23
463.689	19.23
463.814	27.23
463.94	22.23
464.065	24.23
464.19	31.23
464.316	1.23
464.441	17.23
464.566	6.23
464.692	18.23
464.817	24.23
464.942	27.23
465.067	26.23
465.193	-2.77
465.318	27.23
465.443	30.23
465.568	26.23
465.694	31.23
465.819	46.23
465.944	20.23
466.069	16.23
466.194	26.23
466.32	36.23
466.445	29.23
466.57	28.23
466.695	42.23
466.82	37.23
466.946	20.23
467.071	17.23
467.196	28.23
467.321	26.23
467.446	36.23
467.572	51.23
467.697	20.23
467.822	44.23
467.947	58.23
468.072	25.23
468.197	36.23
468.323	26.23
468.448	31.23
468.573	26.23
468.698	28.23
468.823	38.23
468.948	50.23
469.073	37.23
469.198	48.23
469.324	47.23
469.449	28.23
469.574	41.23
469.699	52.23
469.824	44.23
469.949	24.23
470.074	35.23
470.199	50.23
470.324	44.23
470.449	49.23
470.574	45.23
470.7	28.23
470.825	51.23
470.95	64.23
471.075	35.23
471.2	50.23
471.325	55.23
471.45	39.23
471.575	25.23
471.7	36.23
471.825	30.23
471.95	21.23
472.075	12.23
472.2	16.23
472.325	25.23
472.45	18.23
472.575	26.23
472.7	29.23
472.825	45.23
472.95	25.23
473.075	36.23
473.2	31.23
473.325	52.23
473.45	36.23
473.575	33.23
473.7	50.23
473.825	45.23
473.95	30.23
474.075	38.23
474.2	7.23
474.325	21.23
474.45	38.23
474.574	35.23
474.699	17.23
474.824	34.23
474.949	20.23
475.074	22.23
475.199	27.23
475.324	26.23
475.449	19.23
475.574	25.23
475.699	25.23
475.824	9.23
475.949	14.23
476.073	30.23
476.198	16.23
476.323	22.23
476.448	26.23
476.573	18.23
476.698	22.23
476.823	23.23
476.947	18.23
477.072	13.23
477.197	24.23
477.322	15.23
477.447	2.23
477.572	22.23
477.697	18.23
477.821	12.23
477.946	24.23
478.071	21.23
478.196	34.23
478.321	23.23
478.445	18.23
478.57	4.23
478.695	29.23
478.82	34.23
478.945	33.23
479.069	16.23
479.194	27.23
479.319	34.23
479.444	36.23
479.569	5.23
479.693	12.23
479.818	15.23
479.943	19.23
480.068	34.23
480.192	26.23
480.317	23.23
480.442	29.23
480.567	19.23
480.691	14.23
480.816	12.23
480.941	17.23
481.066	20.23
481.19	27.23
481.315	23.23
481.44	24.23
481.564	15.23
481.689	22.23
481.814	14.23
481.938	3.23
482.063	-6.77
482.188	20.23
482.313	35.23
482.437	6.23
482.562	20.23
482.687	27.23
482.811	0.23
482.936	10.23
483.061	16.23
483.185	9.23
483.31	18.23
483.435	24.23
483.559	13.23
483.684	12.23
483.808	33.23
483.933	16.23
484.058	16.23
484.182	32.23
484.307	14.23
484.432	22.23
484.556	25.23
484.681	20.23
484.805	24.23
484.93	18.23
485.055	38.23
485.179	41.23
485.304	16.23
485.428	18.23
485.553	29.23
485.678	13.23
485.802	10.23
485.927	22.23
486.051	28.23
486.176	33.23
486.3	22.23
486.425	15.23
486.549	24.23
486.674	13.23
486.799	18.23
486.923	12.23
487.048	10.23
487.172	19.23
487.297	35.23
487.421	36.23
487.546	17.23
487.67	31.23
487.795	18.23
487.919	27.23
488.044	38.23
488.168	32.23
488.293	21.23
488.417	4.23
488.542	14.23
488.666	18.23
488.791	10.23
488.915	16.23
489.04	34.23
489.164	28.23
489.289	30.23
489.413	20.23
489.538	17.23
489.662	29.23
489.786	9.23
489.911	23.23
490.035	19.23
490.16	14.23
490.284	6.23
490.409	8.23
490.533	10.23
490.658	32.23
490.782	20.23
490.906	32.23
491.031	112.23
491.155	150.23
491.28	160.23
491.404	181.23
491.528	245.23
491.653	160.23
491.777	47.23
491.902	31.23
492.026	18.23
492.15	34.23
492.275	44.23
492.399	34.23
492.524	11.23
492.648	34.23
492.772	19.23
492.897	25.23
493.021	14.23
493.145	16.23
493.27	22.23
493.394	16.23
493.518	21.23
493.643	2.23
493.767	16.23
493.891	16.23
494.016	14.23
494.14	19.23
494.264	33.23
494.389	33.23
494.513	20.23
494.637	19.23
494.762	20.23
494.886	32.23
495.01	31.23
495.134	24.23
495.259	24.23
495.383	-3.77
495.507	35.23
495.632	36.23
495.756	45.23
495.88	42.23
496.004	20.23
496.129	34.23
496.253	31.23
496.377	32.23
496.501	47.23
496.626	14.23
496.75	13.23
496.874	22.23
496.998	19.23
497.123	34.23
497.247	-1.77
497.371	8.23
497.495	26.23
497.62	20.23
497.744	26.23
497.868	0.23
497.992	18.23
498.116	21.23
498.241	15.23
498.365	7.23
498.489	16.23
498.613	52.23
498.737	30.23
498.862	26.23
498.986	12.23
499.11	18.23
499.234	28.23
499.358	15.23
499.482	11.23
499.607	29.23
499.731	32.23
499.855	23.23
499.979	12.23
500.103	42.23
500.227	36.23
500.351	10.23
500.476	11.23
500.6	33.23
500.724	30.23
500.848	24.23
500.972	26.23
501.096	24.23
501.22	21.23
501.344	17.23
501.469	27.23
501.593	18.23
501.717	27.23
501.841	27.23
501.965	16.23
502.089	26.23
502.213	27.23
502.337	28.23
502.461	6.23
502.585	11.23
502.709	20.23
502.834	15.23
502.958	14.23
503.082	36.23
503.206	23.23
503.33	29.23
503.454	12.23
503.578	28.23
503.702	20.23
503.826	11.23
503.95	28.23
504.074	36.23
504.198	19.23
504.322	5.23
504.446	13.23
504.57	17.23
504.694	28.23
504.818	24.23
504.942	39.23
505.066	11.23
505.19	21.23
505.314	10.23
505.438	26.23
505.562	28.23
505.686	39.23
505.81	23.23
505.934	11.23
506.058	24.23
506.182	36.23
506.306	15.23
506.43	-2.77
506.554	0.23
506.678	11.23
506.802	11.23
506.926	19.23
507.05	26.23
507.174	21.23
507.298	32.23
507.422	14.23
507.546	23.23
507.67	36.23
507.794	14.23
507.918	8.23
508.042	23.23
508.165	19.23
508.289	11.23
508.413	27.23
508.537	15.23
508.661	30.23
508.785	14.23
508.909	19.23
509.033	25.23
509.157	34.23
509.281	22.23
509.405	23.23
509.528	58.23
509.652	45.23
509.776	18.23
509.9	32.23
510.024	37.23
510.148	25.23
510.272	24.23
510.396	22.23
510.519	21.23
510.643	49.23
510.767	37.23
510.891	45.23
511.015	26.23
511.139	40.23
511.263	57.23
511.386	35.23
511.51	51.23
511.634	43.23
511.758	30.23
511.882	38.23
512.006	39.23
512.129	53.23
512.253	75.23
512.377	92.23
512.501	100.23
512.625	79.23
512.748	88.23
512.872	77.23
512.996	55.23
513.12	52.23
513.244	43.23
513.367	64.23
513.491	78.23
513.615	76.23
513.739	81.23
513.862	84.23
513.986	87.23
514.11	86.23
514.234	88.23
514.358	112.23
514.481	104.23
514.605	118.23
514.729	127.23
514.853	118.23
514.976	92.23
515.1	100.23
515.224	115.23
515.348	98.23
515.471	69.23
515.595	104.23
515.719	143.23
515.842	228.23
515.966	272.23
516.09	312.23
516.214	295.23
516.337	331.23
516.461	238.23
516.585	78.23
516.708	44.23
516.832	30.23
516.956	32.23
517.08	17.23
517.203	-5.77
517.327	8.23
517.451	32.23
517.574	32.23
517.698	7.23
517.822	16.23
517.945	27.23
518.069	39.23
518.193	44.23
518.316	27.23
518.44	6.23
518.564	8.23
518.687	17.23
518.811	2.23
518.935	42.23
519.058	12.23
519.182	20.23
519.306	10.23
519.429	13.23
519.553	28.23
519.676	35.23
519.8	10.23
519.924	-7.77
520.047	22.23
520.171	11.23
520.294	20.23
520.418	32.23
520.542	13.23
520.665	28.23
520.789	20.23
520.913	8.23
521.036	0.23
521.16	12.23
521.283	6.23
521.407	13.23
521.53	8.23
521.654	6.23
521.778	37.23
521.901	17.23
522.025	5.23
522.148	9.23
522.272	15.23
522.395	19.23
522.519	10.23
522.643	2.23
522.766	24.23
522.89	25.23
523.013	42.23
523.137	-11.77
523.26	-10.77
523.384	19.23
523.507	25.23
523.631	28.23
523.754	10.23
523.878	2.23
524.002	16.23
524.125	23.23
524.249	9.23
524.372	11.23
524.496	11.23
524.619	22.23
524.743	21.23
524.866	7.23
524.99	4.23
525.113	3.23
525.237	13.23
525.36	10.23
525.484	8.23
525.607	6.23
525.731	6.23
525.854	24.23
525.978	31.23
526.101	8.23
526.224	13.23
526.348	20.23
526.471	13.23
526.595	23.23
526.718	13.23
526.842	4.23
526.965	19.23
527.089	16.23
527.212	8.23
527.336	7.23
527.459	27.23
527.582	11.23
527.706	24.23
527.829	10.23
527.953	24.23
528.076	2.23
528.2	10.23
528.323	46.23
528.446	14.23
528.57	11.23
528.693	27.23
528.817	29.23
528.94	25.23
529.064	29.23
529.187	6.23
529.31	26.23
529.434	9.23
529.557	-3.77
529.68	9.23
529.804	29.23
529.927	27.23
530.051	6.23
530.174	12.23
530.297	20.23
530.421	24.23
530.544	19.23
530.668	34.23
530.791	-0.77
530.914	26.23
531.038	11.23
531.161	10.23
531.284	23.23
531.408	23.23
531.531	10.23
531.654	27.23
531.778	9.23
531.901	3.23
532.024	33.23
532.148	18.23
532.271	21.23
532.394	5.23
532.518	20.23
532.641	14.23
532.764	19.23
532.888	30.23
533.011	20.23
533.134	16.23
533.258	19.23
533.381	-1.77
533.504	-1.77
533.628	23.23
533.751	15.23
533.874	18.23
533.997	12.23
534.121	6.23
534.244	13.23
534.367	6.23
534.491	34.23
534.614	16.23
534.737	29.23
534.86	25.23
534.984	8.23
535.107	18.23
535.23	27.23
535.354	12.23
535.477	-3.77
535.6	11.23
535.723	28.23
535.847	32.23
535.97	14.23
536.093	7.23
536.216	-5.77
536.34	22.23
536.463	2.23
536.586	31.23
536.709	11.23
536.833	21.23
536.956	16.23
537.079	31.23
537.202	30.23
537.325	11.23
537.449	8.23
537.572	26.23
537.695	2.23
537.818	20.23
537.941	0.23
538.065	4.23
538.188	10.23
538.311	27.23
538.434	19.23
538.558	32.23
538.681	35.23
538.804	47.23
538.927	31.23
539.05	24.23
539.173	11.23
539.297	16.23
539.42	13.23
539.543	23.23
539.666	25.23
539.789	32.23
539.913	22.23
540.036	2.23
540.159	8.23
540.282	10.23
540.405	19.23
540.528	24.23
540.651	33.23
540.775	28.23
540.898	28.23
541.021	16.23
541.144	51.23
541.267	38.23
541.39	23.23
541.513	29.23
541.637	36.23
541.76	38.23
541.883	43.23
542.006	42.23
542.129	39.23
542.252	21.23
542.375	45.23
542.498	39.23
542.622	41.23
542.745	50.23
542.868	45.23
542.991	43.23
543.114	46.23
543.237	59.23
543.36	56.23
543.483	55.23
543.606	60.23
543.73	78.23
543.853	75.23
543.976	75.23
544.099	101.23
544.222	122.23
544.345	128.23
544.468	170.23
544.591	217.23
544.714	262.23
544.837	347.23
544.96	457.23
545.083	662.23
545.206	1082.23
545.329	2470.23
545.453	11075.23
545.576	15274.23
545.699	15681.23
545.822	15681.23
545.945	15681.23
546.068	15681.23
546.191	15681.23
546.314	15681.23
546.437	15681.23
546.56	15681.23
546.683	15681.23
546.806	15681.23
546.929	15681.23
547.052	15681.23
547.175	15681.23
547.298	15681.23
547.421	15681.23
547.544	15681.23
547.667	3812.23
547.79	3650.23
547.913	1246.23
548.036	950.23
548.159	646.23
548.282	632.23
548.405	484.23
548.528	473.23
548.651	389.23
548.774	413.23
548.897	352.23
549.02	364.23
549.143	323.23
549.266	302.23
549.389	279.23
549.512	261.23
549.635	267.23
549.758	260.23
549.881	216.23
550.004	222.23
550.127	200.23
550.25	189.23
550.373	156.23
550.496	172.23
550.619	158.23
550.742	145.23
550.865	132.23
550.988	159.23
551.111	148.23
551.234	145.23
551.356	114.23
551.479	132.23
551.602	136.23
551.725	135.23
551.848	108.23
551.971	130.23
552.094	112.23
552.217	120.23
552.34	100.23
552.463	101.23
552.586	138.23
552.709	111.23
552.832	112.23
552.955	106.23
553.077	97.23
553.2	123.23
553.323	96.23
553.446	102.23
553.569	96.23
553.692	106.23
553.815	95.23
553.938	108.23
554.061	104.23
554.184	83.23
554.306	79.23
554.429	83.23
554.552	86.23
554.675	69.23
554.798	81.23
554.921	87.23
555.044	74.23
555.167	77.23
555.29	71.23
555.412	60.23
555.535	83.23
555.658	61.23
555.781	70.23
555.904	64.23
556.027	73.23
556.15	79.23
556.272	75.23
556.395	77.23
556.518	77.23
556.641	76.23
556.764	82.23
556.887	84.23
557.01	67.23
557.132	64.23
557.255	72.23
557.378	79.23
557.501	73.23
557.624	85.23
557.747	56.23
557.869	73.23
557.992	97.23
558.115	94.23
558.238	77.23
558.361	86.23
558.483	111.23
558.606	78.23
558.729	47.23
558.852	79.23
558.975	68.23
559.098	48.23
559.22	61.23
559.343	67.23
559.466	41.23
559.589	41.23
559.712	69.23
559.834	57.23
559.957	61.23
560.08	58.23
560.203	69.23
560.325	75.23
560.448	63.23
560.571	57.23
560.694	48.23
560.817	59.23
560.939	58.23
561.062	35.23
561.185	59.23
561.308	75.23
561.43	43.23
561.553	57.23
561.676	63.23
561.799	62.23
561.921	65.23
562.044	51.23
562.167	44.23
562.29	73.23
562.413	70.23
562.535	54.23
562.658	31.23
562.781	55.23
562.903	70.23
563.026	82.23
563.149	142.23
563.272	116.23
563.394	106.23
563.517	93.23
563.64	61.23
563.763	61.23
563.885	55.23
564.008	57.23
564.131	54.23
564.254	31.23
564.376	40.23
564.499	23.23
564.622	16.23
564.744	50.23
564.867	33.23
564.99	36.23
565.113	31.23
565.235	46.23
565.358	36.23
565.481	10.23
565.603	46.23
565.726	43.23
565.849	55.23
565.971	44.23
566.094	18.23
566.217	23.23
566.34	35.23
566.462	40.23
566.585	35.23
566.708	39.23
566.83	39.23
566.953	58.23
567.076	27.23
567.198	34.23
567.321	29.23
567.444	28.23
567.566	35.23
567.689	20.23
567.812	31.23
567.934	46.23
568.057	32.23
568.18	32.23
568.302	25.23
568.425	27.23
568.548	32.23
568.67	45.23
568.793	35.23
568.916	44.23
569.038	43.23
569.161	53.23
569.283	37.23
569.406	34.23
569.529	29.23
569.651	19.23
569.774	26.23
569.897	18.23
570.019	27.23
570.142	42.23
570.265	32.23
570.387	30.23
570.51	39.23
570.632	60.23
570.755	39.23
570.878	26.23
571	47.23
571.123	23.23
571.246	38.23
571.368	28.23
571.491	44.23
571.613	29.23
571.736	19.23
571.859	32.23
571.981	25.23
572.104	28.23
572.226	55.23
572.349	19.23
572.472	21.23
572.594	44.23
572.717	45.23
572.839	29.23
572.962	54.23
573.085	37.23
573.207	28.23
573.33	34.23
573.452	35.23
573.575	48.23
573.697	33.23
573.82	34.23
573.943	30.23
574.065	47.23
574.188	28.23
574.31	48.23
574.433	39.23
574.555	37.23
574.678	42.23
574.801	47.23
574.923	24.23
575.046	33.23
575.168	18.23
575.291	39.23
575.413	39.23
575.536	15.23
575.659	38.23
575.781	38.23
575.904	47.23
576.026	59.23
576.149	75.23
576.271	135.23
576.394	201.23
576.516	520.23
576.639	3642.23
576.761	10213.23
576.884	8881.23
577.007	8799.23
577.129	8084.23
577.252	3761.23
577.374	1307.23
577.497	522.23
577.619	290.23
577.742	167.23
577.864	135.23
577.987	117.23
578.109	130.23
578.232	111.23
578.354	160.23
578.477	186.23
578.599	405.23
578.722	1962.23
578.844	9243.23
578.967	9909.23
579.089	8892.23
579.212	9136.23
579.334	5347.23
579.457	1939.23
579.579	700.23
579.702	323.23
579.824	219.23
579.947	128.23
580.069	112.23
580.192	90.23
580.314	98.23
580.437	71.23
580.559	93.23
580.682	77.23
580.804	60.23
580.927	62.23
581.049	78.23
581.172	40.23
581.294	48.23
581.417	51.23
581.539	48.23
581.662	54.23
581.784	43.23
581.907	39.23
582.029	54.23
582.152	24.23
582.274	54.23
582.396	45.23
582.519	49.23
582.641	39.23
582.764	36.23
582.886	34.23
583.009	24.23
583.131	29.23
583.254	45.23
583.376	52.23
583.499	41.23
583.621	40.23
583.743	44.23
583.866	32.23
583.988	6.23
584.111	38.23
584.233	27.23
584.356	50.23
584.478	29.23
584.601	14.23
584.723	24.23
584.845	36.23
584.968	14.23
585.09	19.23
585.213	34.23
585.335	18.23
585.458	21.23
585.58	14.23
585.702	32.23
585.825	44.23
585.947	26.23
586.07	27.23
586.192	20.23
586.315	35.23
586.437	11.23
586.559	24.23
586.682	23.23
586.804	23.23
586.927	7.23
587.049	18.23
587.171	35.23
587.294	40.23
587.416	24.23
587.539	17.23
587.661	46.23
587.783	24.23
587.906	35.23
588.028	30.23
588.151	27.23
588.273	34.23
588.395	15.23
588.518	15.23
588.64	23.23
588.763	30.23
588.885	27.23
589.007	35.23
589.13	18.23
589.252	14.23
589.375	19.23
589.497	25.23
589.619	28.23
589.742	37.23
589.864	32.23
589.986	30.23
590.109	18.23
590.231	10.23
590.354	34.23
590.476	12.23
590.598	2.23
590.721	3.23
590.843	28.23
590.965	30.23
591.088	21.23
591.21	18.23
591.332	27.23
591.455	13.23
591.577	3.23
591.7	32.23
591.822	33.23
591.944	25.23
592.067	12.23
592.189	31.23
592.311	36.23
592.434	33.23
592.556	24.23
592.678	26.23
592.801	28.23
592.923	30.23
593.045	24.23
593.168	36.23
593.29	28.23
593.412	38.23
593.535	22.23
593.657	25.23
593.779	15.23
593.902	31.23
594.024	18.23
594.146	35.23
594.269	35.23
594.391	24.23
594.513	27.23
594.636	13.23
594.758	5.23
594.88	53.23
595.003	38.23
595.125	22.23
595.247	36.23
595.37	19.23
595.492	10.23
595.614	44.23
595.737	16.23
595.859	18.23
595.981	30.23
596.104	8.23
596.226	7.23
596.348	29.23
596.471	29.23
596.593	18.23
596.715	11.23
596.838	10.23
596.96	26.23
597.082	42.23
597.204	24.23
597.327	13.23
597.449	13.23
597.571	21.23
597.694	24.23
597.816	13.23
597.938	26.23
598.061	14.23
598.183	34.23
598.305	32.23
598.427	35.23
598.55	19.23
598.672	28.23
598.794	16.23
598.917	29.23
599.039	21.23
599.161	15.23
599.283	7.23
599.406	11.23
599.528	18.23
599.65	37.23
599.773	26.23
599.895	36.23
600.017	27.23
600.139	20.23
600.262	-4.77
600.384	30.23
600.506	23.23
600.628	36.23
600.751	40.23
600.873	33.23
600.995	22.23
601.118	33.23
601.24	12.23
601.362	37.23
601.484	35.23
601.607	19.23
601.729	2.23
601.851	10.23
601.973	4.23
602.096	29.23
602.218	35.23
602.34	27.23
602.462	30.23
602.585	33.23
602.707	4.23
602.829	20.23
602.951	16.23
603.074	20.23
603.196	26.23
603.318	10.23
603.44	25.23
603.563	14.23
603.685	2.23
603.807	28.23
603.929	20.23
604.052	33.23
604.174	38.23
604.296	42.23
604.418	27.23
604.541	43.23
604.663	-1.77
604.785	21.23
604.907	19.23
605.03	15.23
605.152	52.23
605.274	19.23
605.396	19.23
605.519	23.23
605.641	7.23
605.763	21.23
605.885	20.23
606.008	22.23
606.13	13.23
606.252	14.23
606.374	27.23
606.496	18.23
606.619	10.23
606.741	8.23
606.863	33.23
606.985	40.23
607.108	38.23
607.23	23.23
607.352	11.23
607.474	6.23
607.596	14.23
607.719	15.23
607.841	30.23
607.963	7.23
608.085	7.23
608.207	43.23
608.33	3.23
608.452	3.23
608.574	9.23
608.696	29.23
608.819	15.23
608.941	22.23
609.063	17.23
609.185	23.23
609.307	34.23
609.43	19.23
609.552	25.23
609.674	11.23
609.796	32.23
609.918	49.23
610.041	28.23
610.163	24.23
610.285	24.23
610.407	24.23
610.529	15.23
610.652	15.23
610.774	22.23
610.896	13.23
611.018	25.23
611.14	11.23
611.263	13.23
611.385	7.23
611.507	20.23
611.629	22.23
611.751	22.23
611.873	40.23
611.996	31.23
612.118	47.23
612.24	11.23
612.362	32.23
612.484	32.23
612.607	34.23
612.729	48.23
612.851	45.23
612.973	19.23
613.095	6.23
613.218	21.23
613.34	19.23
613.462	35.23
613.584	16.23
613.706	12.23
613.828	39.23
613.951	19.23
614.073	15.23
614.195	2.23
614.317	32.23
614.439	35.23
614.561	24.23
614.684	16.23
614.806	35.23
614.928	12.23
615.05	27.23
615.172	39.23
615.294	28.23
615.417	21.23
615.539	6.23
615.661	19.23
615.783	32.23
615.905	26.23
616.027	23.23
616.15	44.23
616.272	15.23
616.394	19.23
616.516	11.23
616.638	15.23
616.76	11.23
616.883	21.23
617.005	12.23
617.127	22.23
617.249	27.23
617.371	12.23
617.493	7.23
617.615	34.23
617.738	36.23
617.86	34.23
617.982	23.23
618.104	14.23
618.226	17.23
618.348	8.23
618.471	33.23
618.593	34.23
618.715	7.23
618.837	21.23
618.959	10.23
619.081	44.23
619.203	14.23
619.326	35.23
619.448	34.23
619.57	26.23
619.692	28.23
619.814	22.23
619.936	15.23
620.058	24.23
620.181	29.23
620.303	16.23
620.425	26.23
620.547	7.23
620.669	21.23
620.791	29.23
620.913	11.23
621.036	15.23
621.158	11.23
621.28	19.23
621.402	15.23
621.524	13.23
621.646	25.23
621.768	20.23
621.891	14.23
622.013	18.23
622.135	5.23
622.257	8.23
622.379	20.23
622.501	6.23
622.623	21.23
622.745	23.23
622.868	16.23
622.99	7.23
623.112	9.23
623.234	3.23
623.356	26.23
623.478	18.23
623.6	28.23
623.722	14.23
623.845	15.23
623.967	24.23
624.089	30.23
624.211	31.23
624.333	19.23
624.455	29.23
624.577	13.23
624.699	30.23
624.822	24.23
624.944	10.23
625.066	25.23
625.188	13.23
625.31	35.23
625.432	38.23
625.554	25.23
625.676	38.23
625.799	20.23
625.921	42.23
626.043	21.23
626.165	11.23
626.287	-7.77
626.409	25.23
626.531	12.23
626.653	7.23
626.775	17.23
626.898	22.23
627.02	43.23
627.142	48.23
627.264	8.23
627.386	2.23
627.508	20.23
627.63	22.23
627.752	28.23
627.874	10.23
627.997	27.23
628.119	25.23
628.241	15.23
628.363	24.23
628.485	16.23
628.607	30.23
628.729	2.23
628.851	-17.77
628.973	16.23
629.096	-1.77
629.218	15.23
629.34	15.23
629.462	16.23
629.584	-2.77
629.706	15.23
629.828	21.23
629.95	11.23
630.072	5.23
630.195	14.23
630.317	14.23
630.439	19.23
630.561	20.23
630.683	-0.77
630.805	18.23
630.927	24.23
631.049	11.23
631.171	2.23
631.293	10.23
631.416	16.23
631.538	10.23
631.66	29.23
631.782	40.23
631.904	32.23
632.026	22.23
632.148	28.23
632.27	7.23
632.392	24.23
632.514	3.23
632.637	8.23
632.759	18.23
632.881	15.23
633.003	6.23
633.125	10.23
633.247	12.23
633.369	6.23
633.491	10.23
633.613	14.23
633.735	17.23
633.858	26.23
633.98	18.23
634.102	-17.77
634.224	13.23
634.346	6.23
634.468	12.23
634.59	15.23
634.712	8.23
634.834	19.23
634.956	7.23
635.078	13.23
635.201	10.23
635.323	5.23
635.445	18.23
635.567	2.23
635.689	26.23
635.811	10.23
635.933	13.23
636.055	9.23
636.177	25.23
636.299	35.23
636.421	18.23
636.544	-8.77
636.666	14.23
636.788	5.23
636.91	30.23
637.032	16.23
637.154	29.23
637.276	29.23
637.398	28.23
637.52	13.23
637.642	6.23
637.764	13.23
637.887	18.23
638.009	6.23
638.131	7.23
638.253	2.23
638.375	9.23
638.497	23.23
638.619	-13.77
638.741	15.23
638.863	0.23
638.985	6.23
639.107	1.23
639.23	25.23
639.352	44.23
639.474	25.23
639.596	13.23
639.718	6.23
639.84	22.23
639.962	22.23
640.084	11.23
640.206	21.23
640.328	18.23
640.45	0.23
640.573	20.23
640.695	10.23
640.817	12.23
640.939	7.23
641.061	6.23
641.183	8.23
641.305	8.23
641.427	7.23
641.549	22.23
641.671	12.23
641.793	12.23
641.915	24.23
642.038	10.23
642.16	-7.77
642.282	2.23
642.404	0.23
642.526	2.23
642.648	18.23
642.77	11.23
642.892	8.23
643.014	23.23
643.136	25.23
643.258	6.23
643.381	42.23
643.503	22.23
643.625	-1.77
643.747	-7.77
643.869	16.23
643.991	34.23
644.113	20.23
644.235	-0.77
644.357	11.23
644.479	22.23
644.601	11.23
644.723	-4.77
644.846	21.23
644.968	31.23
645.09	14.23
645.212	11.23
645.334	26.23
645.456	23.23
645.578	26.23
645.7	25.23
645.822	6.23
645.944	13.23
646.066	7.23
646.188	12.23
646.311	11.23
646.433	1.23
646.555	23.23
646.677	18.23
646.799	13.23
646.921	37.23
647.043	18.23
647.165	-11.77
647.287	8.23
647.409	24.23
647.531	27.23
647.654	-0.77
647.776	11.23
647.898	12.23
648.02	12.23
648.142	10.23
648.264	10.23
648.386	23.23
648.508	-1.77
648.63	-0.77
648.752	18.23
648.874	16.23
648.997	14.23
649.119	25.23
649.241	8.23
649.363	16.23
649.485	23.23
649.607	12.23
649.729	-4.77
649.851	10.23
649.973	-2.77
650.095	10.23
650.217	-4.77
650.34	1.23
650.462	9.23
650.584	5.23
650.706	20.23
650.828	27.23
650.95	-5.77
651.072	8.23
651.194	-23.77
651.316	13.23
651.438	21.23
651.56	4.23
651.683	13.23
651.805	20.23
651.927	13.23
652.049	4.23
652.171	12.23
652.293	7.23
652.415	2.23
652.537	18.23
652.659	-4.77
652.781	11.23
652.903	3.23
653.026	19.23
653.148	19.23
653.27	19.23
653.392	16.23
653.514	-3.77
653.636	14.23
653.758	-6.77
653.88	-2.77
654.002	3.23
654.124	-5.77
654.247	8.23
654.369	25.23
654.491	7.23
654.613	0.23
654.735	-5.77
654.857	12.23
654.979	8.23
655.101	13.23
655.223	6.23
655.345	6.23
655.468	26.23
655.59	18.23
655.712	3.23
655.834	-13.77
655.956	24.23
656.078	15.23
656.2	23.23
656.322	3.23
656.444	-10.77
656.566	16.23
656.689	3.23
656.811	-11.77
656.933	24.23
657.055	-14.77
657.177	0.23
657.299	7.23
657.421	7.23
657.543	18.23
657.665	-6.77
657.787	9.23
657.91	-7.77
658.032	4.23
658.154	-0.77
658.276	11.23
658.398	3.23
658.52	17.23
658.642	11.23
658.764	4.23
658.886	-16.77
659.009	2.23
659.131	27.23
659.253	28.23
659.375	25.23
659.497	8.23
659.619	26.23
659.741	22.23
659.863	-2.77
659.985	-5.77
660.108	24.23
660.23	6.23
660.352	6.23
660.474	11.23
660.596	25.23
660.718	20.23
660.84	9.23
660.962	18.23
661.084	-1.77
661.207	-10.77
661.329	15.23
661.451	8.23
661.573	-1.77
661.695	24.23
661.817	8.23
661.939	8.23
662.061	26.23
662.184	13.23
662.306	15.23
662.428	9.23
662.55	31.23
662.672	11.23
662.794	10.23
662.916	-1.77
663.038	6.23
663.161	32.23
663.283	18.23
663.405	4.23
663.527	-11.77
663.649	22.23
663.771	10.23
663.893	21.23
664.015	16.23
664.138	15.23
664.26	15.23
664.382	2.23
664.504	0.23
664.626	5.23
664.748	-1.77
664.87	-2.77
664.992	11.23
665.115	6.23
665.237	3.23
665.359	11.23
665.481	9.23
665.603	2.23
665.725	-7.77
665.847	6.23
665.97	20.23
666.092	18.23
666.214	5.23
666.336	8.23
666.458	2.23
666.58	5.23
666.702	-9.77
666.825	-4.77
666.947	-12.77
667.069	6.23
667.191	0.23
667.313	25.23
667.435	-5.77
667.557	4.23
667.68	-5.77
667.802	-5.77
667.924	-11.77
668.046	11.23
668.168	11.23
668.29	18.23
668.412	12.23
668.535	9.23
668.657	1.23
668.779	0.23
668.901	23.23
669.023	12.23
669.145	0.23
669.267	1.23
669.39	9.23
669.512	23.23
669.634	17.23
669.756	-1.77
669.878	9.23
670	20.23
670.123	3.23
670.245	38.23
670.367	23.23
670.489	15.23
670.611	8.23
670.733	-3.77
670.856	19.23
670.978	28.23
671.1	12.23
671.222	5.23
671.344	-4.77
671.466	16.23
671.589	-9.77
671.711	8.23
671.833	-6.77
671.955	0.23
672.077	-4.77
672.199	37.23
672.322	23.23
672.444	8.23
672.566	32.23
672.688	1.23
672.81	26.23
672.932	19.23
673.055	-4.77
673.177	3.23
673.299	8.23
673.421	4.23
673.543	8.23
673.665	33.23
673.788	30.23
673.91	-11.77
674.032	-15.77
674.154	3.23
674.276	6.23
674.399	6.23
674.521	-0.77
674.643	-1.77
674.765	12.23
674.887	22.23
675.009	-5.77
675.132	2.23
675.254	3.23
675.376	7.23
675.498	6.23
675.62	24.23
675.743	-3.77
675.865	16.23
675.987	8.23
676.109	14.23
676.231	26.23
676.354	30.23
676.476	6.23
676.598	15.23
676.72	11.23
676.842	18.23
676.965	21.23
677.087	34.23
677.209	-1.77
677.331	14.23
677.453	9.23
677.576	-11.77
677.698	0.23
677.82	3.23
677.942	-0.77
678.064	-2.77
678.187	-7.77
678.309	-4.77
678.431	2.23
678.553	7.23
678.675	19.23
678.798	20.23
678.92	10.23
679.042	6.23
679.164	4.23
679.286	28.23
679.409	6.23
679.531	9.23
679.653	-6.77
679.775	-18.77
679.898	6.23
680.02	15.23
680.142	-3.77
680.264	-3.77
680.386	1.23
680.509	15.23
680.631	4.23
680.753	8.23
680.875	17.23
680.998	12.23
681.12	5.23
681.242	4.23
681.364	-5.77
681.486	2.23
681.609	6.23
681.731	0.23
681.853	-4.77
681.975	12.23
682.098	15.23
682.22	23.23
682.342	-0.77
682.464	20.23
682.587	5.23
682.709	12.23
682.831	-2.77
682.953	16.23
683.076	4.23
683.198	-12.77
683.32	15.23
683.442	15.23
683.565	12.23
683.687	-18.77
683.809	0.23
683.931	-18.77
684.054	23.23
684.176	21.23
684.298	18.23
684.42	11.23
684.543	-2.77
684.665	5.23
684.787	-1.77
684.909	9.23
685.032	2.23
685.154	6.23
685.276	7.23
685.398	12.23
685.521	15.23
685.643	12.23
685.765	17.23
685.887	24.23
686.01	22.23
686.132	14.23
686.254	15.23
686.377	2.23
686.499	15.23
686.621	22.23
686.743	3.23
686.866	13.23
686.988	23.23
687.11	16.23
687.232	-4.77
687.355	7.23
687.477	11.23
687.599	28.23
687.722	3.23
687.844	7.23
687.966	11.23
688.088	10.23
688.211	10.23
688.333	16.23
688.455	10.23
688.578	19.23
688.7	18.23
688.822	9.23
688.944	-3.77
689.067	41.23
689.189	11.23
689.311	-6.77
689.434	17.23
689.556	20.23
689.678	16.23
689.801	13.23
689.923	22.23
690.045	29.23
690.167	22.23
690.29	21.23
690.412	7.23
690.534	26.23
690.657	2.23
690.779	8.23
690.901	2.23
691.024	16.23
691.146	8.23
691.268	20.23
691.391	30.23
691.513	18.23
691.635	8.23
691.758	13.23
691.88	15.23
692.002	-0.77
692.125	-18.77
692.247	13.23
692.369	-9.77
692.492	3.23
692.614	20.23
692.736	8.23
692.859	-3.77
692.981	4.23
693.103	8.23
693.226	18.23
693.348	36.23
693.47	15.23
693.593	16.23
693.715	28.23
693.837	16.23
693.96	12.23
694.082	16.23
694.204	2.23
694.327	5.23
694.449	-1.77
694.571	2.23
694.694	18.23
694.816	22.23
694.938	-11.77
695.061	11.23
695.183	23.23
695.305	13.23
695.428	11.23
695.55	2.23
695.672	-3.77
695.795	27.23
695.917	20.23
696.04	17.23
696.162	-2.77
696.284	11.23
696.407	18.23
696.529	24.23
696.651	13.23
696.774	-6.77
696.896	14.23
697.019	23.23
697.141	23.23
697.263	19.23
697.386	-0.77
697.508	5.23
697.63	5.23
697.753	10.23
697.875	6.23
697.998	-0.77
698.12	7.23
698.242	9.23
698.365	-0.77
698.487	8.23
698.61	-2.77
698.732	10.23
698.854	29.23
698.977	-3.77
699.099	16.23
699.221	10.23
699.344	2.23
699.466	30.23
699.589	4.23
699.711	11.23
699.834	17.23
699.956	10.23
700.078	11.23
700.201	3.23
700.323	29.23
700.446	29.23
700.568	-8.77
700.69	-4.77
700.813	4.23
700.935	6.23
701.058	20.23
701.18	25.23
701.302	-2.77
701.425	13.23
701.547	2.23
701.67	18.23
701.792	13.23
701.915	4.23
702.037	4.23
702.159	18.23
702.282	6.23
702.404	8.23
702.527	30.23
702.649	23.23
702.772	12.23
702.894	29.23
703.017	29.23
703.139	11.23
703.261	19.23
703.384	15.23
703.506	-3.77
703.629	10.23
703.751	26.23
703.874	25.23
703.996	3.23
704.119	14.23
704.241	14.23
704.364	8.23
704.486	13.23
704.608	22.23
704.731	21.23
704.853	21.23
704.976	-6.77
705.098	4.23
705.221	0.23
705.343	20.23
705.466	12.23
705.588	27.23
705.711	8.23
705.833	11.23
705.956	-2.77
706.078	8.23
706.201	7.23
706.323	-0.77
706.446	0.23
