Data from LowRes_mercury_15_20_11_07_2024_HR4C61881__59__15-23-38-170.txt Node

Date: Thu Nov 07 15:23:38 EST 2024
User: crc00042
Spectrometer: HR4C6188
Trigger mode: 4
Integration Time (sec): 1.000000E-1
Scans to average: 1
Electric dark correction enabled: true
Nonlinearity correction enabled: false
Boxcar width: 0
XAxis mode: Wavelengths
Number of Pixels in Spectrum: 3648
>>>>>Begin Spectral Data<<<<<
245.66	-54.23
245.797	-54.23
245.934	-54.23
246.071	-73.23
246.208	-6.23
246.344	2.77
246.481	-19.23
246.618	-7.23
246.755	7.77
246.892	2.77
247.029	-0.23
247.165	-2.23
247.302	17.77
247.439	-3.23
247.576	1.77
247.713	-11.23
247.849	23.77
247.986	-13.23
248.123	-3.23
248.26	-7.23
248.396	2.77
248.533	-5.23
248.67	7.77
248.806	11.77
248.943	-21.23
249.08	-11.23
249.216	3.77
249.353	-15.23
249.49	0.77
249.626	14.77
249.763	-22.23
249.9	-12.23
250.036	-8.23
250.173	0.77
250.309	-1.23
250.446	1.77
250.582	-7.23
250.719	-28.23
250.856	3.77
250.992	-10.23
251.129	-16.23
251.265	-24.23
251.402	-17.23
251.538	-3.23
251.675	-2.23
251.811	13.77
251.948	12.77
252.084	4.77
252.221	-9.23
252.357	-6.23
252.493	13.77
252.63	-23.23
252.766	13.77
252.903	-15.23
253.039	-5.23
253.175	-10.23
253.312	2.77
253.448	-17.23
253.585	-7.23
253.721	17.77
253.857	-4.23
253.994	4.77
254.13	-3.23
254.266	8.77
254.403	24.77
254.539	-3.23
254.675	13.77
254.811	6.77
254.948	-8.23
255.084	4.77
255.22	-6.23
255.356	-3.23
255.493	8.77
255.629	-2.23
255.765	8.77
255.901	2.77
256.037	23.77
256.174	24.77
256.31	-23.23
256.446	-12.23
256.582	-12.23
256.718	8.77
256.854	1.77
256.991	3.77
257.127	8.77
257.263	2.77
257.399	2.77
257.535	-10.23
257.671	3.77
257.807	1.77
257.943	-15.23
258.079	-23.23
258.215	-24.23
258.351	5.77
258.487	6.77
258.623	4.77
258.759	2.77
258.895	-7.23
259.031	13.77
259.167	-11.23
259.303	5.77
259.439	-5.23
259.575	-3.23
259.711	-12.23
259.847	-8.23
259.983	5.77
260.119	-6.23
260.255	-8.23
260.391	8.77
260.527	12.77
260.663	-8.23
260.799	9.77
260.934	5.77
261.07	-1.23
261.206	-4.23
261.342	-28.23
261.478	13.77
261.614	4.77
261.749	0.77
261.885	5.77
262.021	1.77
262.157	0.77
262.293	3.77
262.428	-5.23
262.564	-2.23
262.7	-3.23
262.836	-13.23
262.971	16.77
263.107	-2.23
263.243	20.77
263.378	-4.23
263.514	-5.23
263.65	-3.23
263.785	-7.23
263.921	-9.23
264.057	-16.23
264.192	13.77
264.328	21.77
264.464	9.77
264.599	3.77
264.735	8.77
264.871	-7.23
265.006	4.77
265.142	-1.23
265.277	7.77
265.413	13.77
265.548	11.77
265.684	16.77
265.819	-3.23
265.955	-13.23
266.091	-7.23
266.226	-8.23
266.362	-5.23
266.497	3.77
266.633	-8.23
266.768	-18.23
266.903	0.77
267.039	3.77
267.174	9.77
267.31	2.77
267.445	-3.23
267.581	-7.23
267.716	0.77
267.851	12.77
267.987	12.77
268.122	13.77
268.258	-11.23
268.393	-7.23
268.528	5.77
268.664	-2.23
268.799	-14.23
268.934	-2.23
269.07	-16.23
269.205	5.77
269.34	22.77
269.476	8.77
269.611	-15.23
269.746	-0.23
269.881	9.77
270.017	13.77
270.152	17.77
270.287	2.77
270.422	1.77
270.558	-4.23
270.693	15.77
270.828	-18.23
270.963	-4.23
271.098	-29.23
271.234	-18.23
271.369	18.77
271.504	13.77
271.639	-7.23
271.774	-11.23
271.909	8.77
272.045	-21.23
272.18	-3.23
272.315	-7.23
272.45	0.77
272.585	-15.23
272.72	6.77
272.855	11.77
272.99	5.77
273.125	-12.23
273.26	-3.23
273.395	-6.23
273.53	-4.23
273.665	5.77
273.8	-22.23
273.935	-11.23
274.07	-13.23
274.205	8.77
274.34	4.77
274.475	1.77
274.61	-2.23
274.745	1.77
274.88	12.77
275.015	-10.23
275.15	4.77
275.285	10.77
275.42	-7.23
275.555	6.77
275.69	-1.23
275.825	3.77
275.959	3.77
276.094	13.77
276.229	-6.23
276.364	-12.23
276.499	-6.23
276.634	-3.23
276.768	0.77
276.903	3.77
277.038	5.77
277.173	-7.23
277.308	-19.23
277.442	-9.23
277.577	-9.23
277.712	-15.23
277.847	-7.23
277.981	0.77
278.116	-26.23
278.251	5.77
278.386	-14.23
278.52	-0.23
278.655	-4.23
278.79	23.77
278.924	1.77
279.059	15.77
279.194	-4.23
279.328	19.77
279.463	0.77
279.598	32.77
279.732	2.77
279.867	8.77
280.001	0.77
280.136	-0.23
280.271	13.77
280.405	7.77
280.54	0.77
280.674	8.77
280.809	19.77
280.943	24.77
281.078	4.77
281.213	15.77
281.347	-0.23
281.482	-14.23
281.616	-13.23
281.751	-8.23
281.885	-28.23
282.02	-25.23
282.154	5.77
282.288	-20.23
282.423	-17.23
282.557	-17.23
282.692	4.77
282.826	-16.23
282.961	11.77
283.095	-25.23
283.229	-3.23
283.364	-21.23
283.498	0.77
283.633	3.77
283.767	-2.23
283.901	-9.23
284.036	-3.23
284.17	3.77
284.304	10.77
284.439	2.77
284.573	6.77
284.707	27.77
284.842	2.77
284.976	0.77
285.11	-12.23
285.244	4.77
285.379	29.77
285.513	-13.23
285.647	5.77
285.781	-8.23
285.916	5.77
286.05	-7.23
286.184	4.77
286.318	0.77
286.453	-12.23
286.587	-15.23
286.721	-8.23
286.855	-14.23
286.989	4.77
287.123	-9.23
287.258	-10.23
287.392	4.77
287.526	0.77
287.66	-19.23
287.794	-8.23
287.928	-0.23
288.062	2.77
288.196	1.77
288.33	-6.23
288.464	19.77
288.598	4.77
288.733	4.77
288.867	19.77
289.001	14.77
289.135	6.77
289.269	-22.23
289.403	-2.23
289.537	0.77
289.671	16.77
289.805	5.77
289.939	6.77
290.073	-5.23
290.207	4.77
290.34	-14.23
290.474	8.77
290.608	-3.23
290.742	12.77
290.876	-22.23
291.01	10.77
291.144	24.77
291.278	9.77
291.412	-5.23
291.546	-14.23
291.679	-10.23
291.813	14.77
291.947	-3.23
292.081	-0.23
292.215	-16.23
292.349	-3.23
292.482	8.77
292.616	-20.23
292.75	12.77
292.884	3.77
293.018	10.77
293.151	-11.23
293.285	4.77
293.419	-3.23
293.553	-10.23
293.686	-11.23
293.82	-11.23
293.954	-10.23
294.088	18.77
294.221	6.77
294.355	-13.23
294.489	-7.23
294.622	-20.23
294.756	-7.23
294.89	7.77
295.023	2.77
295.157	17.77
295.291	0.77
295.424	9.77
295.558	11.77
295.691	1.77
295.825	11.77
295.959	4.77
296.092	-9.23
296.226	-0.23
296.359	0.77
296.493	-2.23
296.627	7.77
296.76	-6.23
296.894	-14.23
297.027	12.77
297.161	12.77
297.294	-14.23
297.428	5.77
297.561	23.77
297.695	-2.23
297.828	-2.23
297.962	-17.23
298.095	-13.23
298.229	6.77
298.362	-15.23
298.495	-14.23
298.629	-25.23
298.762	12.77
298.896	10.77
299.029	-7.23
299.162	6.77
299.296	-1.23
299.429	-3.23
299.563	-7.23
299.696	-0.23
299.829	-4.23
299.963	8.77
300.096	0.77
300.229	15.77
300.363	13.77
300.496	-5.23
300.629	-20.23
300.763	-3.23
300.896	1.77
301.029	1.77
301.162	0.77
301.296	-24.23
301.429	3.77
301.562	-12.23
301.695	-2.23
301.829	5.77
301.962	13.77
302.095	12.77
302.228	-11.23
302.362	2.77
302.495	-8.23
302.628	4.77
302.761	2.77
302.894	0.77
303.027	-0.23
303.161	-7.23
303.294	-20.23
303.427	10.77
303.56	-4.23
303.693	-20.23
303.826	-8.23
303.959	-12.23
304.092	5.77
304.225	0.77
304.359	5.77
304.492	-4.23
304.625	-7.23
304.758	-6.23
304.891	-5.23
305.024	-4.23
305.157	2.77
305.29	-4.23
305.423	-14.23
305.556	6.77
305.689	15.77
305.822	9.77
305.955	0.77
306.088	-7.23
306.221	14.77
306.354	-22.23
306.487	-16.23
306.62	-15.23
306.752	-17.23
306.885	-2.23
307.018	14.77
307.151	-2.23
307.284	2.77
307.417	-27.23
307.55	4.77
307.683	-5.23
307.816	-13.23
307.948	-8.23
308.081	3.77
308.214	9.77
308.347	24.77
308.48	-9.23
308.613	-11.23
308.745	1.77
308.878	-20.23
309.011	-17.23
309.144	-0.23
309.277	1.77
309.409	-2.23
309.542	-9.23
309.675	15.77
309.808	-3.23
309.94	20.77
310.073	-8.23
310.206	-14.23
310.339	13.77
310.471	-12.23
310.604	25.77
310.737	-17.23
310.869	0.77
311.002	4.77
311.135	-22.23
311.267	-12.23
311.4	-5.23
311.533	-2.23
311.665	-0.23
311.798	-5.23
311.93	19.77
312.063	25.77
312.196	47.77
312.328	72.77
312.461	32.77
312.593	23.77
312.726	40.77
312.859	107.77
312.991	168.77
313.124	38.77
313.256	-1.23
313.389	-8.23
313.521	-14.23
313.654	-13.23
313.786	-41.23
313.919	-11.23
314.051	4.77
314.184	3.77
314.316	-1.23
314.449	-13.23
314.581	-2.23
314.714	-15.23
314.846	19.77
314.978	-6.23
315.111	-13.23
315.243	0.77
315.376	1.77
315.508	9.77
315.641	5.77
315.773	9.77
315.905	-4.23
316.038	16.77
316.17	8.77
316.302	9.77
316.435	-2.23
316.567	9.77
316.699	23.77
316.832	-16.23
316.964	-19.23
317.096	-23.23
317.229	-23.23
317.361	-24.23
317.493	-10.23
317.625	-15.23
317.758	1.77
317.89	16.77
318.022	-14.23
318.155	-22.23
318.287	5.77
318.419	1.77
318.551	-7.23
318.683	4.77
318.816	5.77
318.948	11.77
319.08	-16.23
319.212	-6.23
319.344	5.77
319.477	-2.23
319.609	2.77
319.741	8.77
319.873	1.77
320.005	-0.23
320.137	5.77
320.269	8.77
320.401	1.77
320.534	-9.23
320.666	-18.23
320.798	-17.23
320.93	-15.23
321.062	-21.23
321.194	-17.23
321.326	0.77
321.458	1.77
321.59	-6.23
321.722	-13.23
321.854	6.77
321.986	4.77
322.118	1.77
322.25	-25.23
322.382	-18.23
322.514	-8.23
322.646	-15.23
322.778	6.77
322.91	-9.23
323.042	11.77
323.174	14.77
323.306	-2.23
323.438	-24.23
323.57	10.77
323.702	2.77
323.834	3.77
323.966	-5.23
324.097	4.77
324.229	5.77
324.361	-4.23
324.493	-4.23
324.625	-11.23
324.757	3.77
324.889	2.77
325.021	7.77
325.152	21.77
325.284	30.77
325.416	-8.23
325.548	13.77
325.68	-6.23
325.811	20.77
325.943	6.77
326.075	-6.23
326.207	24.77
326.339	5.77
326.47	-4.23
326.602	-2.23
326.734	0.77
326.866	3.77
326.997	-24.23
327.129	-4.23
327.261	-17.23
327.392	-13.23
327.524	-8.23
327.656	-1.23
327.787	6.77
327.919	0.77
328.051	13.77
328.182	23.77
328.314	19.77
328.446	-3.23
328.577	12.77
328.709	1.77
328.841	-24.23
328.972	-25.23
329.104	0.77
329.235	-1.23
329.367	-2.23
329.499	10.77
329.63	-5.23
329.762	-4.23
329.893	6.77
330.025	-1.23
330.156	-4.23
330.288	1.77
330.419	13.77
330.551	24.77
330.683	10.77
330.814	-2.23
330.946	8.77
331.077	-21.23
331.208	-3.23
331.34	-16.23
331.471	-19.23
331.603	8.77
331.734	-5.23
331.866	5.77
331.997	13.77
332.129	-9.23
332.26	-16.23
332.392	-0.23
332.523	-4.23
332.654	-4.23
332.786	-9.23
332.917	-8.23
333.048	10.77
333.18	12.77
333.311	-5.23
333.443	5.77
333.574	31.77
333.705	29.77
333.837	24.77
333.968	98.77
334.099	210.77
334.231	213.77
334.362	64.77
334.493	41.77
334.624	29.77
334.756	18.77
334.887	16.77
335.018	13.77
335.15	12.77
335.281	-9.23
335.412	20.77
335.543	17.77
335.675	17.77
335.806	14.77
335.937	-16.23
336.068	-4.23
336.199	21.77
336.331	19.77
336.462	-0.23
336.593	31.77
336.724	1.77
336.855	-8.23
336.986	12.77
337.118	5.77
337.249	12.77
337.38	13.77
337.511	-7.23
337.642	25.77
337.773	16.77
337.904	15.77
338.035	2.77
338.166	-0.23
338.298	5.77
338.429	-15.23
338.56	8.77
338.691	-2.23
338.822	7.77
338.953	22.77
339.084	23.77
339.215	11.77
339.346	-7.23
339.477	-13.23
339.608	6.77
339.739	-10.23
339.87	1.77
340.001	-0.23
340.132	23.77
340.263	-5.23
340.394	7.77
340.525	15.77
340.656	-10.23
340.787	1.77
340.918	29.77
341.049	5.77
341.179	12.77
341.31	4.77
341.441	18.77
341.572	22.77
341.703	25.77
341.834	8.77
341.965	10.77
342.096	-3.23
342.227	9.77
342.357	17.77
342.488	-10.23
342.619	28.77
342.75	15.77
342.881	16.77
343.012	33.77
343.142	42.77
343.273	13.77
343.404	16.77
343.535	45.77
343.666	34.77
343.796	3.77
343.927	29.77
344.058	36.77
344.189	35.77
344.319	14.77
344.45	4.77
344.581	20.77
344.712	-7.23
344.842	19.77
344.973	21.77
345.104	21.77
345.234	16.77
345.365	27.77
345.496	22.77
345.626	11.77
345.757	12.77
345.888	13.77
346.018	42.77
346.149	24.77
346.28	25.77
346.41	17.77
346.541	22.77
346.672	16.77
346.802	38.77
346.933	26.77
347.063	24.77
347.194	26.77
347.325	16.77
347.455	36.77
347.586	10.77
347.716	11.77
347.847	37.77
347.977	58.77
348.108	36.77
348.238	32.77
348.369	13.77
348.499	39.77
348.63	50.77
348.76	33.77
348.891	19.77
349.021	49.77
349.152	43.77
349.282	62.77
349.413	35.77
349.543	52.77
349.674	37.77
349.804	33.77
349.935	12.77
350.065	35.77
350.196	20.77
350.326	20.77
350.456	21.77
350.587	39.77
350.717	19.77
350.848	34.77
350.978	22.77
351.108	5.77
351.239	28.77
351.369	12.77
351.499	31.77
351.63	30.77
351.76	17.77
351.89	3.77
352.021	27.77
352.151	-0.23
352.281	21.77
352.412	26.77
352.542	16.77
352.672	24.77
352.803	12.77
352.933	27.77
353.063	7.77
353.193	9.77
353.324	6.77
353.454	10.77
353.584	11.77
353.714	4.77
353.845	30.77
353.975	13.77
354.105	25.77
354.235	20.77
354.365	19.77
354.496	20.77
354.626	23.77
354.756	20.77
354.886	16.77
355.016	15.77
355.146	11.77
355.277	20.77
355.407	17.77
355.537	8.77
355.667	27.77
355.797	8.77
355.927	-3.23
356.057	32.77
356.187	13.77
356.318	34.77
356.448	21.77
356.578	25.77
356.708	20.77
356.838	29.77
356.968	18.77
357.098	36.77
357.228	22.77
357.358	0.77
357.488	16.77
357.618	49.77
357.748	29.77
357.878	13.77
358.008	3.77
358.138	17.77
358.268	46.77
358.398	38.77
358.528	-2.23
358.658	42.77
358.788	27.77
358.918	27.77
359.048	41.77
359.178	38.77
359.308	17.77
359.438	37.77
359.568	36.77
359.698	33.77
359.827	21.77
359.957	16.77
360.087	38.77
360.217	27.77
360.347	35.77
360.477	39.77
360.607	19.77
360.737	32.77
360.866	16.77
360.996	15.77
361.126	2.77
361.256	33.77
361.386	48.77
361.516	53.77
361.645	-6.23
361.775	31.77
361.905	8.77
362.035	31.77
362.165	28.77
362.294	44.77
362.424	54.77
362.554	35.77
362.684	35.77
362.813	36.77
362.943	29.77
363.073	34.77
363.203	69.77
363.332	43.77
363.462	55.77
363.592	94.77
363.721	120.77
363.851	159.77
363.981	194.77
364.111	252.77
364.24	308.77
364.37	488.77
364.5	866.77
364.629	1821.77
364.759	3818.77
364.888	6244.77
365.018	9345.77
365.148	14795.77
365.277	12947.77
365.407	4716.77
365.537	3103.77
365.666	4082.77
365.796	1867.77
365.925	814.77
366.055	776.77
366.184	1030.77
366.314	1388.77
366.444	2420.77
366.573	2076.77
366.703	631.77
366.832	208.77
366.962	97.77
367.091	74.77
367.221	89.77
367.35	65.77
367.48	91.77
367.609	50.77
367.739	57.77
367.868	25.77
367.998	39.77
368.127	59.77
368.257	58.77
368.386	60.77
368.516	37.77
368.645	20.77
368.775	39.77
368.904	31.77
369.033	23.77
369.163	32.77
369.292	41.77
369.422	42.77
369.551	43.77
369.68	39.77
369.81	51.77
369.939	25.77
370.069	43.77
370.198	41.77
370.327	15.77
370.457	33.77
370.586	28.77
370.715	25.77
370.845	37.77
370.974	42.77
371.103	55.77
371.233	51.77
371.362	51.77
371.491	35.77
371.621	47.77
371.75	43.77
371.879	31.77
372.008	33.77
372.138	40.77
372.267	54.77
372.396	43.77
372.525	23.77
372.655	24.77
372.784	28.77
372.913	36.77
373.042	20.77
373.172	45.77
373.301	3.77
373.43	-6.23
373.559	16.77
373.688	22.77
373.818	8.77
373.947	9.77
374.076	-0.23
374.205	27.77
374.334	12.77
374.463	30.77
374.593	20.77
374.722	19.77
374.851	27.77
374.98	3.77
375.109	18.77
375.238	44.77
375.367	42.77
375.496	11.77
375.625	13.77
375.755	22.77
375.884	34.77
376.013	36.77
376.142	0.77
376.271	17.77
376.4	20.77
376.529	29.77
376.658	39.77
376.787	34.77
376.916	3.77
377.045	23.77
377.174	12.77
377.303	-2.23
377.432	22.77
377.561	19.77
377.69	9.77
377.819	33.77
377.948	9.77
378.077	11.77
378.206	-2.23
378.335	5.77
378.464	13.77
378.593	26.77
378.722	7.77
378.851	3.77
378.98	36.77
379.108	2.77
379.237	-8.23
379.366	9.77
379.495	11.77
379.624	15.77
379.753	20.77
379.882	8.77
380.011	-3.23
380.14	1.77
380.268	2.77
380.397	11.77
380.526	8.77
380.655	13.77
380.784	-4.23
380.913	-3.23
381.041	19.77
381.17	-5.23
381.299	-6.23
381.428	21.77
381.557	27.77
381.685	16.77
381.814	26.77
381.943	26.77
382.072	-5.23
382.2	-5.23
382.329	17.77
382.458	-2.23
382.587	40.77
382.715	30.77
382.844	18.77
382.973	9.77
383.102	7.77
383.23	23.77
383.359	7.77
383.488	29.77
383.616	34.77
383.745	17.77
383.874	16.77
384.003	8.77
384.131	12.77
384.26	4.77
384.389	33.77
384.517	15.77
384.646	-9.23
384.774	20.77
384.903	40.77
385.032	31.77
385.16	25.77
385.289	13.77
385.418	4.77
385.546	16.77
385.675	25.77
385.803	22.77
385.932	21.77
386.06	6.77
386.189	8.77
386.318	34.77
386.446	12.77
386.575	9.77
386.703	38.77
386.832	3.77
386.96	-16.23
387.089	31.77
387.217	14.77
387.346	-3.23
387.474	26.77
387.603	14.77
387.731	16.77
387.86	36.77
387.988	25.77
388.117	19.77
388.245	7.77
388.374	8.77
388.502	20.77
388.631	10.77
388.759	16.77
388.888	27.77
389.016	4.77
389.144	18.77
389.273	36.77
389.401	27.77
389.53	17.77
389.658	24.77
389.786	1.77
389.915	17.77
390.043	13.77
390.172	16.77
390.3	34.77
390.428	39.77
390.557	18.77
390.685	45.77
390.813	38.77
390.942	25.77
391.07	19.77
391.198	23.77
391.327	9.77
391.455	3.77
391.583	41.77
391.712	2.77
391.84	7.77
391.968	18.77
392.096	16.77
392.225	5.77
392.353	17.77
392.481	16.77
392.609	42.77
392.738	26.77
392.866	7.77
392.994	5.77
393.122	37.77
393.251	29.77
393.379	29.77
393.507	-2.23
393.635	1.77
393.764	30.77
393.892	13.77
394.02	5.77
394.148	22.77
394.276	28.77
394.404	43.77
394.533	27.77
394.661	29.77
394.789	42.77
394.917	37.77
395.045	20.77
395.173	5.77
395.302	23.77
395.43	4.77
395.558	47.77
395.686	31.77
395.814	32.77
395.942	4.77
396.07	39.77
396.198	29.77
396.326	35.77
396.454	48.77
396.582	40.77
396.711	33.77
396.839	27.77
396.967	19.77
397.095	8.77
397.223	27.77
397.351	48.77
397.479	43.77
397.607	18.77
397.735	49.77
397.863	42.77
397.991	36.77
398.119	25.77
398.247	40.77
398.375	34.77
398.503	52.77
398.631	47.77
398.759	59.77
398.887	37.77
399.015	47.77
399.143	42.77
399.271	50.77
399.399	53.77
399.526	76.77
399.654	93.77
399.782	71.77
399.91	86.77
400.038	97.77
400.166	84.77
400.294	87.77
400.422	90.77
400.55	106.77
400.678	100.77
400.805	103.77
400.933	97.77
401.061	103.77
401.189	93.77
401.317	147.77
401.445	87.77
401.573	74.77
401.7	46.77
401.828	36.77
401.956	45.77
402.084	43.77
402.212	37.77
402.34	25.77
402.467	7.77
402.595	40.77
402.723	43.77
402.851	58.77
402.978	58.77
403.106	68.77
403.234	87.77
403.362	109.77
403.489	116.77
403.617	154.77
403.745	171.77
403.873	285.77
404	559.77
404.128	1474.77
404.256	3976.77
404.384	5097.77
404.511	5437.77
404.639	7163.77
404.767	11455.77
404.894	14613.77
405.022	4939.77
405.15	1312.77
405.277	416.77
405.405	251.77
405.533	113.77
405.66	119.77
405.788	46.77
405.916	57.77
406.043	32.77
406.171	53.77
406.299	57.77
406.426	56.77
406.554	49.77
406.681	63.77
406.809	63.77
406.937	52.77
407.064	47.77
407.192	108.77
407.319	315.77
407.447	519.77
407.574	542.77
407.702	625.77
407.83	861.77
407.957	1553.77
408.085	951.77
408.212	285.77
408.34	91.77
408.467	69.77
408.595	49.77
408.722	58.77
408.85	33.77
408.977	8.77
409.105	14.77
409.232	39.77
409.36	39.77
409.487	30.77
409.615	29.77
409.742	31.77
409.87	16.77
409.997	49.77
410.125	27.77
410.252	23.77
410.379	21.77
410.507	38.77
410.634	15.77
410.762	14.77
410.889	30.77
411.017	19.77
411.144	20.77
411.271	24.77
411.399	25.77
411.526	21.77
411.653	3.77
411.781	34.77
411.908	34.77
412.036	16.77
412.163	30.77
412.29	11.77
412.418	28.77
412.545	31.77
412.672	14.77
412.8	54.77
412.927	44.77
413.054	45.77
413.182	27.77
413.309	22.77
413.436	13.77
413.564	15.77
413.691	8.77
413.818	21.77
413.945	28.77
414.073	7.77
414.2	23.77
414.327	23.77
414.454	20.77
414.582	25.77
414.709	21.77
414.836	40.77
414.963	27.77
415.091	34.77
415.218	25.77
415.345	41.77
415.472	38.77
415.6	20.77
415.727	21.77
415.854	28.77
415.981	23.77
416.108	28.77
416.236	24.77
416.363	25.77
416.49	25.77
416.617	11.77
416.744	38.77
416.871	50.77
416.998	19.77
417.126	15.77
417.253	44.77
417.38	30.77
417.507	35.77
417.634	30.77
417.761	27.77
417.888	26.77
418.015	26.77
418.143	16.77
418.27	39.77
418.397	14.77
418.524	30.77
418.651	33.77
418.778	33.77
418.905	61.77
419.032	32.77
419.159	12.77
419.286	41.77
419.413	53.77
419.54	44.77
419.667	20.77
419.794	33.77
419.921	32.77
420.048	37.77
420.175	49.77
420.302	45.77
420.429	52.77
420.556	48.77
420.683	23.77
420.81	44.77
420.937	72.77
421.064	69.77
421.191	53.77
421.318	76.77
421.445	51.77
421.572	52.77
421.699	51.77
421.826	19.77
421.953	22.77
422.08	22.77
422.207	10.77
422.334	10.77
422.461	28.77
422.588	6.77
422.714	18.77
422.841	43.77
422.968	43.77
423.095	21.77
423.222	3.77
423.349	33.77
423.476	29.77
423.603	13.77
423.729	13.77
423.856	8.77
423.983	19.77
424.11	20.77
424.237	-4.23
424.364	12.77
424.491	4.77
424.617	-17.23
424.744	10.77
424.871	26.77
424.998	10.77
425.125	25.77
425.251	24.77
425.378	7.77
425.505	18.77
425.632	27.77
425.758	7.77
425.885	25.77
426.012	23.77
426.139	23.77
426.266	12.77
426.392	12.77
426.519	26.77
426.646	13.77
426.772	14.77
426.899	14.77
427.026	21.77
427.153	-7.23
427.279	37.77
427.406	32.77
427.533	20.77
427.659	7.77
427.786	6.77
427.913	17.77
428.039	16.77
428.166	22.77
428.293	10.77
428.419	33.77
428.546	18.77
428.673	10.77
428.799	6.77
428.926	14.77
429.053	43.77
429.179	41.77
429.306	28.77
429.433	24.77
429.559	24.77
429.686	1.77
429.812	-6.23
429.939	4.77
430.066	21.77
430.192	19.77
430.319	15.77
430.445	22.77
430.572	25.77
430.699	25.77
430.825	9.77
430.952	15.77
431.078	19.77
431.205	39.77
431.331	39.77
431.458	28.77
431.584	32.77
431.711	28.77
431.837	42.77
431.964	13.77
432.09	18.77
432.217	8.77
432.343	32.77
432.47	32.77
432.596	28.77
432.723	12.77
432.849	18.77
432.976	29.77
433.102	29.77
433.229	28.77
433.355	35.77
433.482	80.77
433.608	111.77
433.735	113.77
433.861	94.77
433.987	143.77
434.114	194.77
434.24	168.77
434.367	213.77
434.493	218.77
434.62	295.77
434.746	370.77
434.872	600.77
434.999	821.77
435.125	1714.77
435.252	5528.77
435.378	13371.77
435.504	15191.77
435.631	15424.77
435.757	15678.77
435.883	15678.77
436.01	15678.77
436.136	15678.77
436.262	15678.77
436.389	3455.77
436.515	2174.77
436.641	825.77
436.768	621.77
436.894	380.77
437.02	364.77
437.147	293.77
437.273	287.77
437.399	199.77
437.526	232.77
437.652	189.77
437.778	205.77
437.904	145.77
438.031	157.77
438.157	132.77
438.283	145.77
438.409	121.77
438.536	130.77
438.662	131.77
438.788	129.77
438.914	106.77
439.041	107.77
439.167	100.77
439.293	100.77
439.419	80.77
439.546	84.77
439.672	62.77
439.798	80.77
439.924	71.77
440.05	90.77
440.177	95.77
440.303	66.77
440.429	46.77
440.555	72.77
440.681	68.77
440.807	65.77
440.934	46.77
441.06	57.77
441.186	48.77
441.312	66.77
441.438	63.77
441.564	68.77
441.69	53.77
441.816	66.77
441.943	42.77
442.069	49.77
442.195	65.77
442.321	52.77
442.447	52.77
442.573	37.77
442.699	37.77
442.825	36.77
442.951	48.77
443.077	58.77
443.203	57.77
443.33	33.77
443.456	27.77
443.582	37.77
443.708	38.77
443.834	53.77
443.96	36.77
444.086	38.77
444.212	46.77
444.338	57.77
444.464	64.77
444.59	73.77
444.716	31.77
444.842	37.77
444.968	29.77
445.094	24.77
445.22	35.77
445.346	11.77
445.472	11.77
445.598	29.77
445.724	24.77
445.85	51.77
445.976	25.77
446.102	50.77
446.228	49.77
446.354	44.77
446.48	33.77
446.605	35.77
446.731	21.77
446.857	26.77
446.983	29.77
447.109	37.77
447.235	25.77
447.361	21.77
447.487	45.77
447.613	39.77
447.739	21.77
447.865	36.77
447.99	21.77
448.116	25.77
448.242	36.77
448.368	22.77
448.494	26.77
448.62	36.77
448.746	33.77
448.872	19.77
448.997	7.77
449.123	24.77
449.249	45.77
449.375	49.77
449.501	8.77
449.627	23.77
449.752	37.77
449.878	22.77
450.004	19.77
450.13	16.77
450.256	9.77
450.381	19.77
450.507	31.77
450.633	18.77
450.759	29.77
450.884	23.77
451.01	34.77
451.136	10.77
451.262	11.77
451.388	13.77
451.513	17.77
451.639	15.77
451.765	19.77
451.89	31.77
452.016	22.77
452.142	11.77
452.268	20.77
452.393	1.77
452.519	-0.23
452.645	12.77
452.771	14.77
452.896	24.77
453.022	4.77
453.148	22.77
453.273	28.77
453.399	33.77
453.525	12.77
453.65	17.77
453.776	21.77
453.902	37.77
454.027	27.77
454.153	25.77
454.279	31.77
454.404	28.77
454.53	42.77
454.656	47.77
454.781	16.77
454.907	16.77
455.032	19.77
455.158	41.77
455.284	34.77
455.409	13.77
455.535	22.77
455.66	35.77
455.786	11.77
455.912	31.77
456.037	14.77
456.163	23.77
456.288	26.77
456.414	3.77
456.539	-7.23
456.665	19.77
456.791	23.77
456.916	33.77
457.042	32.77
457.167	11.77
457.293	22.77
457.418	28.77
457.544	25.77
457.669	9.77
457.795	17.77
457.92	7.77
458.046	26.77
458.171	30.77
458.297	21.77
458.422	22.77
458.548	28.77
458.673	17.77
458.799	11.77
458.924	4.77
459.05	24.77
459.175	21.77
459.301	38.77
459.426	36.77
459.552	24.77
459.677	13.77
459.803	29.77
459.928	23.77
460.053	-2.23
460.179	20.77
460.304	27.77
460.43	12.77
460.555	6.77
460.681	13.77
460.806	11.77
460.931	23.77
461.057	43.77
461.182	20.77
461.308	37.77
461.433	25.77
461.558	7.77
461.684	31.77
461.809	22.77
461.934	21.77
462.06	19.77
462.185	15.77
462.311	18.77
462.436	15.77
462.561	26.77
462.687	18.77
462.812	14.77
462.937	21.77
463.063	8.77
463.188	0.77
463.313	25.77
463.439	16.77
463.564	4.77
463.689	18.77
463.814	35.77
463.94	13.77
464.065	28.77
464.19	25.77
464.316	8.77
464.441	14.77
464.566	19.77
464.692	12.77
464.817	28.77
464.942	1.77
465.067	20.77
465.193	-2.23
465.318	20.77
465.443	4.77
465.568	17.77
465.694	18.77
465.819	34.77
465.944	23.77
466.069	21.77
466.194	34.77
466.32	30.77
466.445	19.77
466.57	27.77
466.695	16.77
466.82	33.77
466.946	45.77
467.071	23.77
467.196	22.77
467.321	34.77
467.446	17.77
467.572	32.77
467.697	21.77
467.822	25.77
467.947	41.77
468.072	11.77
468.197	8.77
468.323	14.77
468.448	28.77
468.573	25.77
468.698	29.77
468.823	53.77
468.948	46.77
469.073	29.77
469.198	49.77
469.324	60.77
469.449	16.77
469.574	47.77
469.699	42.77
469.824	29.77
469.949	29.77
470.074	29.77
470.199	57.77
470.324	21.77
470.449	43.77
470.574	22.77
470.7	28.77
470.825	41.77
470.95	45.77
471.075	18.77
471.2	40.77
471.325	40.77
471.45	41.77
471.575	22.77
471.7	29.77
471.825	17.77
471.95	9.77
472.075	7.77
472.2	25.77
472.325	20.77
472.45	27.77
472.575	19.77
472.7	25.77
472.825	54.77
472.95	42.77
473.075	22.77
473.2	11.77
473.325	43.77
473.45	53.77
473.575	26.77
473.7	48.77
473.825	22.77
473.95	32.77
474.075	32.77
474.2	26.77
474.325	13.77
474.45	34.77
474.574	13.77
474.699	14.77
474.824	18.77
474.949	5.77
475.074	12.77
475.199	42.77
475.324	24.77
475.449	13.77
475.574	31.77
475.699	23.77
475.824	26.77
475.949	19.77
476.073	12.77
476.198	13.77
476.323	20.77
476.448	9.77
476.573	4.77
476.698	21.77
476.823	7.77
476.947	39.77
477.072	35.77
477.197	10.77
477.322	12.77
477.447	22.77
477.572	32.77
477.697	23.77
477.821	19.77
477.946	23.77
478.071	22.77
478.196	36.77
478.321	5.77
478.445	1.77
478.57	6.77
478.695	9.77
478.82	21.77
478.945	21.77
479.069	-2.23
479.194	11.77
479.319	25.77
479.444	8.77
479.569	13.77
479.693	31.77
479.818	12.77
479.943	34.77
480.068	22.77
480.192	24.77
480.317	32.77
480.442	17.77
480.567	24.77
480.691	21.77
480.816	2.77
480.941	5.77
481.066	18.77
481.19	14.77
481.315	20.77
481.44	15.77
481.564	15.77
481.689	11.77
481.814	2.77
481.938	12.77
482.063	-4.23
482.188	0.77
482.313	15.77
482.437	-8.23
482.562	8.77
482.687	18.77
482.811	7.77
482.936	2.77
483.061	30.77
483.185	15.77
483.31	21.77
483.435	24.77
483.559	21.77
483.684	15.77
483.808	47.77
483.933	15.77
484.058	17.77
484.182	25.77
484.307	19.77
484.432	13.77
484.556	16.77
484.681	16.77
484.805	12.77
484.93	21.77
485.055	26.77
485.179	38.77
485.304	5.77
485.428	29.77
485.553	31.77
485.678	15.77
485.802	28.77
485.927	35.77
486.051	23.77
486.176	6.77
486.3	4.77
486.425	11.77
486.549	14.77
486.674	11.77
486.799	10.77
486.923	-10.23
487.048	10.77
487.172	24.77
487.297	-8.23
487.421	-0.23
487.546	24.77
487.67	19.77
487.795	17.77
487.919	20.77
488.044	33.77
488.168	7.77
488.293	20.77
488.417	6.77
488.542	29.77
488.666	37.77
488.791	23.77
488.915	9.77
489.04	22.77
489.164	21.77
489.289	39.77
489.413	12.77
489.538	23.77
489.662	38.77
489.786	32.77
489.911	30.77
490.035	19.77
490.16	13.77
490.284	13.77
490.409	4.77
490.533	18.77
490.658	28.77
490.782	24.77
490.906	37.77
491.031	99.77
491.155	125.77
491.28	128.77
491.404	162.77
491.528	247.77
491.653	150.77
491.777	56.77
491.902	12.77
492.026	35.77
492.15	20.77
492.275	35.77
492.399	31.77
492.524	21.77
492.648	32.77
492.772	23.77
492.897	25.77
493.021	2.77
493.145	23.77
493.27	23.77
493.394	-0.23
493.518	10.77
493.643	4.77
493.767	17.77
493.891	12.77
494.016	19.77
494.14	12.77
494.264	10.77
494.389	20.77
494.513	15.77
494.637	13.77
494.762	15.77
494.886	15.77
495.01	23.77
495.134	24.77
495.259	20.77
495.383	21.77
495.507	5.77
495.632	15.77
495.756	29.77
495.88	29.77
496.004	17.77
496.129	6.77
496.253	21.77
496.377	16.77
496.501	45.77
496.626	16.77
496.75	11.77
496.874	9.77
496.998	17.77
497.123	40.77
497.247	0.77
497.371	2.77
497.495	9.77
497.62	3.77
497.744	11.77
497.868	37.77
497.992	12.77
498.116	20.77
498.241	19.77
498.365	11.77
498.489	-0.23
498.613	28.77
498.737	1.77
498.862	12.77
498.986	8.77
499.11	22.77
499.234	13.77
499.358	5.77
499.482	19.77
499.607	24.77
499.731	14.77
499.855	19.77
499.979	12.77
500.103	10.77
500.227	11.77
500.351	27.77
500.476	6.77
500.6	5.77
500.724	4.77
500.848	19.77
500.972	25.77
501.096	0.77
501.22	37.77
501.344	13.77
501.469	4.77
501.593	0.77
501.717	24.77
501.841	8.77
501.965	11.77
502.089	-2.23
502.213	27.77
502.337	15.77
502.461	22.77
502.585	26.77
502.709	13.77
502.834	9.77
502.958	4.77
503.082	25.77
503.206	24.77
503.33	44.77
503.454	18.77
503.578	27.77
503.702	17.77
503.826	21.77
503.95	29.77
504.074	9.77
504.198	16.77
504.322	12.77
504.446	23.77
504.57	29.77
504.694	16.77
504.818	11.77
504.942	34.77
505.066	25.77
505.19	13.77
505.314	33.77
505.438	16.77
505.562	22.77
505.686	24.77
505.81	4.77
505.934	17.77
506.058	17.77
506.182	34.77
506.306	27.77
506.43	13.77
506.554	15.77
506.678	11.77
506.802	17.77
506.926	20.77
507.05	26.77
507.174	26.77
507.298	34.77
507.422	13.77
507.546	19.77
507.67	19.77
507.794	8.77
507.918	21.77
508.042	10.77
508.165	17.77
508.289	4.77
508.413	13.77
508.537	7.77
508.661	21.77
508.785	15.77
508.909	30.77
509.033	21.77
509.157	33.77
509.281	38.77
509.405	25.77
509.528	35.77
509.652	20.77
509.776	21.77
509.9	40.77
510.024	13.77
510.148	17.77
510.272	39.77
510.396	50.77
510.519	23.77
510.643	33.77
510.767	33.77
510.891	29.77
511.015	20.77
511.139	28.77
511.263	38.77
511.386	25.77
511.51	18.77
511.634	34.77
511.758	36.77
511.882	34.77
512.006	51.77
512.129	69.77
512.253	89.77
512.377	67.77
512.501	95.77
512.625	88.77
512.748	91.77
512.872	61.77
512.996	42.77
513.12	60.77
513.244	42.77
513.367	69.77
513.491	77.77
513.615	84.77
513.739	90.77
513.862	89.77
513.986	90.77
514.11	90.77
514.234	95.77
514.358	122.77
514.481	120.77
514.605	111.77
514.729	124.77
514.853	113.77
514.976	83.77
515.1	100.77
515.224	114.77
515.348	89.77
515.471	83.77
515.595	88.77
515.719	128.77
515.842	236.77
515.966	286.77
516.09	307.77
516.214	325.77
516.337	363.77
516.461	221.77
516.585	73.77
516.708	25.77
516.832	36.77
516.956	23.77
517.08	24.77
517.203	6.77
517.327	8.77
517.451	16.77
517.574	33.77
517.698	9.77
517.822	5.77
517.945	7.77
518.069	27.77
518.193	43.77
518.316	5.77
518.44	4.77
518.564	6.77
518.687	-1.23
518.811	11.77
518.935	42.77
519.058	17.77
519.182	24.77
519.306	6.77
519.429	10.77
519.553	49.77
519.676	24.77
519.8	15.77
519.924	-2.23
520.047	21.77
520.171	15.77
520.294	16.77
520.418	34.77
520.542	24.77
520.665	37.77
520.789	17.77
520.913	12.77
521.036	11.77
521.16	7.77
521.283	7.77
521.407	-0.23
521.53	3.77
521.654	-16.23
521.778	22.77
521.901	15.77
522.025	5.77
522.148	5.77
522.272	11.77
522.395	13.77
522.519	20.77
522.643	8.77
522.766	8.77
522.89	17.77
523.013	33.77
523.137	8.77
523.26	-3.23
523.384	21.77
523.507	9.77
523.631	10.77
523.754	11.77
523.878	7.77
524.002	7.77
524.125	6.77
524.249	10.77
524.372	23.77
524.496	16.77
524.619	20.77
524.743	4.77
524.866	8.77
524.99	4.77
525.113	-3.23
525.237	12.77
525.36	12.77
525.484	10.77
525.607	-0.23
525.731	6.77
525.854	18.77
525.978	33.77
526.101	0.77
526.224	6.77
526.348	10.77
526.471	6.77
526.595	13.77
526.718	10.77
526.842	2.77
526.965	34.77
527.089	8.77
527.212	23.77
527.336	24.77
527.459	32.77
527.582	11.77
527.706	24.77
527.829	14.77
527.953	8.77
528.076	2.77
528.2	2.77
528.323	25.77
528.446	12.77
528.57	5.77
528.693	19.77
528.817	2.77
528.94	20.77
529.064	38.77
529.187	-0.23
529.31	0.77
529.434	7.77
529.557	-0.23
529.68	2.77
529.804	15.77
529.927	20.77
530.051	23.77
530.174	0.77
530.297	4.77
530.421	10.77
530.544	18.77
530.668	21.77
530.791	14.77
530.914	33.77
531.038	20.77
531.161	10.77
531.284	4.77
531.408	11.77
531.531	15.77
531.654	25.77
531.778	18.77
531.901	-11.23
532.024	13.77
532.148	-3.23
532.271	3.77
532.394	10.77
532.518	13.77
532.641	17.77
532.764	40.77
532.888	18.77
533.011	-0.23
533.134	8.77
533.258	21.77
533.381	14.77
533.504	0.77
533.628	1.77
533.751	28.77
533.874	10.77
533.997	28.77
534.121	8.77
534.244	16.77
534.367	1.77
534.491	32.77
534.614	20.77
534.737	29.77
534.86	16.77
534.984	11.77
535.107	8.77
535.23	2.77
535.354	12.77
535.477	6.77
535.6	1.77
535.723	1.77
535.847	19.77
535.97	-2.23
536.093	18.77
536.216	2.77
536.34	19.77
536.463	0.77
536.586	29.77
536.709	5.77
536.833	25.77
536.956	15.77
537.079	7.77
537.202	17.77
537.325	9.77
537.449	-2.23
537.572	33.77
537.695	19.77
537.818	15.77
537.941	22.77
538.065	17.77
538.188	20.77
538.311	17.77
538.434	27.77
538.558	15.77
538.681	36.77
538.804	1.77
538.927	35.77
539.05	11.77
539.173	11.77
539.297	29.77
539.42	23.77
539.543	25.77
539.666	33.77
539.789	28.77
539.913	29.77
540.036	14.77
540.159	23.77
540.282	20.77
540.405	-0.23
540.528	17.77
540.651	24.77
540.775	7.77
540.898	12.77
541.021	15.77
541.144	20.77
541.267	18.77
541.39	35.77
541.513	27.77
541.637	32.77
541.76	14.77
541.883	17.77
542.006	33.77
542.129	49.77
542.252	19.77
542.375	39.77
542.498	29.77
542.622	36.77
542.745	39.77
542.868	26.77
542.991	69.77
543.114	49.77
543.237	54.77
543.36	69.77
543.483	53.77
543.606	64.77
543.73	95.77
543.853	72.77
543.976	77.77
544.099	106.77
544.222	119.77
544.345	120.77
544.468	169.77
544.591	212.77
544.714	281.77
544.837	359.77
544.96	469.77
545.083	667.77
545.206	1061.77
545.329	2448.77
545.453	10948.77
545.576	15249.77
545.699	15678.77
545.822	15678.77
545.945	15678.77
546.068	15678.77
546.191	15678.77
546.314	15678.77
546.437	15678.77
546.56	15678.77
546.683	15678.77
546.806	15678.77
546.929	15678.77
547.052	15678.77
547.175	15678.77
547.298	15678.77
547.421	15678.77
547.544	15678.77
547.667	3581.77
547.79	2570.77
547.913	1079.77
548.036	883.77
548.159	639.77
548.282	625.77
548.405	489.77
548.528	476.77
548.651	380.77
548.774	378.77
548.897	326.77
549.02	354.77
549.143	306.77
549.266	272.77
549.389	276.77
549.512	263.77
549.635	230.77
549.758	245.77
549.881	201.77
550.004	211.77
550.127	199.77
550.25	187.77
550.373	157.77
550.496	193.77
550.619	165.77
550.742	163.77
550.865	148.77
550.988	163.77
551.111	163.77
551.234	155.77
551.356	131.77
551.479	125.77
551.602	115.77
551.725	127.77
551.848	117.77
551.971	145.77
552.094	112.77
552.217	94.77
552.34	91.77
552.463	87.77
552.586	99.77
552.709	96.77
552.832	103.77
552.955	107.77
553.077	103.77
553.2	105.77
553.323	81.77
553.446	83.77
553.569	84.77
553.692	87.77
553.815	92.77
553.938	102.77
554.061	85.77
554.184	73.77
554.306	81.77
554.429	89.77
554.552	65.77
554.675	74.77
554.798	79.77
554.921	79.77
555.044	74.77
555.167	63.77
555.29	64.77
555.412	77.77
555.535	59.77
555.658	75.77
555.781	72.77
555.904	79.77
556.027	71.77
556.15	80.77
556.272	64.77
556.395	86.77
556.518	75.77
556.641	78.77
556.764	81.77
556.887	71.77
557.01	63.77
557.132	43.77
557.255	65.77
557.378	77.77
557.501	65.77
557.624	83.77
557.747	58.77
557.869	80.77
557.992	83.77
558.115	89.77
558.238	83.77
558.361	117.77
558.483	96.77
558.606	80.77
558.729	39.77
558.852	55.77
558.975	55.77
559.098	63.77
559.22	51.77
559.343	42.77
559.466	51.77
559.589	50.77
559.712	64.77
559.834	45.77
559.957	50.77
560.08	60.77
560.203	51.77
560.325	67.77
560.448	74.77
560.571	52.77
560.694	37.77
560.817	50.77
560.939	51.77
561.062	63.77
561.185	56.77
561.308	63.77
561.43	35.77
561.553	55.77
561.676	42.77
561.799	77.77
561.921	56.77
562.044	36.77
562.167	62.77
562.29	67.77
562.413	59.77
562.535	57.77
562.658	47.77
562.781	47.77
562.903	59.77
563.026	89.77
563.149	148.77
563.272	100.77
563.394	119.77
563.517	109.77
563.64	63.77
563.763	41.77
563.885	53.77
564.008	43.77
564.131	33.77
564.254	21.77
564.376	29.77
564.499	22.77
564.622	32.77
564.744	37.77
564.867	48.77
564.99	18.77
565.113	47.77
565.235	32.77
565.358	35.77
565.481	28.77
565.603	20.77
565.726	28.77
565.849	47.77
565.971	52.77
566.094	31.77
566.217	44.77
566.34	37.77
566.462	41.77
566.585	32.77
566.708	59.77
566.83	23.77
566.953	47.77
567.076	34.77
567.198	26.77
567.321	13.77
567.444	30.77
567.566	44.77
567.689	15.77
567.812	24.77
567.934	33.77
568.057	26.77
568.18	35.77
568.302	29.77
568.425	14.77
568.548	21.77
568.67	24.77
568.793	31.77
568.916	38.77
569.038	29.77
569.161	47.77
569.283	35.77
569.406	40.77
569.529	25.77
569.651	18.77
569.774	24.77
569.897	28.77
570.019	36.77
570.142	31.77
570.265	34.77
570.387	35.77
570.51	37.77
570.632	34.77
570.755	19.77
570.878	25.77
571	30.77
571.123	24.77
571.246	33.77
571.368	9.77
571.491	24.77
571.613	14.77
571.736	26.77
571.859	33.77
571.981	16.77
572.104	27.77
572.226	28.77
572.349	21.77
572.472	37.77
572.594	36.77
572.717	23.77
572.839	31.77
572.962	35.77
573.085	43.77
573.207	35.77
573.33	19.77
573.452	23.77
573.575	38.77
573.697	38.77
573.82	23.77
573.943	26.77
574.065	31.77
574.188	20.77
574.31	44.77
574.433	40.77
574.555	40.77
574.678	25.77
574.801	40.77
574.923	34.77
575.046	33.77
575.168	23.77
575.291	30.77
575.413	27.77
575.536	28.77
575.659	47.77
575.781	30.77
575.904	51.77
576.026	72.77
576.149	57.77
576.271	122.77
576.394	203.77
576.516	526.77
576.639	3713.77
576.761	10158.77
576.884	8773.77
577.007	8780.77
577.129	7953.77
577.252	3715.77
577.374	1335.77
577.497	514.77
577.619	280.77
577.742	157.77
577.864	136.77
577.987	116.77
578.109	128.77
578.232	127.77
578.354	162.77
578.477	184.77
578.599	377.77
578.722	1948.77
578.844	9089.77
578.967	9809.77
579.089	8745.77
579.212	9059.77
579.334	5269.77
579.457	1892.77
579.579	701.77
579.702	338.77
579.824	196.77
579.947	116.77
580.069	93.77
580.192	94.77
580.314	89.77
580.437	64.77
580.559	94.77
580.682	67.77
580.804	62.77
580.927	52.77
581.049	70.77
581.172	46.77
581.294	24.77
581.417	41.77
581.539	38.77
581.662	36.77
581.784	51.77
581.907	59.77
582.029	32.77
582.152	29.77
582.274	49.77
582.396	32.77
582.519	38.77
582.641	21.77
582.764	7.77
582.886	48.77
583.009	29.77
583.131	32.77
583.254	24.77
583.376	43.77
583.499	27.77
583.621	17.77
583.743	37.77
583.866	8.77
583.988	20.77
584.111	40.77
584.233	46.77
584.356	43.77
584.478	37.77
584.601	13.77
584.723	13.77
584.845	46.77
584.968	19.77
585.09	16.77
585.213	41.77
585.335	19.77
585.458	22.77
585.58	32.77
585.702	34.77
585.825	40.77
585.947	10.77
586.07	8.77
586.192	20.77
586.315	33.77
586.437	4.77
586.559	16.77
586.682	25.77
586.804	15.77
586.927	12.77
587.049	20.77
587.171	46.77
587.294	37.77
587.416	53.77
587.539	27.77
587.661	17.77
587.783	21.77
587.906	25.77
588.028	43.77
588.151	32.77
588.273	17.77
588.395	25.77
588.518	1.77
588.64	41.77
588.763	32.77
588.885	27.77
589.007	46.77
589.13	13.77
589.252	18.77
589.375	17.77
589.497	25.77
589.619	32.77
589.742	26.77
589.864	40.77
589.986	24.77
590.109	13.77
590.231	16.77
590.354	34.77
590.476	25.77
590.598	7.77
590.721	10.77
590.843	30.77
590.965	30.77
591.088	38.77
591.21	19.77
591.332	29.77
591.455	13.77
591.577	23.77
591.7	17.77
591.822	17.77
591.944	21.77
592.067	15.77
592.189	26.77
592.311	27.77
592.434	19.77
592.556	26.77
592.678	32.77
592.801	28.77
592.923	21.77
593.045	10.77
593.168	24.77
593.29	26.77
593.412	26.77
593.535	10.77
593.657	11.77
593.779	24.77
593.902	19.77
594.024	26.77
594.146	30.77
594.269	49.77
594.391	8.77
594.513	23.77
594.636	5.77
594.758	16.77
594.88	35.77
595.003	27.77
595.125	23.77
595.247	28.77
595.37	24.77
595.492	1.77
595.614	30.77
595.737	23.77
595.859	20.77
595.981	16.77
596.104	15.77
596.226	20.77
596.348	22.77
596.471	3.77
596.593	35.77
596.715	17.77
596.838	10.77
596.96	-0.23
597.082	19.77
597.204	22.77
597.327	17.77
597.449	7.77
597.571	15.77
597.694	18.77
597.816	10.77
597.938	31.77
598.061	17.77
598.183	10.77
598.305	31.77
598.427	24.77
598.55	24.77
598.672	32.77
598.794	45.77
598.917	9.77
599.039	34.77
599.161	5.77
599.283	16.77
599.406	39.77
599.528	27.77
599.65	40.77
599.773	28.77
599.895	44.77
600.017	36.77
600.139	33.77
600.262	3.77
600.384	29.77
600.506	36.77
600.628	33.77
600.751	28.77
600.873	13.77
600.995	14.77
601.118	20.77
601.24	10.77
601.362	23.77
601.484	23.77
601.607	10.77
601.729	25.77
601.851	2.77
601.973	18.77
602.096	28.77
602.218	25.77
602.34	11.77
602.462	8.77
602.585	21.77
602.707	11.77
602.829	25.77
602.951	4.77
603.074	0.77
603.196	15.77
603.318	2.77
603.44	11.77
603.563	15.77
603.685	-11.23
603.807	15.77
603.929	11.77
604.052	27.77
604.174	13.77
604.296	6.77
604.418	0.77
604.541	25.77
604.663	4.77
604.785	29.77
604.907	17.77
605.03	11.77
605.152	57.77
605.274	17.77
605.396	7.77
605.519	13.77
605.641	15.77
605.763	15.77
605.885	25.77
606.008	32.77
606.13	37.77
606.252	31.77
606.374	-5.23
606.496	-1.23
606.619	24.77
606.741	12.77
606.863	28.77
606.985	27.77
607.108	33.77
607.23	15.77
607.352	16.77
607.474	20.77
607.596	15.77
607.719	6.77
607.841	18.77
607.963	29.77
608.085	19.77
608.207	30.77
608.33	23.77
608.452	5.77
608.574	28.77
608.696	21.77
608.819	25.77
608.941	16.77
609.063	5.77
609.185	-3.23
609.307	9.77
609.43	29.77
609.552	-0.23
609.674	6.77
609.796	15.77
609.918	19.77
610.041	9.77
610.163	20.77
610.285	12.77
610.407	23.77
610.529	5.77
610.652	35.77
610.774	19.77
610.896	22.77
611.018	17.77
611.14	20.77
611.263	7.77
611.385	12.77
611.507	25.77
611.629	4.77
611.751	36.77
611.873	31.77
611.996	19.77
612.118	41.77
612.24	23.77
612.362	33.77
612.484	39.77
612.607	30.77
612.729	31.77
612.851	15.77
612.973	12.77
613.095	7.77
613.218	24.77
613.34	27.77
613.462	22.77
613.584	18.77
613.706	9.77
613.828	29.77
613.951	31.77
614.073	19.77
614.195	0.77
614.317	28.77
614.439	27.77
614.561	21.77
614.684	17.77
614.806	16.77
614.928	18.77
615.05	15.77
615.172	31.77
615.294	27.77
615.417	11.77
615.539	17.77
615.661	21.77
615.783	9.77
615.905	16.77
616.027	21.77
616.15	29.77
616.272	13.77
616.394	3.77
616.516	20.77
616.638	8.77
616.76	18.77
616.883	21.77
617.005	5.77
617.127	22.77
617.249	2.77
617.371	21.77
617.493	0.77
617.615	15.77
617.738	29.77
617.86	4.77
617.982	19.77
618.104	26.77
618.226	1.77
618.348	9.77
618.471	0.77
618.593	3.77
618.715	9.77
618.837	25.77
618.959	6.77
619.081	21.77
619.203	16.77
619.326	31.77
619.448	33.77
619.57	31.77
619.692	20.77
619.814	13.77
619.936	18.77
620.058	10.77
620.181	20.77
620.303	16.77
620.425	11.77
620.547	2.77
620.669	18.77
620.791	16.77
620.913	17.77
621.036	1.77
621.158	8.77
621.28	34.77
621.402	4.77
621.524	3.77
621.646	2.77
621.768	4.77
621.891	-5.23
622.013	15.77
622.135	12.77
622.257	9.77
622.379	-1.23
622.501	30.77
622.623	14.77
622.745	13.77
622.868	7.77
622.99	17.77
623.112	9.77
623.234	8.77
623.356	15.77
623.478	10.77
623.6	10.77
623.722	8.77
623.845	17.77
623.967	16.77
624.089	2.77
624.211	5.77
624.333	19.77
624.455	36.77
624.577	8.77
624.699	27.77
624.822	15.77
624.944	4.77
625.066	5.77
625.188	-3.23
625.31	18.77
625.432	23.77
625.554	10.77
625.676	47.77
625.799	10.77
625.921	20.77
626.043	15.77
626.165	17.77
626.287	5.77
626.409	21.77
626.531	-10.23
626.653	13.77
626.775	31.77
626.898	23.77
627.02	19.77
627.142	25.77
627.264	11.77
627.386	19.77
627.508	29.77
627.63	19.77
627.752	22.77
627.874	20.77
627.997	16.77
628.119	14.77
628.241	20.77
628.363	17.77
628.485	7.77
628.607	15.77
628.729	-11.23
628.851	0.77
628.973	11.77
629.096	6.77
629.218	4.77
629.34	16.77
629.462	-3.23
629.584	4.77
629.706	-0.23
629.828	17.77
629.95	15.77
630.072	3.77
630.195	13.77
630.317	9.77
630.439	1.77
630.561	11.77
630.683	11.77
630.805	2.77
630.927	20.77
631.049	10.77
631.171	3.77
631.293	15.77
631.416	40.77
631.538	13.77
631.66	17.77
631.782	19.77
631.904	40.77
632.026	7.77
632.148	11.77
632.27	22.77
632.392	14.77
632.514	18.77
632.637	3.77
632.759	3.77
632.881	-0.23
633.003	8.77
633.125	-0.23
633.247	0.77
633.369	13.77
633.491	1.77
633.613	18.77
633.735	8.77
633.858	16.77
633.98	4.77
634.102	9.77
634.224	-0.23
634.346	-3.23
634.468	8.77
634.59	11.77
634.712	2.77
634.834	-8.23
634.956	-4.23
635.078	-22.23
635.201	-0.23
635.323	7.77
635.445	9.77
635.567	-0.23
635.689	14.77
635.811	-2.23
635.933	13.77
636.055	4.77
636.177	-6.23
636.299	1.77
636.421	7.77
636.544	4.77
636.666	8.77
636.788	8.77
636.91	8.77
637.032	-10.23
637.154	9.77
637.276	43.77
637.398	17.77
637.52	36.77
637.642	15.77
637.764	16.77
637.887	15.77
638.009	20.77
638.131	-3.23
638.253	12.77
638.375	15.77
638.497	16.77
638.619	-2.23
638.741	-0.23
638.863	-8.23
638.985	-7.23
639.107	8.77
639.23	13.77
639.352	33.77
639.474	19.77
639.596	0.77
639.718	2.77
639.84	20.77
639.962	1.77
640.084	24.77
640.206	8.77
640.328	-8.23
640.45	19.77
640.573	17.77
640.695	2.77
640.817	12.77
640.939	19.77
641.061	11.77
641.183	-9.23
641.305	-3.23
641.427	3.77
641.549	4.77
641.671	16.77
641.793	2.77
641.915	31.77
642.038	18.77
642.16	6.77
642.282	-6.23
642.404	4.77
642.526	7.77
642.648	4.77
642.77	7.77
642.892	3.77
643.014	17.77
643.136	9.77
643.258	4.77
643.381	18.77
643.503	41.77
643.625	13.77
643.747	-8.23
643.869	-8.23
643.991	23.77
644.113	16.77
644.235	-9.23
644.357	1.77
644.479	14.77
644.601	11.77
644.723	-0.23
644.846	11.77
644.968	6.77
645.09	3.77
645.212	-0.23
645.334	28.77
645.456	28.77
645.578	9.77
645.7	18.77
645.822	15.77
645.944	21.77
646.066	4.77
646.188	-2.23
646.311	20.77
646.433	4.77
646.555	42.77
646.677	4.77
646.799	-2.23
646.921	-0.23
647.043	23.77
647.165	-11.23
647.287	10.77
647.409	9.77
647.531	24.77
647.654	-3.23
647.776	13.77
647.898	20.77
648.02	-2.23
648.142	1.77
648.264	-5.23
648.386	5.77
648.508	2.77
648.63	3.77
648.752	29.77
648.874	9.77
648.997	9.77
649.119	10.77
649.241	25.77
649.363	18.77
649.485	21.77
649.607	-0.23
649.729	-6.23
649.851	15.77
649.973	13.77
650.095	16.77
650.217	18.77
650.34	4.77
650.462	16.77
650.584	15.77
650.706	8.77
650.828	7.77
650.95	-4.23
651.072	14.77
651.194	3.77
651.316	14.77
651.438	26.77
651.56	0.77
651.683	-0.23
651.805	7.77
651.927	4.77
652.049	-0.23
652.171	-15.23
652.293	-7.23
652.415	-36.23
652.537	1.77
652.659	-12.23
652.781	3.77
652.903	22.77
653.026	25.77
653.148	4.77
653.27	9.77
653.392	-0.23
653.514	4.77
653.636	3.77
653.758	0.77
653.88	-3.23
654.002	-6.23
654.124	15.77
654.247	-3.23
654.369	23.77
654.491	1.77
654.613	3.77
654.735	-6.23
654.857	13.77
654.979	15.77
655.101	7.77
655.223	17.77
655.345	19.77
655.468	18.77
655.59	3.77
655.712	7.77
655.834	-3.23
655.956	16.77
656.078	15.77
656.2	19.77
656.322	0.77
656.444	-3.23
656.566	5.77
656.689	2.77
656.811	11.77
656.933	31.77
657.055	9.77
657.177	15.77
657.299	11.77
657.421	32.77
657.543	27.77
657.665	3.77
657.787	15.77
657.91	-4.23
658.032	7.77
658.154	8.77
658.276	12.77
658.398	-14.23
658.52	3.77
658.642	2.77
658.764	4.77
658.886	-14.23
659.009	-3.23
659.131	-5.23
659.253	15.77
659.375	12.77
659.497	12.77
659.619	-5.23
659.741	8.77
659.863	-5.23
659.985	-6.23
660.108	10.77
660.23	3.77
660.352	19.77
660.474	5.77
660.596	27.77
660.718	10.77
660.84	2.77
660.962	20.77
661.084	-13.23
661.207	-2.23
661.329	11.77
661.451	1.77
661.573	-3.23
661.695	30.77
661.817	18.77
661.939	28.77
662.061	28.77
662.184	-0.23
662.306	7.77
662.428	17.77
662.55	19.77
662.672	3.77
662.794	-16.23
662.916	-4.23
663.038	-4.23
663.161	15.77
663.283	-4.23
663.405	9.77
663.527	-1.23
663.649	25.77
663.771	-2.23
663.893	25.77
664.015	-2.23
664.138	-13.23
664.26	-10.23
664.382	14.77
664.504	-4.23
664.626	-22.23
664.748	-8.23
664.87	-13.23
664.992	15.77
665.115	18.77
665.237	19.77
665.359	-6.23
665.481	-5.23
665.603	7.77
665.725	4.77
665.847	-9.23
665.97	15.77
666.092	3.77
666.214	5.77
666.336	22.77
666.458	24.77
666.58	19.77
666.702	-14.23
666.825	-10.23
666.947	-16.23
667.069	13.77
667.191	13.77
667.313	12.77
667.435	0.77
667.557	1.77
667.68	-5.23
667.802	-3.23
667.924	-0.23
668.046	8.77
668.168	18.77
668.29	31.77
668.412	8.77
668.535	-3.23
668.657	-10.23
668.779	3.77
668.901	8.77
669.023	9.77
669.145	-0.23
669.267	25.77
669.39	1.77
669.512	1.77
669.634	17.77
669.756	-2.23
669.878	16.77
670	10.77
670.123	10.77
670.245	35.77
670.367	10.77
670.489	23.77
670.611	-7.23
670.733	1.77
670.856	8.77
670.978	4.77
671.1	17.77
671.222	27.77
671.344	10.77
671.466	-11.23
671.589	-15.23
671.711	-2.23
671.833	-18.23
671.955	10.77
672.077	-4.23
672.199	17.77
672.322	16.77
672.444	0.77
672.566	22.77
672.688	15.77
672.81	0.77
672.932	13.77
673.055	3.77
673.177	8.77
673.299	-3.23
673.421	-2.23
673.543	13.77
673.665	3.77
673.788	13.77
673.91	18.77
674.032	-7.23
674.154	8.77
674.276	15.77
674.399	-14.23
674.521	8.77
674.643	1.77
674.765	2.77
674.887	9.77
675.009	-12.23
675.132	-5.23
675.254	2.77
675.376	9.77
675.498	1.77
675.62	11.77
675.743	-2.23
675.865	16.77
675.987	0.77
676.109	22.77
676.231	26.77
676.354	18.77
676.476	-2.23
676.598	7.77
676.72	3.77
676.842	19.77
676.965	3.77
677.087	-3.23
677.209	4.77
677.331	18.77
677.453	-0.23
677.576	10.77
677.698	0.77
677.82	3.77
677.942	-6.23
678.064	-15.23
678.187	7.77
678.309	25.77
678.431	-1.23
678.553	0.77
678.675	25.77
678.798	29.77
678.92	13.77
679.042	17.77
679.164	3.77
679.286	12.77
679.409	-0.23
679.531	-12.23
679.653	-4.23
679.775	3.77
679.898	0.77
680.02	-5.23
680.142	7.77
680.264	5.77
680.386	-3.23
680.509	4.77
680.631	12.77
680.753	-7.23
680.875	-0.23
680.998	27.77
681.12	-17.23
681.242	11.77
681.364	0.77
681.486	-0.23
681.609	-7.23
681.731	-19.23
681.853	-2.23
681.975	0.77
682.098	11.77
682.22	18.77
682.342	-1.23
682.464	23.77
682.587	-7.23
682.709	1.77
682.831	-6.23
682.953	-0.23
683.076	-13.23
683.198	8.77
683.32	13.77
683.442	0.77
683.565	8.77
683.687	23.77
683.809	19.77
683.931	-3.23
684.054	17.77
684.176	10.77
684.298	21.77
684.42	7.77
684.543	-8.23
684.665	11.77
684.787	11.77
684.909	-1.23
685.032	19.77
685.154	-16.23
685.276	10.77
685.398	-11.23
685.521	-3.23
685.643	13.77
685.765	1.77
685.887	1.77
686.01	1.77
686.132	0.77
686.254	23.77
686.377	1.77
686.499	23.77
686.621	7.77
686.743	7.77
686.866	-2.23
686.988	28.77
687.11	20.77
687.232	-0.23
687.355	-4.23
687.477	18.77
687.599	22.77
687.722	23.77
687.844	5.77
687.966	8.77
688.088	5.77
688.211	27.77
688.333	-3.23
688.455	-0.23
688.578	12.77
688.7	2.77
688.822	12.77
688.944	-6.23
689.067	44.77
689.189	7.77
689.311	-3.23
689.434	5.77
689.556	12.77
689.678	9.77
689.801	-7.23
689.923	14.77
690.045	27.77
690.167	20.77
690.29	8.77
690.412	5.77
690.534	12.77
690.657	-14.23
690.779	-3.23
690.901	17.77
691.024	3.77
691.146	-7.23
691.268	-0.23
691.391	8.77
691.513	11.77
691.635	11.77
691.758	27.77
691.88	23.77
692.002	7.77
692.125	6.77
692.247	-0.23
692.369	-7.23
692.492	8.77
692.614	7.77
692.736	-10.23
692.859	4.77
692.981	0.77
693.103	14.77
693.226	3.77
693.348	30.77
693.47	23.77
693.593	34.77
693.715	35.77
693.837	39.77
693.96	11.77
694.082	6.77
694.204	4.77
694.327	9.77
694.449	-6.23
694.571	11.77
694.694	4.77
694.816	12.77
694.938	15.77
695.061	6.77
695.183	-5.23
695.305	15.77
695.428	17.77
695.55	3.77
695.672	-2.23
695.795	10.77
695.917	33.77
696.04	11.77
696.162	11.77
696.284	1.77
696.407	7.77
696.529	1.77
696.651	18.77
696.774	3.77
696.896	13.77
697.019	9.77
697.141	14.77
697.263	-4.23
697.386	1.77
697.508	10.77
697.63	0.77
697.753	18.77
697.875	30.77
697.998	5.77
698.12	10.77
698.242	7.77
698.365	-2.23
698.487	1.77
698.61	4.77
698.732	23.77
698.854	19.77
698.977	8.77
699.099	23.77
699.221	-2.23
699.344	-22.23
699.466	1.77
699.589	5.77
699.711	-0.23
699.834	0.77
699.956	13.77
700.078	12.77
700.201	11.77
700.323	33.77
700.446	8.77
700.568	3.77
700.69	-2.23
700.813	7.77
700.935	5.77
701.058	7.77
701.18	5.77
701.302	-6.23
701.425	13.77
701.547	6.77
701.67	17.77
701.792	-0.23
701.915	6.77
702.037	-10.23
702.159	7.77
702.282	-3.23
702.404	4.77
702.527	7.77
702.649	3.77
702.772	0.77
702.894	21.77
703.017	23.77
703.139	23.77
703.261	13.77
703.384	16.77
703.506	-8.23
703.629	23.77
703.751	20.77
703.874	-8.23
703.996	-29.23
704.119	-16.23
704.241	15.77
704.364	-6.23
704.486	-6.23
704.608	-3.23
704.731	-23.23
704.853	2.77
704.976	-7.23
705.098	15.77
705.221	15.77
705.343	9.77
705.466	-2.23
705.588	20.77
705.711	12.77
705.833	9.77
705.956	15.77
706.078	4.77
706.201	5.77
706.323	28.77
706.446	4.77
