Data from LowRes_mercury_15_20_11_07_2024_HR4C61881__51__15-23-37-373.txt Node

Date: Thu Nov 07 15:23:37 EST 2024
User: crc00042
Spectrometer: HR4C6188
Trigger mode: 4
Integration Time (sec): 1.000000E-1
Scans to average: 1
Electric dark correction enabled: true
Nonlinearity correction enabled: false
Boxcar width: 0
XAxis mode: Wavelengths
Number of Pixels in Spectrum: 3648
>>>>>Begin Spectral Data<<<<<
245.66	-62.69
245.797	-62.69
245.934	-62.69
246.071	-74.69
246.208	4.31
246.344	4.31
246.481	-9.69
246.618	-10.69
246.755	-9.69
246.892	-7.69
247.029	-5.69
247.165	9.31
247.302	12.31
247.439	3.31
247.576	7.31
247.713	-4.69
247.849	27.31
247.986	-15.69
248.123	11.31
248.26	-6.69
248.396	10.31
248.533	10.31
248.67	-8.69
248.806	5.31
248.943	-1.69
249.08	-5.69
249.216	9.31
249.353	-14.69
249.49	0.31
249.626	19.31
249.763	-7.69
249.9	-6.69
250.036	-6.69
250.173	-5.69
250.309	-11.69
250.446	5.31
250.582	-5.69
250.719	-0.69
250.856	6.31
250.992	4.31
251.129	-12.69
251.265	-20.69
251.402	-11.69
251.538	-7.69
251.675	4.31
251.811	16.31
251.948	24.31
252.084	22.31
252.221	7.31
252.357	15.31
252.493	19.31
252.63	-5.69
252.766	-1.69
252.903	2.31
253.039	0.31
253.175	14.31
253.312	10.31
253.448	0.31
253.585	-17.69
253.721	4.31
253.857	5.31
253.994	5.31
254.13	-3.69
254.266	-4.69
254.403	1.31
254.539	3.31
254.675	11.31
254.811	9.31
254.948	6.31
255.084	7.31
255.22	-17.69
255.356	6.31
255.493	-2.69
255.629	10.31
255.765	-2.69
255.901	10.31
256.037	-1.69
256.174	-6.69
256.31	-1.69
256.446	-1.69
256.582	-10.69
256.718	16.31
256.854	13.31
256.991	11.31
257.127	11.31
257.263	-3.69
257.399	22.31
257.535	4.31
257.671	24.31
257.807	-10.69
257.943	-4.69
258.079	-14.69
258.215	-30.69
258.351	13.31
258.487	9.31
258.623	34.31
258.759	2.31
258.895	-8.69
259.031	-12.69
259.167	-8.69
259.303	17.31
259.439	-14.69
259.575	-13.69
259.711	1.31
259.847	-20.69
259.983	6.31
260.119	-5.69
260.255	-6.69
260.391	12.31
260.527	20.31
260.663	27.31
260.799	25.31
260.934	-1.69
261.07	-10.69
261.206	-11.69
261.342	-19.69
261.478	25.31
261.614	11.31
261.749	12.31
261.885	-3.69
262.021	-2.69
262.157	1.31
262.293	-5.69
262.428	-10.69
262.564	6.31
262.7	-11.69
262.836	-3.69
262.971	11.31
263.107	25.31
263.243	21.31
263.378	7.31
263.514	-3.69
263.65	-13.69
263.785	-11.69
263.921	0.31
264.057	-1.69
264.192	8.31
264.328	20.31
264.464	-3.69
264.599	15.31
264.735	11.31
264.871	-6.69
265.006	7.31
265.142	8.31
265.277	5.31
265.413	12.31
265.548	11.31
265.684	16.31
265.819	9.31
265.955	-15.69
266.091	-5.69
266.226	-7.69
266.362	-10.69
266.497	4.31
266.633	-8.69
266.768	-16.69
266.903	11.31
267.039	11.31
267.174	26.31
267.31	3.31
267.445	7.31
267.581	11.31
267.716	19.31
267.851	-4.69
267.987	12.31
268.122	8.31
268.258	1.31
268.393	-7.69
268.528	6.31
268.664	-7.69
268.799	-15.69
268.934	9.31
269.07	11.31
269.205	4.31
269.34	27.31
269.476	-0.69
269.611	-1.69
269.746	19.31
269.881	20.31
270.017	24.31
270.152	1.31
270.287	1.31
270.422	7.31
270.558	-17.69
270.693	5.31
270.828	-22.69
270.963	-5.69
271.098	-13.69
271.234	-5.69
271.369	10.31
271.504	8.31
271.639	-11.69
271.774	8.31
271.909	-0.69
272.045	-21.69
272.18	-8.69
272.315	7.31
272.45	31.31
272.585	-10.69
272.72	-10.69
272.855	-8.69
272.99	8.31
273.125	4.31
273.26	-10.69
273.395	-2.69
273.53	4.31
273.665	3.31
273.8	8.31
273.935	-1.69
274.07	16.31
274.205	6.31
274.34	23.31
274.475	-10.69
274.61	17.31
274.745	-11.69
274.88	4.31
275.015	-1.69
275.15	4.31
275.285	13.31
275.42	1.31
275.555	7.31
275.69	11.31
275.825	11.31
275.959	-6.69
276.094	4.31
276.229	-3.69
276.364	-8.69
276.499	15.31
276.634	-10.69
276.768	8.31
276.903	15.31
277.038	11.31
277.173	4.31
277.308	5.31
277.442	-8.69
277.577	0.31
277.712	5.31
277.847	8.31
277.981	11.31
278.116	-3.69
278.251	4.31
278.386	-1.69
278.52	21.31
278.655	-7.69
278.79	21.31
278.924	22.31
279.059	14.31
279.194	-19.69
279.328	30.31
279.463	-2.69
279.598	25.31
279.732	-7.69
279.867	-2.69
280.001	9.31
280.136	12.31
280.271	9.31
280.405	-4.69
280.54	-15.69
280.674	-3.69
280.809	29.31
280.943	4.31
281.078	20.31
281.213	17.31
281.347	11.31
281.482	9.31
281.616	4.31
281.751	-10.69
281.885	-12.69
282.02	2.31
282.154	30.31
282.288	-7.69
282.423	-12.69
282.557	-6.69
282.692	25.31
282.826	-0.69
282.961	11.31
283.095	6.31
283.229	-8.69
283.364	-14.69
283.498	-15.69
283.633	-1.69
283.767	-2.69
283.901	11.31
284.036	8.31
284.17	-4.69
284.304	-6.69
284.439	-0.69
284.573	-1.69
284.707	17.31
284.842	-5.69
284.976	-9.69
285.11	-8.69
285.244	28.31
285.379	58.31
285.513	-12.69
285.647	9.31
285.781	-5.69
285.916	20.31
286.05	-2.69
286.184	24.31
286.318	1.31
286.453	-18.69
286.587	-18.69
286.721	-3.69
286.855	4.31
286.989	9.31
287.123	-4.69
287.258	0.31
287.392	9.31
287.526	12.31
287.66	14.31
287.794	-2.69
287.928	-17.69
288.062	14.31
288.196	0.31
288.33	-1.69
288.464	33.31
288.598	14.31
288.733	4.31
288.867	25.31
289.001	15.31
289.135	16.31
289.269	-4.69
289.403	0.31
289.537	4.31
289.671	8.31
289.805	1.31
289.939	8.31
290.073	4.31
290.207	11.31
290.34	15.31
290.474	18.31
290.608	8.31
290.742	1.31
290.876	-3.69
291.01	6.31
291.144	44.31
291.278	22.31
291.412	6.31
291.546	5.31
291.679	1.31
291.813	-18.69
291.947	10.31
292.081	0.31
292.215	7.31
292.349	12.31
292.482	7.31
292.616	9.31
292.75	11.31
292.884	12.31
293.018	-3.69
293.151	-19.69
293.285	-4.69
293.419	5.31
293.553	-4.69
293.686	-14.69
293.82	7.31
293.954	14.31
294.088	24.31
294.221	-7.69
294.355	-16.69
294.489	-0.69
294.622	-16.69
294.756	-1.69
294.89	-6.69
295.023	6.31
295.157	5.31
295.291	16.31
295.424	24.31
295.558	-6.69
295.691	10.31
295.825	6.31
295.959	10.31
296.092	-14.69
296.226	0.31
296.359	6.31
296.493	5.31
296.627	9.31
296.76	4.31
296.894	-7.69
297.027	-12.69
297.161	-5.69
297.294	-12.69
297.428	6.31
297.561	12.31
297.695	9.31
297.828	6.31
297.962	-25.69
298.095	-17.69
298.229	6.31
298.362	-15.69
298.495	-19.69
298.629	-19.69
298.762	-6.69
298.896	-4.69
299.029	-12.69
299.162	0.31
299.296	8.31
299.429	-0.69
299.563	2.31
299.696	-7.69
299.829	-11.69
299.963	1.31
300.096	14.31
300.229	18.31
300.363	3.31
300.496	9.31
300.629	-15.69
300.763	-10.69
300.896	11.31
301.029	10.31
301.162	3.31
301.296	-10.69
301.429	4.31
301.562	-19.69
301.695	22.31
301.829	23.31
301.962	21.31
302.095	9.31
302.228	-7.69
302.362	14.31
302.495	-11.69
302.628	15.31
302.761	15.31
302.894	7.31
303.027	16.31
303.161	1.31
303.294	10.31
303.427	5.31
303.56	4.31
303.693	2.31
303.826	-8.69
303.959	-11.69
304.092	7.31
304.225	16.31
304.359	-5.69
304.492	4.31
304.625	-1.69
304.758	13.31
304.891	-4.69
305.024	21.31
305.157	-3.69
305.29	-0.69
305.423	-9.69
305.556	-1.69
305.689	1.31
305.822	-3.69
305.955	16.31
306.088	9.31
306.221	-2.69
306.354	-14.69
306.487	-18.69
306.62	-5.69
306.752	5.31
306.885	-15.69
307.018	25.31
307.151	-1.69
307.284	12.31
307.417	-2.69
307.55	9.31
307.683	9.31
307.816	4.31
307.948	-5.69
308.081	5.31
308.214	10.31
308.347	18.31
308.48	-10.69
308.613	-9.69
308.745	5.31
308.878	-6.69
309.011	-3.69
309.144	23.31
309.277	7.31
309.409	10.31
309.542	-19.69
309.675	3.31
309.808	-3.69
309.94	19.31
310.073	-2.69
310.206	-2.69
310.339	5.31
310.471	-24.69
310.604	16.31
310.737	3.31
310.869	9.31
311.002	3.31
311.135	-12.69
311.267	6.31
311.4	-2.69
311.533	22.31
311.665	-6.69
311.798	-4.69
311.93	23.31
312.063	49.31
312.196	49.31
312.328	81.31
312.461	46.31
312.593	28.31
312.726	52.31
312.859	98.31
312.991	167.31
313.124	43.31
313.256	32.31
313.389	16.31
313.521	5.31
313.654	-4.69
313.786	-14.69
313.919	-5.69
314.051	5.31
314.184	5.31
314.316	1.31
314.449	-15.69
314.581	14.31
314.714	0.31
314.846	11.31
314.978	-5.69
315.111	-13.69
315.243	10.31
315.376	3.31
315.508	-0.69
315.641	9.31
315.773	10.31
315.905	5.31
316.038	3.31
316.17	3.31
316.302	-2.69
316.435	-6.69
316.567	-10.69
316.699	21.31
316.832	-6.69
316.964	8.31
317.096	-9.69
317.229	-10.69
317.361	-24.69
317.493	-1.69
317.625	-2.69
317.758	5.31
317.89	14.31
318.022	6.31
318.155	-8.69
318.287	0.31
318.419	8.31
318.551	21.31
318.683	4.31
318.816	0.31
318.948	-0.69
319.08	-15.69
319.212	12.31
319.344	24.31
319.477	-1.69
319.609	14.31
319.741	4.31
319.873	-11.69
320.005	-15.69
320.137	-3.69
320.269	10.31
320.401	2.31
320.534	-6.69
320.666	-21.69
320.798	4.31
320.93	4.31
321.062	-20.69
321.194	-20.69
321.326	-12.69
321.458	16.31
321.59	4.31
321.722	-17.69
321.854	1.31
321.986	12.31
322.118	10.31
322.25	-3.69
322.382	5.31
322.514	-18.69
322.646	-13.69
322.778	38.31
322.91	16.31
323.042	1.31
323.174	8.31
323.306	-2.69
323.438	-19.69
323.57	-1.69
323.702	10.31
323.834	-2.69
323.966	-7.69
324.097	-6.69
324.229	23.31
324.361	19.31
324.493	12.31
324.625	-10.69
324.757	-2.69
324.889	17.31
325.021	21.31
325.152	15.31
325.284	6.31
325.416	-3.69
325.548	27.31
325.68	-2.69
325.811	15.31
325.943	25.31
326.075	-4.69
326.207	13.31
326.339	7.31
326.47	15.31
326.602	18.31
326.734	12.31
326.866	11.31
326.997	-17.69
327.129	-14.69
327.261	-25.69
327.392	3.31
327.524	19.31
327.656	1.31
327.787	13.31
327.919	9.31
328.051	4.31
328.182	14.31
328.314	10.31
328.446	-0.69
328.577	23.31
328.709	13.31
328.841	-11.69
328.972	-14.69
329.104	1.31
329.235	-4.69
329.367	-18.69
329.499	0.31
329.63	7.31
329.762	-2.69
329.893	20.31
330.025	-2.69
330.156	-6.69
330.288	3.31
330.419	15.31
330.551	-0.69
330.683	6.31
330.814	0.31
330.946	20.31
331.077	-11.69
331.208	5.31
331.34	-7.69
331.471	-9.69
331.603	19.31
331.734	-20.69
331.866	7.31
331.997	0.31
332.129	21.31
332.26	-1.69
332.392	22.31
332.523	7.31
332.654	1.31
332.786	-1.69
332.917	0.31
333.048	1.31
333.18	31.31
333.311	4.31
333.443	21.31
333.574	-1.69
333.705	42.31
333.837	53.31
333.968	129.31
334.099	209.31
334.231	202.31
334.362	55.31
334.493	22.31
334.624	11.31
334.756	8.31
334.887	12.31
335.018	21.31
335.15	14.31
335.281	16.31
335.412	22.31
335.543	26.31
335.675	9.31
335.806	16.31
335.937	14.31
336.068	5.31
336.199	36.31
336.331	11.31
336.462	-3.69
336.593	12.31
336.724	-1.69
336.855	10.31
336.986	20.31
337.118	16.31
337.249	9.31
337.38	19.31
337.511	22.31
337.642	5.31
337.773	9.31
337.904	31.31
338.035	22.31
338.166	13.31
338.298	23.31
338.429	16.31
338.56	16.31
338.691	19.31
338.822	17.31
338.953	18.31
339.084	31.31
339.215	21.31
339.346	16.31
339.477	13.31
339.608	19.31
339.739	17.31
339.87	12.31
340.001	5.31
340.132	15.31
340.263	-4.69
340.394	10.31
340.525	6.31
340.656	-5.69
340.787	-7.69
340.918	31.31
341.049	21.31
341.179	8.31
341.31	16.31
341.441	19.31
341.572	26.31
341.703	18.31
341.834	5.31
341.965	33.31
342.096	10.31
342.227	19.31
342.357	1.31
342.488	9.31
342.619	9.31
342.75	24.31
342.881	16.31
343.012	19.31
343.142	25.31
343.273	-11.69
343.404	2.31
343.535	51.31
343.666	26.31
343.796	29.31
343.927	30.31
344.058	30.31
344.189	27.31
344.319	23.31
344.45	39.31
344.581	7.31
344.712	16.31
344.842	30.31
344.973	36.31
345.104	23.31
345.234	19.31
345.365	23.31
345.496	28.31
345.626	23.31
345.757	35.31
345.888	5.31
346.018	23.31
346.149	23.31
346.28	46.31
346.41	20.31
346.541	23.31
346.672	18.31
346.802	24.31
346.933	20.31
347.063	15.31
347.194	34.31
347.325	40.31
347.455	45.31
347.586	33.31
347.716	11.31
347.847	42.31
347.977	51.31
348.108	49.31
348.238	40.31
348.369	41.31
348.499	44.31
348.63	39.31
348.76	36.31
348.891	56.31
349.021	54.31
349.152	51.31
349.282	66.31
349.413	45.31
349.543	39.31
349.674	24.31
349.804	28.31
349.935	33.31
350.065	27.31
350.196	21.31
350.326	26.31
350.456	13.31
350.587	29.31
350.717	28.31
350.848	39.31
350.978	36.31
351.108	16.31
351.239	45.31
351.369	14.31
351.499	14.31
351.63	23.31
351.76	8.31
351.89	28.31
352.021	20.31
352.151	9.31
352.281	27.31
352.412	25.31
352.542	12.31
352.672	7.31
352.803	5.31
352.933	10.31
353.063	29.31
353.193	34.31
353.324	27.31
353.454	27.31
353.584	33.31
353.714	14.31
353.845	13.31
353.975	23.31
354.105	21.31
354.235	29.31
354.365	8.31
354.496	7.31
354.626	12.31
354.756	44.31
354.886	34.31
355.016	29.31
355.146	23.31
355.277	35.31
355.407	24.31
355.537	32.31
355.667	19.31
355.797	27.31
355.927	14.31
356.057	22.31
356.187	21.31
356.318	23.31
356.448	28.31
356.578	38.31
356.708	22.31
356.838	37.31
356.968	18.31
357.098	8.31
357.228	38.31
357.358	38.31
357.488	20.31
357.618	58.31
357.748	44.31
357.878	33.31
358.008	10.31
358.138	17.31
358.268	25.31
358.398	33.31
358.528	22.31
358.658	37.31
358.788	9.31
358.918	53.31
359.048	39.31
359.178	50.31
359.308	38.31
359.438	38.31
359.568	36.31
359.698	20.31
359.827	26.31
359.957	40.31
360.087	23.31
360.217	19.31
360.347	26.31
360.477	38.31
360.607	4.31
360.737	33.31
360.866	24.31
360.996	20.31
361.126	17.31
361.256	62.31
361.386	46.31
361.516	50.31
361.645	9.31
361.775	41.31
361.905	17.31
362.035	30.31
362.165	33.31
362.294	52.31
362.424	51.31
362.554	26.31
362.684	27.31
362.813	53.31
362.943	54.31
363.073	67.31
363.203	58.31
363.332	62.31
363.462	81.31
363.592	103.31
363.721	120.31
363.851	132.31
363.981	207.31
364.111	243.31
364.24	298.31
364.37	487.31
364.5	855.31
364.629	1817.31
364.759	3767.31
364.888	6232.31
365.018	9317.31
365.148	14767.31
365.277	12827.31
365.407	4664.31
365.537	3059.31
365.666	3950.31
365.796	1820.31
365.925	778.31
366.055	733.31
366.184	998.31
366.314	1383.31
366.444	2437.31
366.573	2089.31
366.703	629.31
366.832	212.31
366.962	126.31
367.091	83.31
367.221	81.31
367.35	61.31
367.48	80.31
367.609	53.31
367.739	58.31
367.868	43.31
367.998	38.31
368.127	51.31
368.257	57.31
368.386	56.31
368.516	38.31
368.645	37.31
368.775	44.31
368.904	33.31
369.033	48.31
369.163	32.31
369.292	47.31
369.422	40.31
369.551	32.31
369.68	36.31
369.81	36.31
369.939	15.31
370.069	48.31
370.198	24.31
370.327	17.31
370.457	29.31
370.586	48.31
370.715	44.31
370.845	39.31
370.974	41.31
371.103	45.31
371.233	42.31
371.362	40.31
371.491	35.31
371.621	48.31
371.75	45.31
371.879	34.31
372.008	47.31
372.138	39.31
372.267	59.31
372.396	58.31
372.525	54.31
372.655	36.31
372.784	42.31
372.913	18.31
373.042	33.31
373.172	41.31
373.301	10.31
373.43	1.31
373.559	15.31
373.688	24.31
373.818	37.31
373.947	20.31
374.076	15.31
374.205	22.31
374.334	16.31
374.463	12.31
374.593	26.31
374.722	22.31
374.851	30.31
374.98	28.31
375.109	21.31
375.238	25.31
375.367	27.31
375.496	-9.69
375.625	11.31
375.755	36.31
375.884	40.31
376.013	43.31
376.142	14.31
376.271	24.31
376.4	10.31
376.529	17.31
376.658	27.31
376.787	24.31
376.916	15.31
377.045	17.31
377.174	21.31
377.303	-0.69
377.432	36.31
377.561	28.31
377.69	18.31
377.819	22.31
377.948	31.31
378.077	19.31
378.206	10.31
378.335	9.31
378.464	11.31
378.593	53.31
378.722	18.31
378.851	1.31
378.98	26.31
379.108	-0.69
379.237	-0.69
379.366	18.31
379.495	38.31
379.624	17.31
379.753	26.31
379.882	5.31
380.011	6.31
380.14	-2.69
380.268	13.31
380.397	-2.69
380.526	36.31
380.655	20.31
380.784	-15.69
380.913	4.31
381.041	21.31
381.17	10.31
381.299	4.31
381.428	1.31
381.557	21.31
381.685	23.31
381.814	29.31
381.943	-1.69
382.072	3.31
382.2	6.31
382.329	7.31
382.458	-2.69
382.587	40.31
382.715	35.31
382.844	27.31
382.973	19.31
383.102	28.31
383.23	16.31
383.359	10.31
383.488	41.31
383.616	0.31
383.745	-4.69
383.874	14.31
384.003	15.31
384.131	5.31
384.26	-3.69
384.389	30.31
384.517	9.31
384.646	0.31
384.774	9.31
384.903	14.31
385.032	25.31
385.16	9.31
385.289	7.31
385.418	34.31
385.546	7.31
385.675	27.31
385.803	22.31
385.932	17.31
386.06	4.31
386.189	16.31
386.318	19.31
386.446	10.31
386.575	29.31
386.703	46.31
386.832	3.31
386.96	-8.69
387.089	43.31
387.217	19.31
387.346	17.31
387.474	28.31
387.603	12.31
387.731	6.31
387.86	20.31
387.988	5.31
388.117	14.31
388.245	15.31
388.374	16.31
388.502	25.31
388.631	1.31
388.759	4.31
388.888	27.31
389.016	4.31
389.144	-9.69
389.273	19.31
389.401	18.31
389.53	19.31
389.658	42.31
389.786	9.31
389.915	10.31
390.043	22.31
390.172	22.31
390.3	46.31
390.428	46.31
390.557	20.31
390.685	35.31
390.813	38.31
390.942	33.31
391.07	28.31
391.198	26.31
391.327	6.31
391.455	6.31
391.583	20.31
391.712	46.31
391.84	34.31
391.968	3.31
392.096	10.31
392.225	9.31
392.353	18.31
392.481	29.31
392.609	31.31
392.738	24.31
392.866	30.31
392.994	10.31
393.122	40.31
393.251	19.31
393.379	11.31
393.507	4.31
393.635	14.31
393.764	40.31
393.892	31.31
394.02	29.31
394.148	32.31
394.276	19.31
394.404	46.31
394.533	38.31
394.661	24.31
394.789	48.31
394.917	49.31
395.045	21.31
395.173	18.31
395.302	35.31
395.43	35.31
395.558	31.31
395.686	25.31
395.814	37.31
395.942	18.31
396.07	40.31
396.198	32.31
396.326	30.31
396.454	51.31
396.582	27.31
396.711	23.31
396.839	36.31
396.967	48.31
397.095	24.31
397.223	49.31
397.351	51.31
397.479	53.31
397.607	41.31
397.735	33.31
397.863	37.31
397.991	43.31
398.119	32.31
398.247	46.31
398.375	33.31
398.503	34.31
398.631	57.31
398.759	65.31
398.887	43.31
399.015	52.31
399.143	36.31
399.271	65.31
399.399	70.31
399.526	76.31
399.654	74.31
399.782	57.31
399.91	79.31
400.038	93.31
400.166	77.31
400.294	80.31
400.422	67.31
400.55	105.31
400.678	108.31
400.805	93.31
400.933	116.31
401.061	127.31
401.189	122.31
401.317	137.31
401.445	118.31
401.573	89.31
401.7	69.31
401.828	53.31
401.956	60.31
402.084	43.31
402.212	39.31
402.34	20.31
402.467	33.31
402.595	47.31
402.723	40.31
402.851	68.31
402.978	45.31
403.106	78.31
403.234	76.31
403.362	130.31
403.489	124.31
403.617	140.31
403.745	193.31
403.873	276.31
404	557.31
404.128	1437.31
404.256	3881.31
404.384	5025.31
404.511	5403.31
404.639	7111.31
404.767	11340.31
404.894	14526.31
405.022	4875.31
405.15	1264.31
405.277	414.31
405.405	230.31
405.533	134.31
405.66	125.31
405.788	78.31
405.916	71.31
406.043	35.31
406.171	48.31
406.299	56.31
406.426	48.31
406.554	48.31
406.681	54.31
406.809	45.31
406.937	65.31
407.064	56.31
407.192	128.31
407.319	331.31
407.447	521.31
407.574	538.31
407.702	627.31
407.83	843.31
407.957	1593.31
408.085	945.31
408.212	284.31
408.34	92.31
408.467	55.31
408.595	43.31
408.722	69.31
408.85	35.31
408.977	48.31
409.105	39.31
409.232	34.31
409.36	48.31
409.487	23.31
409.615	50.31
409.742	45.31
409.87	35.31
409.997	44.31
410.125	27.31
410.252	22.31
410.379	13.31
410.507	47.31
410.634	36.31
410.762	16.31
410.889	60.31
411.017	29.31
411.144	37.31
411.271	11.31
411.399	30.31
411.526	23.31
411.653	28.31
411.781	43.31
411.908	35.31
412.036	13.31
412.163	40.31
412.29	28.31
412.418	34.31
412.545	38.31
412.672	11.31
412.8	47.31
412.927	34.31
413.054	51.31
413.182	28.31
413.309	27.31
413.436	1.31
413.564	24.31
413.691	27.31
413.818	32.31
413.945	7.31
414.073	21.31
414.2	52.31
414.327	25.31
414.454	31.31
414.582	44.31
414.709	20.31
414.836	12.31
414.963	9.31
415.091	27.31
415.218	23.31
415.345	24.31
415.472	29.31
415.6	7.31
415.727	51.31
415.854	18.31
415.981	28.31
416.108	20.31
416.236	17.31
416.363	33.31
416.49	29.31
416.617	23.31
416.744	37.31
416.871	45.31
416.998	20.31
417.126	26.31
417.253	23.31
417.38	28.31
417.507	26.31
417.634	19.31
417.761	34.31
417.888	37.31
418.015	37.31
418.143	42.31
418.27	58.31
418.397	33.31
418.524	24.31
418.651	41.31
418.778	46.31
418.905	76.31
419.032	51.31
419.159	30.31
419.286	38.31
419.413	43.31
419.54	59.31
419.667	35.31
419.794	42.31
419.921	50.31
420.048	53.31
420.175	63.31
420.302	53.31
420.429	46.31
420.556	46.31
420.683	46.31
420.81	58.31
420.937	58.31
421.064	58.31
421.191	53.31
421.318	71.31
421.445	75.31
421.572	82.31
421.699	60.31
421.826	41.31
421.953	61.31
422.08	32.31
422.207	22.31
422.334	11.31
422.461	54.31
422.588	15.31
422.714	26.31
422.841	29.31
422.968	33.31
423.095	21.31
423.222	24.31
423.349	39.31
423.476	25.31
423.603	23.31
423.729	7.31
423.856	6.31
423.983	39.31
424.11	9.31
424.237	19.31
424.364	30.31
424.491	16.31
424.617	9.31
424.744	16.31
424.871	25.31
424.998	-3.69
425.125	7.31
425.251	23.31
425.378	8.31
425.505	29.31
425.632	19.31
425.758	19.31
425.885	31.31
426.012	39.31
426.139	48.31
426.266	31.31
426.392	21.31
426.519	18.31
426.646	22.31
426.772	17.31
426.899	27.31
427.026	28.31
427.153	14.31
427.279	25.31
427.406	25.31
427.533	21.31
427.659	15.31
427.786	23.31
427.913	27.31
428.039	-2.69
428.166	29.31
428.293	32.31
428.419	38.31
428.546	23.31
428.673	20.31
428.799	20.31
428.926	13.31
429.053	23.31
429.179	11.31
429.306	14.31
429.433	45.31
429.559	46.31
429.686	12.31
429.812	21.31
429.939	32.31
430.066	27.31
430.192	17.31
430.319	39.31
430.445	27.31
430.572	31.31
430.699	6.31
430.825	13.31
430.952	21.31
431.078	36.31
431.205	38.31
431.331	25.31
431.458	30.31
431.584	28.31
431.711	24.31
431.837	22.31
431.964	29.31
432.09	37.31
432.217	7.31
432.343	29.31
432.47	52.31
432.596	35.31
432.723	8.31
432.849	37.31
432.976	35.31
433.102	19.31
433.229	38.31
433.355	54.31
433.482	89.31
433.608	97.31
433.735	92.31
433.861	116.31
433.987	158.31
434.114	181.31
434.24	183.31
434.367	225.31
434.493	217.31
434.62	297.31
434.746	385.31
434.872	618.31
434.999	830.31
435.125	1697.31
435.252	5451.31
435.378	13341.31
435.504	15153.31
435.631	15370.31
435.757	15682.31
435.883	15682.31
436.01	15682.31
436.136	15682.31
436.262	15682.31
436.389	3454.31
436.515	1933.31
436.641	756.31
436.768	643.31
436.894	390.31
437.02	376.31
437.147	290.31
437.273	284.31
437.399	207.31
437.526	253.31
437.652	184.31
437.778	190.31
437.904	136.31
438.031	151.31
438.157	141.31
438.283	143.31
438.409	107.31
438.536	124.31
438.662	113.31
438.788	115.31
438.914	109.31
439.041	128.31
439.167	121.31
439.293	91.31
439.419	86.31
439.546	94.31
439.672	87.31
439.798	98.31
439.924	71.31
440.05	85.31
440.177	87.31
440.303	81.31
440.429	64.31
440.555	80.31
440.681	83.31
440.807	107.31
440.934	57.31
441.06	79.31
441.186	71.31
441.312	78.31
441.438	60.31
441.564	67.31
441.69	67.31
441.816	59.31
441.943	52.31
442.069	52.31
442.195	65.31
442.321	61.31
442.447	54.31
442.573	48.31
442.699	26.31
442.825	37.31
442.951	42.31
443.077	62.31
443.203	70.31
443.33	52.31
443.456	37.31
443.582	41.31
443.708	25.31
443.834	55.31
443.96	45.31
444.086	36.31
444.212	48.31
444.338	52.31
444.464	56.31
444.59	60.31
444.716	39.31
444.842	30.31
444.968	35.31
445.094	48.31
445.22	47.31
445.346	26.31
445.472	46.31
445.598	50.31
445.724	41.31
445.85	20.31
445.976	37.31
446.102	25.31
446.228	57.31
446.354	36.31
446.48	29.31
446.605	37.31
446.731	41.31
446.857	37.31
446.983	26.31
447.109	27.31
447.235	43.31
447.361	35.31
447.487	43.31
447.613	29.31
447.739	12.31
447.865	24.31
447.99	33.31
448.116	21.31
448.242	35.31
448.368	50.31
448.494	25.31
448.62	37.31
448.746	43.31
448.872	29.31
448.997	26.31
449.123	44.31
449.249	35.31
449.375	21.31
449.501	19.31
449.627	31.31
449.752	35.31
449.878	35.31
450.004	24.31
450.13	25.31
450.256	16.31
450.381	31.31
450.507	24.31
450.633	28.31
450.759	41.31
450.884	21.31
451.01	31.31
451.136	24.31
451.262	29.31
451.388	30.31
451.513	31.31
451.639	32.31
451.765	26.31
451.89	28.31
452.016	25.31
452.142	27.31
452.268	30.31
452.393	18.31
452.519	15.31
452.645	31.31
452.771	25.31
452.896	29.31
453.022	15.31
453.148	19.31
453.273	20.31
453.399	31.31
453.525	10.31
453.65	16.31
453.776	27.31
453.902	33.31
454.027	34.31
454.153	28.31
454.279	25.31
454.404	16.31
454.53	30.31
454.656	43.31
454.781	35.31
454.907	31.31
455.032	24.31
455.158	38.31
455.284	45.31
455.409	25.31
455.535	23.31
455.66	36.31
455.786	33.31
455.912	29.31
456.037	17.31
456.163	35.31
456.288	39.31
456.414	35.31
456.539	17.31
456.665	36.31
456.791	23.31
456.916	21.31
457.042	24.31
457.167	13.31
457.293	31.31
457.418	22.31
457.544	32.31
457.669	21.31
457.795	33.31
457.92	11.31
458.046	22.31
458.171	19.31
458.297	24.31
458.422	-0.69
458.548	16.31
458.673	41.31
458.799	49.31
458.924	13.31
459.05	6.31
459.175	16.31
459.301	11.31
459.426	42.31
459.552	19.31
459.677	18.31
459.803	43.31
459.928	33.31
460.053	25.31
460.179	36.31
460.304	25.31
460.43	20.31
460.555	18.31
460.681	25.31
460.806	15.31
460.931	25.31
461.057	35.31
461.182	22.31
461.308	13.31
461.433	21.31
461.558	14.31
461.684	41.31
461.809	28.31
461.934	31.31
462.06	21.31
462.185	-0.69
462.311	22.31
462.436	26.31
462.561	17.31
462.687	14.31
462.812	23.31
462.937	23.31
463.063	29.31
463.188	30.31
463.313	38.31
463.439	40.31
463.564	22.31
463.689	23.31
463.814	21.31
463.94	5.31
464.065	30.31
464.19	43.31
464.316	3.31
464.441	9.31
464.566	13.31
464.692	23.31
464.817	25.31
464.942	8.31
465.067	29.31
465.193	14.31
465.318	23.31
465.443	7.31
465.568	31.31
465.694	21.31
465.819	62.31
465.944	27.31
466.069	40.31
466.194	37.31
466.32	43.31
466.445	33.31
466.57	23.31
466.695	28.31
466.82	35.31
466.946	30.31
467.071	41.31
467.196	26.31
467.321	52.31
467.446	33.31
467.572	32.31
467.697	28.31
467.822	44.31
467.947	31.31
468.072	29.31
468.197	32.31
468.323	25.31
468.448	42.31
468.573	27.31
468.698	35.31
468.823	32.31
468.948	29.31
469.073	14.31
469.198	37.31
469.324	60.31
469.449	34.31
469.574	39.31
469.699	50.31
469.824	37.31
469.949	29.31
470.074	20.31
470.199	52.31
470.324	48.31
470.449	39.31
470.574	21.31
470.7	8.31
470.825	30.31
470.95	43.31
471.075	30.31
471.2	46.31
471.325	59.31
471.45	30.31
471.575	44.31
471.7	30.31
471.825	27.31
471.95	23.31
472.075	29.31
472.2	18.31
472.325	27.31
472.45	11.31
472.575	19.31
472.7	30.31
472.825	31.31
472.95	47.31
473.075	35.31
473.2	17.31
473.325	31.31
473.45	49.31
473.575	48.31
473.7	47.31
473.825	13.31
473.95	19.31
474.075	28.31
474.2	13.31
474.325	17.31
474.45	24.31
474.574	33.31
474.699	38.31
474.824	37.31
474.949	9.31
475.074	13.31
475.199	15.31
475.324	21.31
475.449	26.31
475.574	29.31
475.699	17.31
475.824	23.31
475.949	33.31
476.073	22.31
476.198	24.31
476.323	24.31
476.448	23.31
476.573	18.31
476.698	35.31
476.823	28.31
476.947	27.31
477.072	16.31
477.197	33.31
477.322	17.31
477.447	21.31
477.572	4.31
477.697	22.31
477.821	8.31
477.946	19.31
478.071	29.31
478.196	49.31
478.321	30.31
478.445	28.31
478.57	10.31
478.695	19.31
478.82	-4.69
478.945	22.31
479.069	17.31
479.194	20.31
479.319	23.31
479.444	32.31
479.569	19.31
479.693	14.31
479.818	29.31
479.943	33.31
480.068	28.31
480.192	37.31
480.317	23.31
480.442	12.31
480.567	8.31
480.691	24.31
480.816	11.31
480.941	7.31
481.066	20.31
481.19	43.31
481.315	22.31
481.44	13.31
481.564	-3.69
481.689	33.31
481.814	20.31
481.938	26.31
482.063	34.31
482.188	9.31
482.313	33.31
482.437	2.31
482.562	19.31
482.687	28.31
482.811	15.31
482.936	14.31
483.061	20.31
483.185	37.31
483.31	26.31
483.435	27.31
483.559	6.31
483.684	18.31
483.808	37.31
483.933	24.31
484.058	15.31
484.182	25.31
484.307	10.31
484.432	24.31
484.556	4.31
484.681	6.31
484.805	10.31
484.93	32.31
485.055	25.31
485.179	41.31
485.304	31.31
485.428	38.31
485.553	24.31
485.678	25.31
485.802	19.31
485.927	39.31
486.051	24.31
486.176	11.31
486.3	7.31
486.425	32.31
486.549	29.31
486.674	43.31
486.799	20.31
486.923	26.31
487.048	12.31
487.172	12.31
487.297	7.31
487.421	24.31
487.546	17.31
487.67	36.31
487.795	7.31
487.919	28.31
488.044	15.31
488.168	14.31
488.293	16.31
488.417	7.31
488.542	22.31
488.666	31.31
488.791	28.31
488.915	23.31
489.04	39.31
489.164	32.31
489.289	38.31
489.413	15.31
489.538	37.31
489.662	28.31
489.786	13.31
489.911	15.31
490.035	11.31
490.16	28.31
490.284	22.31
490.409	13.31
490.533	24.31
490.658	44.31
490.782	43.31
490.906	45.31
491.031	109.31
491.155	154.31
491.28	153.31
491.404	177.31
491.528	251.31
491.653	133.31
491.777	64.31
491.902	20.31
492.026	30.31
492.15	33.31
492.275	45.31
492.399	27.31
492.524	13.31
492.648	30.31
492.772	19.31
492.897	26.31
493.021	19.31
493.145	44.31
493.27	28.31
493.394	19.31
493.518	19.31
493.643	14.31
493.767	13.31
493.891	14.31
494.016	27.31
494.14	13.31
494.264	20.31
494.389	33.31
494.513	7.31
494.637	11.31
494.762	9.31
494.886	14.31
495.01	15.31
495.134	24.31
495.259	20.31
495.383	19.31
495.507	18.31
495.632	40.31
495.756	51.31
495.88	37.31
496.004	15.31
496.129	21.31
496.253	33.31
496.377	28.31
496.501	35.31
496.626	11.31
496.75	20.31
496.874	38.31
496.998	13.31
497.123	17.31
497.247	20.31
497.371	21.31
497.495	24.31
497.62	20.31
497.744	14.31
497.868	23.31
497.992	26.31
498.116	1.31
498.241	23.31
498.365	6.31
498.489	16.31
498.613	39.31
498.737	14.31
498.862	8.31
498.986	12.31
499.11	21.31
499.234	11.31
499.358	6.31
499.482	12.31
499.607	29.31
499.731	31.31
499.855	44.31
499.979	27.31
500.103	22.31
500.227	36.31
500.351	32.31
500.476	9.31
500.6	6.31
500.724	28.31
500.848	17.31
500.972	17.31
501.096	25.31
501.22	27.31
501.344	28.31
501.469	10.31
501.593	13.31
501.717	13.31
501.841	15.31
501.965	16.31
502.089	17.31
502.213	25.31
502.337	41.31
502.461	11.31
502.585	20.31
502.709	13.31
502.834	12.31
502.958	1.31
503.082	32.31
503.206	14.31
503.33	33.31
503.454	31.31
503.578	31.31
503.702	33.31
503.826	17.31
503.95	23.31
504.074	28.31
504.198	21.31
504.322	3.31
504.446	4.31
504.57	33.31
504.694	24.31
504.818	19.31
504.942	28.31
505.066	38.31
505.19	28.31
505.314	27.31
505.438	28.31
505.562	22.31
505.686	28.31
505.81	23.31
505.934	21.31
506.058	31.31
506.182	24.31
506.306	9.31
506.43	20.31
506.554	8.31
506.678	9.31
506.802	16.31
506.926	27.31
507.05	25.31
507.174	37.31
507.298	36.31
507.422	13.31
507.546	35.31
507.67	42.31
507.794	1.31
507.918	8.31
508.042	20.31
508.165	26.31
508.289	11.31
508.413	20.31
508.537	16.31
508.661	33.31
508.785	28.31
508.909	52.31
509.033	31.31
509.157	32.31
509.281	51.31
509.405	17.31
509.528	52.31
509.652	50.31
509.776	18.31
509.9	45.31
510.024	46.31
510.148	34.31
510.272	30.31
510.396	41.31
510.519	37.31
510.643	38.31
510.767	31.31
510.891	37.31
511.015	49.31
511.139	46.31
511.263	36.31
511.386	41.31
511.51	25.31
511.634	26.31
511.758	27.31
511.882	28.31
512.006	31.31
512.129	70.31
512.253	96.31
512.377	75.31
512.501	84.31
512.625	92.31
512.748	66.31
512.872	63.31
512.996	65.31
513.12	53.31
513.244	31.31
513.367	55.31
513.491	65.31
513.615	67.31
513.739	72.31
513.862	63.31
513.986	83.31
514.11	92.31
514.234	80.31
514.358	110.31
514.481	131.31
514.605	112.31
514.729	104.31
514.853	112.31
514.976	101.31
515.1	92.31
515.224	107.31
515.348	84.31
515.471	73.31
515.595	104.31
515.719	142.31
515.842	202.31
515.966	277.31
516.09	296.31
516.214	303.31
516.337	335.31
516.461	241.31
516.585	95.31
516.708	41.31
516.832	32.31
516.956	16.31
517.08	17.31
517.203	9.31
517.327	25.31
517.451	28.31
517.574	40.31
517.698	3.31
517.822	11.31
517.945	22.31
518.069	32.31
518.193	56.31
518.316	9.31
518.44	30.31
518.564	26.31
518.687	16.31
518.811	17.31
518.935	34.31
519.058	14.31
519.182	3.31
519.306	15.31
519.429	12.31
519.553	50.31
519.676	29.31
519.8	5.31
519.924	6.31
520.047	11.31
520.171	19.31
520.294	24.31
520.418	23.31
520.542	20.31
520.665	40.31
520.789	27.31
520.913	4.31
521.036	8.31
521.16	19.31
521.283	16.31
521.407	2.31
521.53	7.31
521.654	8.31
521.778	28.31
521.901	29.31
522.025	25.31
522.148	7.31
522.272	23.31
522.395	9.31
522.519	26.31
522.643	-0.69
522.766	27.31
522.89	12.31
523.013	21.31
523.137	3.31
523.26	9.31
523.384	38.31
523.507	18.31
523.631	16.31
523.754	12.31
523.878	13.31
524.002	13.31
524.125	11.31
524.249	4.31
524.372	20.31
524.496	19.31
524.619	23.31
524.743	17.31
524.866	9.31
524.99	28.31
525.113	5.31
525.237	20.31
525.36	20.31
525.484	26.31
525.607	8.31
525.731	17.31
525.854	32.31
525.978	29.31
526.101	14.31
526.224	7.31
526.348	19.31
526.471	15.31
526.595	29.31
526.718	8.31
526.842	-4.69
526.965	9.31
527.089	13.31
527.212	17.31
527.336	7.31
527.459	22.31
527.582	7.31
527.706	36.31
527.829	26.31
527.953	31.31
528.076	15.31
528.2	17.31
528.323	23.31
528.446	32.31
528.57	13.31
528.693	18.31
528.817	18.31
528.94	24.31
529.064	49.31
529.187	17.31
529.31	6.31
529.434	24.31
529.557	7.31
529.68	11.31
529.804	16.31
529.927	6.31
530.051	5.31
530.174	7.31
530.297	24.31
530.421	39.31
530.544	18.31
530.668	20.31
530.791	14.31
530.914	29.31
531.038	20.31
531.161	32.31
531.284	27.31
531.408	26.31
531.531	7.31
531.654	11.31
531.778	19.31
531.901	2.31
532.024	18.31
532.148	12.31
532.271	17.31
532.394	2.31
532.518	30.31
532.641	34.31
532.764	11.31
532.888	28.31
533.011	1.31
533.134	6.31
533.258	31.31
533.381	19.31
533.504	15.31
533.628	2.31
533.751	27.31
533.874	13.31
533.997	29.31
534.121	8.31
534.244	21.31
534.367	9.31
534.491	3.31
534.614	21.31
534.737	20.31
534.86	26.31
534.984	12.31
535.107	16.31
535.23	14.31
535.354	0.31
535.477	11.31
535.6	14.31
535.723	4.31
535.847	32.31
535.97	9.31
536.093	24.31
536.216	-3.69
536.34	17.31
536.463	15.31
536.586	31.31
536.709	16.31
536.833	22.31
536.956	16.31
537.079	19.31
537.202	23.31
537.325	16.31
537.449	-20.69
537.572	33.31
537.695	4.31
537.818	20.31
537.941	27.31
538.065	16.31
538.188	14.31
538.311	17.31
538.434	35.31
538.558	23.31
538.681	30.31
538.804	20.31
538.927	27.31
539.05	22.31
539.173	29.31
539.297	5.31
539.42	29.31
539.543	20.31
539.666	46.31
539.789	40.31
539.913	52.31
540.036	25.31
540.159	33.31
540.282	-2.69
540.405	13.31
540.528	22.31
540.651	37.31
540.775	35.31
540.898	52.31
541.021	15.31
541.144	45.31
541.267	35.31
541.39	43.31
541.513	42.31
541.637	31.31
541.76	17.31
541.883	31.31
542.006	39.31
542.129	54.31
542.252	35.31
542.375	42.31
542.498	35.31
542.622	48.31
542.745	51.31
542.868	49.31
542.991	52.31
543.114	70.31
543.237	54.31
543.36	57.31
543.483	57.31
543.606	74.31
543.73	77.31
543.853	85.31
543.976	72.31
544.099	119.31
544.222	128.31
544.345	136.31
544.468	170.31
544.591	220.31
544.714	278.31
544.837	360.31
544.96	447.31
545.083	618.31
545.206	1101.31
545.329	2438.31
545.453	10814.31
545.576	15237.31
545.699	15682.31
545.822	15682.31
545.945	15682.31
546.068	15682.31
546.191	15682.31
546.314	15682.31
546.437	15682.31
546.56	15682.31
546.683	15682.31
546.806	15682.31
546.929	15682.31
547.052	15682.31
547.175	15682.31
547.298	15682.31
547.421	15682.31
547.544	15682.31
547.667	3431.31
547.79	1771.31
547.913	903.31
548.036	827.31
548.159	600.31
548.282	577.31
548.405	473.31
548.528	479.31
548.651	395.31
548.774	385.31
548.897	314.31
549.02	355.31
549.143	311.31
549.266	299.31
549.389	277.31
549.512	250.31
549.635	264.31
549.758	242.31
549.881	220.31
550.004	218.31
550.127	188.31
550.25	186.31
550.373	161.31
550.496	183.31
550.619	166.31
550.742	163.31
550.865	135.31
550.988	169.31
551.111	148.31
551.234	147.31
551.356	127.31
551.479	127.31
551.602	133.31
551.725	145.31
551.848	140.31
551.971	145.31
552.094	124.31
552.217	109.31
552.34	101.31
552.463	108.31
552.586	107.31
552.709	97.31
552.832	80.31
552.955	102.31
553.077	120.31
553.2	121.31
553.323	85.31
553.446	107.31
553.569	102.31
553.692	101.31
553.815	100.31
553.938	118.31
554.061	86.31
554.184	89.31
554.306	82.31
554.429	94.31
554.552	83.31
554.675	60.31
554.798	78.31
554.921	77.31
555.044	80.31
555.167	68.31
555.29	64.31
555.412	72.31
555.535	69.31
555.658	63.31
555.781	68.31
555.904	93.31
556.027	96.31
556.15	58.31
556.272	54.31
556.395	80.31
556.518	59.31
556.641	72.31
556.764	76.31
556.887	80.31
557.01	57.31
557.132	67.31
557.255	80.31
557.378	79.31
557.501	60.31
557.624	70.31
557.747	65.31
557.869	71.31
557.992	83.31
558.115	100.31
558.238	73.31
558.361	79.31
558.483	95.31
558.606	62.31
558.729	53.31
558.852	69.31
558.975	72.31
559.098	58.31
559.22	61.31
559.343	54.31
559.466	53.31
559.589	42.31
559.712	52.31
559.834	67.31
559.957	43.31
560.08	49.31
560.203	67.31
560.325	62.31
560.448	77.31
560.571	63.31
560.694	51.31
560.817	71.31
560.939	62.31
561.062	60.31
561.185	78.31
561.308	55.31
561.43	48.31
561.553	50.31
561.676	37.31
561.799	60.31
561.921	80.31
562.044	55.31
562.167	43.31
562.29	72.31
562.413	78.31
562.535	73.31
562.658	50.31
562.781	42.31
562.903	62.31
563.026	83.31
563.149	132.31
563.272	114.31
563.394	108.31
563.517	113.31
563.64	70.31
563.763	52.31
563.885	59.31
564.008	63.31
564.131	45.31
564.254	38.31
564.376	47.31
564.499	21.31
564.622	40.31
564.744	64.31
564.867	40.31
564.99	43.31
565.113	46.31
565.235	34.31
565.358	29.31
565.481	14.31
565.603	33.31
565.726	25.31
565.849	46.31
565.971	50.31
566.094	13.31
566.217	40.31
566.34	40.31
566.462	52.31
566.585	43.31
566.708	61.31
566.83	43.31
566.953	43.31
567.076	29.31
567.198	23.31
567.321	14.31
567.444	41.31
567.566	34.31
567.689	23.31
567.812	4.31
567.934	22.31
568.057	27.31
568.18	52.31
568.302	18.31
568.425	4.31
568.548	25.31
568.67	47.31
568.793	47.31
568.916	34.31
569.038	23.31
569.161	29.31
569.283	50.31
569.406	37.31
569.529	46.31
569.651	25.31
569.774	18.31
569.897	28.31
570.019	53.31
570.142	53.31
570.265	38.31
570.387	23.31
570.51	33.31
570.632	47.31
570.755	12.31
570.878	25.31
571	37.31
571.123	15.31
571.246	38.31
571.368	24.31
571.491	26.31
571.613	21.31
571.736	16.31
571.859	26.31
571.981	30.31
572.104	15.31
572.226	31.31
572.349	23.31
572.472	4.31
572.594	36.31
572.717	37.31
572.839	24.31
572.962	35.31
573.085	41.31
573.207	37.31
573.33	37.31
573.452	48.31
573.575	39.31
573.697	30.31
573.82	33.31
573.943	38.31
574.065	38.31
574.188	39.31
574.31	50.31
574.433	42.31
574.555	52.31
574.678	39.31
574.801	44.31
574.923	26.31
575.046	35.31
575.168	39.31
575.291	50.31
575.413	53.31
575.536	36.31
575.659	52.31
575.781	43.31
575.904	37.31
576.026	73.31
576.149	79.31
576.271	117.31
576.394	186.31
576.516	503.31
576.639	3612.31
576.761	10080.31
576.884	8764.31
577.007	8650.31
577.129	7880.31
577.252	3658.31
577.374	1315.31
577.497	530.31
577.619	286.31
577.742	164.31
577.864	156.31
577.987	128.31
578.109	144.31
578.232	121.31
578.354	157.31
578.477	185.31
578.599	389.31
578.722	1944.31
578.844	9024.31
578.967	9672.31
579.089	8666.31
579.212	9006.31
579.334	5222.31
579.457	1890.31
579.579	722.31
579.702	325.31
579.824	208.31
579.947	124.31
580.069	102.31
580.192	87.31
580.314	88.31
580.437	73.31
580.559	86.31
580.682	71.31
580.804	63.31
580.927	67.31
581.049	76.31
581.172	69.31
581.294	43.31
581.417	59.31
581.539	17.31
581.662	43.31
581.784	55.31
581.907	67.31
582.029	59.31
582.152	29.31
582.274	29.31
582.396	24.31
582.519	37.31
582.641	31.31
582.764	49.31
582.886	45.31
583.009	45.31
583.131	34.31
583.254	21.31
583.376	52.31
583.499	37.31
583.621	29.31
583.743	27.31
583.866	35.31
583.988	37.31
584.111	47.31
584.233	27.31
584.356	56.31
584.478	25.31
584.601	28.31
584.723	30.31
584.845	42.31
584.968	46.31
585.09	8.31
585.213	37.31
585.335	19.31
585.458	17.31
585.58	30.31
585.702	33.31
585.825	45.31
585.947	31.31
586.07	8.31
586.192	12.31
586.315	38.31
586.437	20.31
586.559	29.31
586.682	20.31
586.804	20.31
586.927	23.31
587.049	9.31
587.171	39.31
587.294	29.31
587.416	43.31
587.539	27.31
587.661	15.31
587.783	32.31
587.906	27.31
588.028	27.31
588.151	22.31
588.273	55.31
588.395	28.31
588.518	27.31
588.64	23.31
588.763	35.31
588.885	35.31
589.007	35.31
589.13	34.31
589.252	19.31
589.375	35.31
589.497	27.31
589.619	30.31
589.742	27.31
589.864	32.31
589.986	21.31
590.109	7.31
590.231	12.31
590.354	30.31
590.476	13.31
590.598	14.31
590.721	25.31
590.843	35.31
590.965	22.31
591.088	33.31
591.21	29.31
591.332	28.31
591.455	22.31
591.577	33.31
591.7	35.31
591.822	20.31
591.944	9.31
592.067	39.31
592.189	36.31
592.311	32.31
592.434	41.31
592.556	46.31
592.678	26.31
592.801	22.31
592.923	25.31
593.045	23.31
593.168	18.31
593.29	32.31
593.412	30.31
593.535	13.31
593.657	27.31
593.779	34.31
593.902	43.31
594.024	26.31
594.146	31.31
594.269	33.31
594.391	31.31
594.513	17.31
594.636	17.31
594.758	11.31
594.88	31.31
595.003	23.31
595.125	21.31
595.247	27.31
595.37	21.31
595.492	12.31
595.614	32.31
595.737	39.31
595.859	28.31
595.981	15.31
596.104	41.31
596.226	20.31
596.348	19.31
596.471	7.31
596.593	31.31
596.715	7.31
596.838	23.31
596.96	26.31
597.082	29.31
597.204	27.31
597.327	36.31
597.449	23.31
597.571	17.31
597.694	17.31
597.816	15.31
597.938	25.31
598.061	24.31
598.183	14.31
598.305	23.31
598.427	23.31
598.55	15.31
598.672	34.31
598.794	28.31
598.917	20.31
599.039	26.31
599.161	31.31
599.283	15.31
599.406	26.31
599.528	18.31
599.65	55.31
599.773	36.31
599.895	40.31
600.017	44.31
600.139	24.31
600.262	9.31
600.384	14.31
600.506	33.31
600.628	39.31
600.751	24.31
600.873	29.31
600.995	26.31
601.118	51.31
601.24	35.31
601.362	29.31
601.484	27.31
601.607	31.31
601.729	14.31
601.851	24.31
601.973	25.31
602.096	22.31
602.218	37.31
602.34	16.31
602.462	24.31
602.585	38.31
602.707	-0.69
602.829	20.31
602.951	17.31
603.074	-12.69
603.196	13.31
603.318	16.31
603.44	41.31
603.563	30.31
603.685	5.31
603.807	25.31
603.929	32.31
604.052	17.31
604.174	34.31
604.296	35.31
604.418	36.31
604.541	31.31
604.663	21.31
604.785	31.31
604.907	32.31
605.03	10.31
605.152	41.31
605.274	19.31
605.396	10.31
605.519	12.31
605.641	6.31
605.763	29.31
605.885	24.31
606.008	34.31
606.13	14.31
606.252	16.31
606.374	-0.69
606.496	-12.69
606.619	9.31
606.741	18.31
606.863	37.31
606.985	31.31
607.108	12.31
607.23	-4.69
607.352	8.31
607.474	23.31
607.596	20.31
607.719	8.31
607.841	5.31
607.963	6.31
608.085	16.31
608.207	45.31
608.33	16.31
608.452	9.31
608.574	18.31
608.696	26.31
608.819	33.31
608.941	14.31
609.063	39.31
609.185	19.31
609.307	28.31
609.43	5.31
609.552	16.31
609.674	7.31
609.796	15.31
609.918	4.31
610.041	11.31
610.163	45.31
610.285	23.31
610.407	9.31
610.529	-2.69
610.652	17.31
610.774	34.31
610.896	40.31
611.018	25.31
611.14	20.31
611.263	16.31
611.385	23.31
611.507	21.31
611.629	-1.69
611.751	20.31
611.873	50.31
611.996	30.31
612.118	29.31
612.24	19.31
612.362	38.31
612.484	34.31
612.607	21.31
612.729	37.31
612.851	32.31
612.973	21.31
613.095	6.31
613.218	15.31
613.34	33.31
613.462	30.31
613.584	13.31
613.706	23.31
613.828	51.31
613.951	17.31
614.073	15.31
614.195	-0.69
614.317	30.31
614.439	32.31
614.561	15.31
614.684	31.31
614.806	17.31
614.928	31.31
615.05	26.31
615.172	19.31
615.294	25.31
615.417	21.31
615.539	20.31
615.661	13.31
615.783	29.31
615.905	27.31
616.027	13.31
616.15	37.31
616.272	16.31
616.394	7.31
616.516	8.31
616.638	26.31
616.76	5.31
616.883	7.31
617.005	26.31
617.127	26.31
617.249	23.31
617.371	19.31
617.493	27.31
617.615	24.31
617.738	9.31
617.86	4.31
617.982	0.31
618.104	23.31
618.226	8.31
618.348	15.31
618.471	20.31
618.593	31.31
618.715	12.31
618.837	12.31
618.959	16.31
619.081	26.31
619.203	25.31
619.326	17.31
619.448	43.31
619.57	35.31
619.692	25.31
619.814	22.31
619.936	24.31
620.058	7.31
620.181	9.31
620.303	6.31
620.425	24.31
620.547	23.31
620.669	19.31
620.791	12.31
620.913	18.31
621.036	-0.69
621.158	27.31
621.28	41.31
621.402	21.31
621.524	31.31
621.646	24.31
621.768	11.31
621.891	0.31
622.013	28.31
622.135	17.31
622.257	4.31
622.379	9.31
622.501	19.31
622.623	12.31
622.745	13.31
622.868	19.31
622.99	13.31
623.112	-6.69
623.234	19.31
623.356	16.31
623.478	22.31
623.6	18.31
623.722	17.31
623.845	8.31
623.967	14.31
624.089	12.31
624.211	11.31
624.333	17.31
624.455	30.31
624.577	13.31
624.699	17.31
624.822	24.31
624.944	10.31
625.066	-2.69
625.188	0.31
625.31	27.31
625.432	33.31
625.554	1.31
625.676	37.31
625.799	31.31
625.921	25.31
626.043	29.31
626.165	25.31
626.287	3.31
626.409	21.31
626.531	15.31
626.653	11.31
626.775	42.31
626.898	35.31
627.02	27.31
627.142	57.31
627.264	26.31
627.386	16.31
627.508	20.31
627.63	-1.69
627.752	17.31
627.874	2.31
627.997	27.31
628.119	22.31
628.241	19.31
628.363	49.31
628.485	39.31
628.607	32.31
628.729	-0.69
628.851	8.31
628.973	-4.69
629.096	14.31
629.218	23.31
629.34	17.31
629.462	-0.69
629.584	14.31
629.706	22.31
629.828	27.31
629.95	14.31
630.072	4.31
630.195	14.31
630.317	4.31
630.439	7.31
630.561	23.31
630.683	-4.69
630.805	11.31
630.927	19.31
631.049	11.31
631.171	1.31
631.293	21.31
631.416	10.31
631.538	21.31
631.66	19.31
631.782	12.31
631.904	40.31
632.026	4.31
632.148	28.31
632.27	17.31
632.392	27.31
632.514	16.31
632.637	1.31
632.759	8.31
632.881	-1.69
633.003	13.31
633.125	8.31
633.247	19.31
633.369	9.31
633.491	13.31
633.613	16.31
633.735	8.31
633.858	33.31
633.98	0.31
634.102	-4.69
634.224	6.31
634.346	11.31
634.468	10.31
634.59	9.31
634.712	15.31
634.834	21.31
634.956	-0.69
635.078	1.31
635.201	12.31
635.323	17.31
635.445	-0.69
635.567	-10.69
635.689	12.31
635.811	8.31
635.933	8.31
636.055	24.31
636.177	11.31
636.299	25.31
636.421	10.31
636.544	4.31
636.666	18.31
636.788	7.31
636.91	19.31
637.032	11.31
637.154	36.31
637.276	47.31
637.398	33.31
637.52	25.31
637.642	0.31
637.764	17.31
637.887	11.31
638.009	15.31
638.131	-2.69
638.253	4.31
638.375	25.31
638.497	19.31
638.619	18.31
638.741	8.31
638.863	-4.69
638.985	7.31
639.107	3.31
639.23	8.31
639.352	28.31
639.474	5.31
639.596	14.31
639.718	9.31
639.84	27.31
639.962	19.31
640.084	22.31
640.206	30.31
640.328	12.31
640.45	6.31
640.573	13.31
640.695	11.31
640.817	19.31
640.939	23.31
641.061	4.31
641.183	11.31
641.305	-3.69
641.427	12.31
641.549	-1.69
641.671	27.31
641.793	12.31
641.915	22.31
642.038	21.31
642.16	19.31
642.282	18.31
642.404	25.31
642.526	26.31
642.648	14.31
642.77	10.31
642.892	26.31
643.014	14.31
643.136	12.31
643.258	-0.69
643.381	28.31
643.503	32.31
643.625	21.31
643.747	-1.69
643.869	10.31
643.991	21.31
644.113	25.31
644.235	1.31
644.357	20.31
644.479	10.31
644.601	-3.69
644.723	-4.69
644.846	17.31
644.968	17.31
645.09	10.31
645.212	-3.69
645.334	14.31
645.456	3.31
645.578	22.31
645.7	2.31
645.822	3.31
645.944	5.31
646.066	17.31
646.188	14.31
646.311	25.31
646.433	17.31
646.555	39.31
646.677	21.31
646.799	13.31
646.921	19.31
647.043	24.31
647.165	3.31
647.287	20.31
647.409	13.31
647.531	32.31
647.654	-1.69
647.776	7.31
647.898	15.31
648.02	1.31
648.142	-15.69
648.264	6.31
648.386	4.31
648.508	26.31
648.63	16.31
648.752	30.31
648.874	24.31
648.997	7.31
649.119	19.31
649.241	17.31
649.363	37.31
649.485	25.31
649.607	12.31
649.729	6.31
649.851	26.31
649.973	0.31
650.095	8.31
650.217	0.31
650.34	7.31
650.462	24.31
650.584	13.31
650.706	17.31
650.828	20.31
650.95	3.31
651.072	14.31
651.194	1.31
651.316	-6.69
651.438	18.31
651.56	19.31
651.683	8.31
651.805	8.31
651.927	4.31
652.049	12.31
652.171	23.31
652.293	7.31
652.415	-2.69
652.537	1.31
652.659	9.31
652.781	15.31
652.903	18.31
653.026	25.31
653.148	26.31
653.27	15.31
653.392	13.31
653.514	10.31
653.636	6.31
653.758	17.31
653.88	20.31
654.002	-1.69
654.124	6.31
654.247	12.31
654.369	19.31
654.491	21.31
654.613	7.31
654.735	5.31
654.857	20.31
654.979	-12.69
655.101	16.31
655.223	27.31
655.345	20.31
655.468	23.31
655.59	14.31
655.712	7.31
655.834	0.31
655.956	23.31
656.078	21.31
656.2	15.31
656.322	13.31
656.444	-14.69
656.566	4.31
656.689	-2.69
656.811	9.31
656.933	18.31
657.055	2.31
657.177	11.31
657.299	12.31
657.421	37.31
657.543	22.31
657.665	-1.69
657.787	-1.69
657.91	0.31
658.032	4.31
658.154	3.31
658.276	12.31
658.398	-1.69
658.52	3.31
658.642	1.31
658.764	18.31
658.886	-15.69
659.009	2.31
659.131	30.31
659.253	23.31
659.375	21.31
659.497	17.31
659.619	25.31
659.741	13.31
659.863	3.31
659.985	0.31
660.108	27.31
660.23	-6.69
660.352	25.31
660.474	19.31
660.596	12.31
660.718	18.31
660.84	17.31
660.962	9.31
661.084	3.31
661.207	16.31
661.329	5.31
661.451	3.31
661.573	0.31
661.695	27.31
661.817	9.31
661.939	30.31
662.061	19.31
662.184	19.31
662.306	12.31
662.428	17.31
662.55	20.31
662.672	11.31
662.794	12.31
662.916	2.31
663.038	9.31
663.161	34.31
663.283	13.31
663.405	26.31
663.527	1.31
663.649	10.31
663.771	1.31
663.893	5.31
664.015	4.31
664.138	7.31
664.26	23.31
664.382	7.31
664.504	-1.69
664.626	-22.69
664.748	-1.69
664.87	-3.69
664.992	22.31
665.115	15.31
665.237	6.31
665.359	5.31
665.481	6.31
665.603	5.31
665.725	15.31
665.847	1.31
665.97	8.31
666.092	17.31
666.214	16.31
666.336	25.31
666.458	27.31
666.58	15.31
666.702	8.31
666.825	12.31
666.947	-1.69
667.069	23.31
667.191	-3.69
667.313	19.31
667.435	-0.69
667.557	-4.69
667.68	-2.69
667.802	10.31
667.924	-0.69
668.046	27.31
668.168	11.31
668.29	15.31
668.412	22.31
668.535	22.31
668.657	3.31
668.779	10.31
668.901	-4.69
669.023	20.31
669.145	14.31
669.267	32.31
669.39	5.31
669.512	21.31
669.634	14.31
669.756	3.31
669.878	0.31
670	4.31
670.123	3.31
670.245	17.31
670.367	25.31
670.489	23.31
670.611	1.31
670.733	1.31
670.856	8.31
670.978	15.31
671.1	4.31
671.222	16.31
671.344	3.31
671.466	12.31
671.589	-4.69
671.711	11.31
671.833	0.31
671.955	10.31
672.077	-10.69
672.199	15.31
672.322	28.31
672.444	19.31
672.566	16.31
672.688	21.31
672.81	17.31
672.932	22.31
673.055	7.31
673.177	16.31
673.299	14.31
673.421	-6.69
673.543	-3.69
673.665	35.31
673.788	27.31
673.91	8.31
674.032	-5.69
674.154	7.31
674.276	15.31
674.399	-6.69
674.521	11.31
674.643	12.31
674.765	17.31
674.887	1.31
675.009	8.31
675.132	2.31
675.254	-0.69
675.376	10.31
675.498	11.31
675.62	6.31
675.743	11.31
675.865	18.31
675.987	4.31
676.109	-1.69
676.231	13.31
676.354	13.31
676.476	9.31
676.598	17.31
676.72	27.31
676.842	14.31
676.965	16.31
677.087	7.31
677.209	7.31
677.331	18.31
677.453	11.31
677.576	9.31
677.698	15.31
677.82	19.31
677.942	5.31
678.064	12.31
678.187	7.31
678.309	13.31
678.431	0.31
678.553	5.31
678.675	31.31
678.798	24.31
678.92	14.31
679.042	2.31
679.164	-9.69
679.286	21.31
679.409	-3.69
679.531	-3.69
679.653	-3.69
679.775	11.31
679.898	18.31
680.02	5.31
680.142	3.31
680.264	15.31
680.386	2.31
680.509	1.31
680.631	20.31
680.753	9.31
680.875	-12.69
680.998	11.31
681.12	15.31
681.242	14.31
681.364	16.31
681.486	3.31
681.609	-9.69
681.731	1.31
681.853	-10.69
681.975	11.31
682.098	9.31
682.22	33.31
682.342	10.31
682.464	26.31
682.587	12.31
682.709	12.31
682.831	-4.69
682.953	8.31
683.076	-0.69
683.198	19.31
683.32	16.31
683.442	9.31
683.565	28.31
683.687	13.31
683.809	31.31
683.931	1.31
684.054	27.31
684.176	30.31
684.298	25.31
684.42	-0.69
684.543	4.31
684.665	18.31
684.787	10.31
684.909	11.31
685.032	24.31
685.154	1.31
685.276	12.31
685.398	13.31
685.521	-5.69
685.643	12.31
685.765	12.31
685.887	10.31
686.01	14.31
686.132	3.31
686.254	20.31
686.377	8.31
686.499	12.31
686.621	27.31
686.743	24.31
686.866	-0.69
686.988	25.31
687.11	22.31
687.232	1.31
687.355	-6.69
687.477	-3.69
687.599	8.31
687.722	19.31
687.844	18.31
687.966	-4.69
688.088	11.31
688.211	27.31
688.333	23.31
688.455	1.31
688.578	19.31
688.7	26.31
688.822	8.31
688.944	-7.69
689.067	36.31
689.189	1.31
689.311	-2.69
689.434	5.31
689.556	25.31
689.678	22.31
689.801	-2.69
689.923	10.31
690.045	33.31
690.167	27.31
690.29	25.31
690.412	16.31
690.534	11.31
690.657	10.31
690.779	12.31
690.901	16.31
691.024	4.31
691.146	6.31
691.268	8.31
691.391	26.31
691.513	11.31
691.635	13.31
691.758	19.31
691.88	12.31
692.002	4.31
692.125	6.31
692.247	15.31
692.369	3.31
692.492	-13.69
692.614	15.31
692.736	15.31
692.859	7.31
692.981	4.31
693.103	11.31
693.226	0.31
693.348	30.31
693.47	10.31
693.593	31.31
693.715	36.31
693.837	36.31
693.96	14.31
694.082	11.31
694.204	3.31
694.327	17.31
694.449	-4.69
694.571	7.31
694.694	15.31
694.816	10.31
694.938	-0.69
695.061	12.31
695.183	15.31
695.305	8.31
695.428	9.31
695.55	-5.69
695.672	3.31
695.795	16.31
695.917	35.31
696.04	10.31
696.162	5.31
696.284	8.31
696.407	4.31
696.529	2.31
696.651	15.31
696.774	3.31
696.896	13.31
697.019	16.31
697.141	19.31
697.263	11.31
697.386	1.31
697.508	11.31
697.63	6.31
697.753	30.31
697.875	12.31
697.998	-12.69
698.12	9.31
698.242	12.31
698.365	32.31
698.487	13.31
698.61	15.31
698.732	17.31
698.854	19.31
698.977	12.31
699.099	28.31
699.221	6.31
699.344	-3.69
699.466	30.31
699.589	23.31
699.711	8.31
699.834	13.31
699.956	13.31
700.078	17.31
700.201	11.31
700.323	30.31
700.446	-5.69
700.568	13.31
700.69	9.31
700.813	14.31
700.935	7.31
701.058	4.31
701.18	12.31
701.302	5.31
701.425	5.31
701.547	27.31
701.67	15.31
701.792	19.31
701.915	8.31
702.037	-4.69
702.159	11.31
702.282	11.31
702.404	13.31
702.527	17.31
702.649	17.31
702.772	3.31
702.894	15.31
703.017	11.31
703.139	16.31
703.261	20.31
703.384	7.31
703.506	-3.69
703.629	-0.69
703.751	20.31
703.874	8.31
703.996	1.31
704.119	-4.69
704.241	22.31
704.364	4.31
704.486	17.31
704.608	16.31
704.731	12.31
704.853	18.31
704.976	5.31
705.098	4.31
705.221	-8.69
705.343	23.31
705.466	11.31
705.588	21.31
705.711	12.31
705.833	14.31
705.956	-9.69
706.078	15.31
706.201	13.31
706.323	9.31
706.446	-4.69
