Data from HighRes_mercury_15_13_11_07_2024_HR4C61891__30__15-14-26-186.txt Node

Date: Thu Nov 07 15:14:26 EST 2024
User: crc00042
Spectrometer: HR4C6189
Trigger mode: 4
Integration Time (sec): 1.000000E-1
Scans to average: 1
Electric dark correction enabled: true
Nonlinearity correction enabled: false
Boxcar width: 0
XAxis mode: Wavelengths
Number of Pixels in Spectrum: 3648
>>>>>Begin Spectral Data<<<<<
639.567	-54.23
639.602	-54.23
639.636	-54.23
639.67	-39.23
639.704	-25.23
639.738	2.77
639.773	10.77
639.807	-26.23
639.841	2.77
639.875	7.77
639.909	9.77
639.943	-11.23
639.978	-9.23
640.012	3.77
640.046	15.77
640.08	-11.23
640.114	14.77
640.148	-10.23
640.182	-6.23
640.217	-12.23
640.251	22.77
640.285	3.77
640.319	-23.23
640.353	-2.23
640.387	-4.23
640.421	5.77
640.455	-19.23
640.49	-23.23
640.524	-9.23
640.558	0.77
640.592	-3.23
640.626	3.77
640.66	7.77
640.694	3.77
640.728	13.77
640.762	-0.23
640.796	6.77
640.83	21.77
640.865	0.77
640.899	5.77
640.933	-2.23
640.967	4.77
641.001	4.77
641.035	11.77
641.069	-2.23
641.103	-18.23
641.137	-9.23
641.171	-6.23
641.205	2.77
641.239	-0.23
641.273	21.77
641.307	16.77
641.341	-1.23
641.375	-2.23
641.409	-8.23
641.443	4.77
641.477	7.77
641.511	4.77
641.545	12.77
641.579	0.77
641.614	16.77
641.648	1.77
641.682	3.77
641.716	10.77
641.75	11.77
641.784	-1.23
641.818	-5.23
641.852	3.77
641.886	-17.23
641.919	25.77
641.953	-7.23
641.987	-8.23
642.021	-10.23
642.055	12.77
642.089	-7.23
642.123	-11.23
642.157	-4.23
642.191	-5.23
642.225	13.77
642.259	-3.23
642.293	12.77
642.327	15.77
642.361	-5.23
642.395	3.77
642.429	19.77
642.463	-1.23
642.497	8.77
642.531	11.77
642.565	-11.23
642.599	3.77
642.633	-18.23
642.666	14.77
642.7	28.77
642.734	13.77
642.768	-1.23
642.802	-5.23
642.836	-1.23
642.87	-12.23
642.904	22.77
642.938	19.77
642.972	4.77
643.005	6.77
643.039	26.77
643.073	3.77
643.107	4.77
643.141	7.77
643.175	7.77
643.209	-3.23
643.243	1.77
643.276	-1.23
643.31	-1.23
643.344	0.77
643.378	4.77
643.412	9.77
643.446	1.77
643.48	-5.23
643.513	6.77
643.547	2.77
643.581	9.77
643.615	10.77
643.649	7.77
643.683	6.77
643.716	-6.23
643.75	6.77
643.784	-21.23
643.818	-5.23
643.852	-7.23
643.886	15.77
643.919	6.77
643.953	5.77
643.987	5.77
644.021	-2.23
644.055	3.77
644.088	-13.23
644.122	-1.23
644.156	-5.23
644.19	-1.23
644.224	-5.23
644.257	10.77
644.291	16.77
644.325	7.77
644.359	-6.23
644.392	14.77
644.426	5.77
644.46	-0.23
644.494	-1.23
644.527	11.77
644.561	-2.23
644.595	7.77
644.629	-7.23
644.662	-17.23
644.696	21.77
644.73	8.77
644.764	1.77
644.797	3.77
644.831	0.77
644.865	3.77
644.899	-6.23
644.932	22.77
644.966	-4.23
645	1.77
645.033	10.77
645.067	-11.23
645.101	-0.23
645.135	0.77
645.168	-10.23
645.202	-17.23
645.236	-9.23
645.269	12.77
645.303	-9.23
645.337	-10.23
645.37	-26.23
645.404	-15.23
645.438	1.77
645.471	-1.23
645.505	7.77
645.539	-6.23
645.572	-5.23
645.606	-13.23
645.64	1.77
645.673	-1.23
645.707	-7.23
645.741	-4.23
645.774	0.77
645.808	1.77
645.842	-9.23
645.875	5.77
645.909	-2.23
645.943	12.77
645.976	13.77
646.01	0.77
646.043	11.77
646.077	6.77
646.111	-2.23
646.144	1.77
646.178	2.77
646.212	-17.23
646.245	6.77
646.279	0.77
646.312	-15.23
646.346	6.77
646.38	-13.23
646.413	-8.23
646.447	4.77
646.48	-15.23
646.514	4.77
646.547	-23.23
646.581	-8.23
646.615	8.77
646.648	-12.23
646.682	6.77
646.715	-1.23
646.749	7.77
646.782	-1.23
646.816	-9.23
646.85	0.77
646.883	-3.23
646.917	13.77
646.95	8.77
646.984	-3.23
647.017	-2.23
647.051	12.77
647.084	9.77
647.118	7.77
647.151	16.77
647.185	9.77
647.218	-8.23
647.252	-0.23
647.285	-12.23
647.319	-13.23
647.353	-7.23
647.386	14.77
647.42	-0.23
647.453	-1.23
647.487	-1.23
647.52	-4.23
647.553	0.77
647.587	2.77
647.62	1.77
647.654	4.77
647.687	0.77
647.721	0.77
647.754	-25.23
647.788	-0.23
647.821	-9.23
647.855	8.77
647.888	8.77
647.922	11.77
647.955	14.77
647.989	4.77
648.022	3.77
648.055	3.77
648.089	-7.23
648.122	30.77
648.156	0.77
648.189	5.77
648.223	26.77
648.256	20.77
648.29	7.77
648.323	-1.23
648.356	2.77
648.39	-9.23
648.423	3.77
648.457	7.77
648.49	1.77
648.523	-8.23
648.557	-19.23
648.59	-5.23
648.624	-10.23
648.657	-3.23
648.69	-15.23
648.724	-4.23
648.757	4.77
648.791	19.77
648.824	5.77
648.857	33.77
648.891	-1.23
648.924	5.77
648.957	20.77
648.991	-18.23
649.024	3.77
649.057	-7.23
649.091	-3.23
649.124	8.77
649.158	10.77
649.191	32.77
649.224	-0.23
649.258	16.77
649.291	19.77
649.324	2.77
649.358	12.77
649.391	14.77
649.424	14.77
649.458	-11.23
649.491	-8.23
649.524	-3.23
649.557	-0.23
649.591	-20.23
649.624	3.77
649.657	-16.23
649.691	3.77
649.724	-2.23
649.757	-1.23
649.791	-7.23
649.824	17.77
649.857	0.77
649.89	-2.23
649.924	-5.23
649.957	-2.23
649.99	-11.23
650.023	-7.23
650.057	-6.23
650.09	-0.23
650.123	-0.23
650.157	-0.23
650.19	10.77
650.223	-4.23
650.256	-20.23
650.29	-19.23
650.323	-0.23
650.356	7.77
650.389	-7.23
650.423	-2.23
650.456	-1.23
650.489	2.77
650.522	-4.23
650.555	15.77
650.589	6.77
650.622	-0.23
650.655	0.77
650.688	13.77
650.721	-3.23
650.755	-3.23
650.788	1.77
650.821	7.77
650.854	-6.23
650.887	0.77
650.921	-17.23
650.954	-28.23
650.987	2.77
651.02	-16.23
651.053	-20.23
651.087	-9.23
651.12	22.77
651.153	1.77
651.186	-1.23
651.219	-10.23
651.252	17.77
651.286	12.77
651.319	-0.23
651.352	6.77
651.385	2.77
651.418	2.77
651.451	-7.23
651.484	-1.23
651.518	-1.23
651.551	21.77
651.584	-11.23
651.617	25.77
651.65	-4.23
651.683	9.77
651.716	-2.23
651.749	-9.23
651.783	-11.23
651.816	-8.23
651.849	12.77
651.882	-2.23
651.915	-9.23
651.948	6.77
651.981	-13.23
652.014	-11.23
652.047	-9.23
652.08	-18.23
652.114	-10.23
652.147	-14.23
652.18	2.77
652.213	15.77
652.246	0.77
652.279	-2.23
652.312	6.77
652.345	-18.23
652.378	2.77
652.411	10.77
652.444	0.77
652.477	-9.23
652.51	11.77
652.543	-9.23
652.576	-1.23
652.609	3.77
652.642	-2.23
652.675	7.77
652.709	8.77
652.742	8.77
652.775	4.77
652.808	23.77
652.841	12.77
652.874	-11.23
652.907	-12.23
652.94	-8.23
652.973	-26.23
653.006	-1.23
653.039	-8.23
653.072	-3.23
653.105	3.77
653.138	-15.23
653.171	5.77
653.204	-0.23
653.237	7.77
653.27	0.77
653.303	7.77
653.336	16.77
653.368	-0.23
653.401	-9.23
653.434	-0.23
653.467	5.77
653.5	-15.23
653.533	-22.23
653.566	-9.23
653.599	-9.23
653.632	-2.23
653.665	1.77
653.698	-0.23
653.731	-16.23
653.764	-5.23
653.797	-0.23
653.83	-19.23
653.863	-0.23
653.896	-1.23
653.929	-3.23
653.961	-13.23
653.994	-4.23
654.027	-15.23
654.06	0.77
654.093	2.77
654.126	-2.23
654.159	-27.23
654.192	-1.23
654.225	-0.23
654.258	-4.23
654.29	-14.23
654.323	-2.23
654.356	-7.23
654.389	3.77
654.422	-11.23
654.455	-8.23
654.488	-5.23
654.521	-15.23
654.553	-18.23
654.586	-1.23
654.619	-7.23
654.652	1.77
654.685	17.77
654.718	12.77
654.751	-0.23
654.783	-15.23
654.816	14.77
654.849	-5.23
654.882	-8.23
654.915	-24.23
654.948	-6.23
654.98	-3.23
655.013	3.77
655.046	-8.23
655.079	-8.23
655.112	15.77
655.144	-6.23
655.177	3.77
655.21	24.77
655.243	13.77
655.276	15.77
655.308	1.77
655.341	-1.23
655.374	3.77
655.407	-1.23
655.44	-5.23
655.472	15.77
655.505	3.77
655.538	-3.23
655.571	6.77
655.603	1.77
655.636	-19.23
655.669	4.77
655.702	3.77
655.734	-12.23
655.767	2.77
655.8	2.77
655.833	-15.23
655.865	14.77
655.898	-12.23
655.931	-15.23
655.964	2.77
655.996	-8.23
656.029	6.77
656.062	-15.23
656.095	10.77
656.127	-7.23
656.16	-2.23
656.193	-3.23
656.225	4.77
656.258	-0.23
656.291	-3.23
656.324	3.77
656.356	14.77
656.389	2.77
656.422	13.77
656.454	-6.23
656.487	-4.23
656.52	1.77
656.552	1.77
656.585	12.77
656.618	-4.23
656.65	-2.23
656.683	-13.23
656.716	-1.23
656.748	-14.23
656.781	2.77
656.814	-18.23
656.846	7.77
656.879	-1.23
656.912	-15.23
656.944	-8.23
656.977	-25.23
657.01	-3.23
657.042	14.77
657.075	11.77
657.108	-7.23
657.14	0.77
657.173	9.77
657.205	22.77
657.238	2.77
657.271	-6.23
657.303	-4.23
657.336	3.77
657.369	-7.23
657.401	1.77
657.434	2.77
657.466	3.77
657.499	-1.23
657.532	-12.23
657.564	-5.23
657.597	-11.23
657.629	0.77
657.662	10.77
657.694	-25.23
657.727	-10.23
657.76	7.77
657.792	1.77
657.825	1.77
657.857	-3.23
657.89	-8.23
657.922	12.77
657.955	-2.23
657.987	-3.23
658.02	0.77
658.053	9.77
658.085	1.77
658.118	-6.23
658.15	-2.23
658.183	9.77
658.215	11.77
658.248	-13.23
658.28	-17.23
658.313	19.77
658.345	8.77
658.378	11.77
658.41	3.77
658.443	-3.23
658.475	-7.23
658.508	-9.23
658.54	2.77
658.573	-0.23
658.605	-7.23
658.638	-0.23
658.67	4.77
658.703	-1.23
658.735	-24.23
658.768	5.77
658.8	-29.23
658.833	6.77
658.865	9.77
658.898	-14.23
658.93	-2.23
658.963	-4.23
658.995	-7.23
659.028	0.77
659.06	1.77
659.092	-15.23
659.125	3.77
659.157	-3.23
659.19	-13.23
659.222	-5.23
659.255	-1.23
659.287	4.77
659.32	-17.23
659.352	-0.23
659.384	11.77
659.417	-1.23
659.449	-9.23
659.482	22.77
659.514	1.77
659.546	-1.23
659.579	-11.23
659.611	6.77
659.644	-1.23
659.676	-4.23
659.708	-15.23
659.741	-10.23
659.773	-1.23
659.806	-2.23
659.838	-2.23
659.87	3.77
659.903	1.77
659.935	11.77
659.967	16.77
660	10.77
660.032	-16.23
660.065	6.77
660.097	-3.23
660.129	-1.23
660.162	-18.23
660.194	3.77
660.226	11.77
660.259	4.77
660.291	12.77
660.323	-3.23
660.356	-5.23
660.388	6.77
660.42	3.77
660.453	1.77
660.485	5.77
660.517	21.77
660.55	19.77
660.582	-0.23
660.614	7.77
660.647	6.77
660.679	-15.23
660.711	4.77
660.743	-0.23
660.776	-7.23
660.808	-13.23
660.84	-1.23
660.873	6.77
660.905	-8.23
660.937	8.77
660.969	6.77
661.002	-5.23
661.034	18.77
661.066	3.77
661.099	14.77
661.131	1.77
661.163	8.77
661.195	5.77
661.228	-1.23
661.26	-3.23
661.292	-7.23
661.324	15.77
661.357	-2.23
661.389	-2.23
661.421	9.77
661.453	1.77
661.485	-11.23
661.518	7.77
661.55	-15.23
661.582	-27.23
661.614	-0.23
661.647	12.77
661.679	-18.23
661.711	-4.23
661.743	9.77
661.775	2.77
661.808	17.77
661.84	-12.23
661.872	6.77
661.904	-4.23
661.936	-9.23
661.969	-12.23
662.001	-16.23
662.033	-6.23
662.065	6.77
662.097	11.77
662.129	7.77
662.162	6.77
662.194	13.77
662.226	-0.23
662.258	15.77
662.29	8.77
662.322	-6.23
662.355	-14.23
662.387	10.77
662.419	-6.23
662.451	17.77
662.483	1.77
662.515	0.77
662.547	0.77
662.58	-6.23
662.612	-9.23
662.644	-5.23
662.676	0.77
662.708	18.77
662.74	9.77
662.772	6.77
662.804	6.77
662.836	5.77
662.869	-5.23
662.901	2.77
662.933	1.77
662.965	11.77
662.997	20.77
663.029	-25.23
663.061	-19.23
663.093	-4.23
663.125	-1.23
663.157	10.77
663.189	6.77
663.221	8.77
663.254	1.77
663.286	17.77
663.318	-12.23
663.35	-24.23
663.382	-8.23
663.414	11.77
663.446	-5.23
663.478	-16.23
663.51	20.77
663.542	-3.23
663.574	10.77
663.606	-12.23
663.638	2.77
663.67	-5.23
663.702	2.77
663.734	5.77
663.766	2.77
663.798	-13.23
663.83	0.77
663.862	7.77
663.894	14.77
663.926	0.77
663.958	-1.23
663.99	2.77
664.022	-21.23
664.054	-5.23
664.086	-17.23
664.118	-1.23
664.15	-14.23
664.182	-4.23
664.214	3.77
664.246	16.77
664.278	7.77
664.31	13.77
664.342	-4.23
664.374	5.77
664.406	0.77
664.438	1.77
664.47	16.77
664.502	0.77
664.534	-12.23
664.566	-19.23
664.598	1.77
664.63	-21.23
664.662	-0.23
664.693	8.77
664.725	-14.23
664.757	4.77
664.789	-16.23
664.821	5.77
664.853	18.77
664.885	8.77
664.917	5.77
664.949	-1.23
664.981	21.77
665.013	5.77
665.045	-9.23
665.076	-5.23
665.108	-0.23
665.14	-16.23
665.172	1.77
665.204	-15.23
665.236	-9.23
665.268	8.77
665.3	4.77
665.331	-5.23
665.363	-0.23
665.395	-12.23
665.427	-1.23
665.459	0.77
665.491	0.77
665.523	-11.23
665.555	7.77
665.586	15.77
665.618	-18.23
665.65	-30.23
665.682	2.77
665.714	-4.23
665.746	-5.23
665.777	-11.23
665.809	-11.23
665.841	10.77
665.873	-15.23
665.905	1.77
665.937	14.77
665.968	-6.23
666	-10.23
666.032	1.77
666.064	-8.23
666.096	-11.23
666.127	-7.23
666.159	13.77
666.191	3.77
666.223	-0.23
666.255	8.77
666.286	2.77
666.318	-8.23
666.35	9.77
666.382	5.77
666.413	3.77
666.445	-16.23
666.477	-12.23
666.509	-5.23
666.54	0.77
666.572	-6.23
666.604	1.77
666.636	-8.23
666.667	7.77
666.699	24.77
666.731	-2.23
666.763	-12.23
666.794	-1.23
666.826	6.77
666.858	-12.23
666.89	7.77
666.921	3.77
666.953	-0.23
666.985	13.77
667.017	4.77
667.048	-5.23
667.08	-3.23
667.112	-7.23
667.143	-4.23
667.175	-5.23
667.207	-0.23
667.238	-1.23
667.27	-0.23
667.302	6.77
667.334	2.77
667.365	13.77
667.397	-0.23
667.429	-6.23
667.46	28.77
667.492	-4.23
667.524	-8.23
667.555	-27.23
667.587	-3.23
667.619	5.77
667.65	-6.23
667.682	-7.23
667.714	-2.23
667.745	1.77
667.777	-1.23
667.808	8.77
667.84	8.77
667.872	-11.23
667.903	29.77
667.935	-2.23
667.967	-4.23
667.998	-18.23
668.03	-15.23
668.061	10.77
668.093	-16.23
668.125	4.77
668.156	13.77
668.188	7.77
668.22	-1.23
668.251	-19.23
668.283	-3.23
668.314	13.77
668.346	1.77
668.377	12.77
668.409	18.77
668.441	38.77
668.472	12.77
668.504	11.77
668.535	7.77
668.567	7.77
668.599	-9.23
668.63	3.77
668.662	-9.23
668.693	19.77
668.725	7.77
668.756	16.77
668.788	6.77
668.819	-0.23
668.851	-8.23
668.882	-8.23
668.914	-2.23
668.946	9.77
668.977	-9.23
669.009	-14.23
669.04	-23.23
669.072	2.77
669.103	14.77
669.135	6.77
669.166	7.77
669.198	8.77
669.229	2.77
669.261	12.77
669.292	5.77
669.324	10.77
669.355	-0.23
669.387	0.77
669.418	2.77
669.45	-5.23
669.481	-2.23
669.513	1.77
669.544	-7.23
669.576	-6.23
669.607	21.77
669.639	16.77
669.67	-10.23
669.701	-2.23
669.733	-11.23
669.764	6.77
669.796	3.77
669.827	-8.23
669.859	-14.23
669.89	7.77
669.922	-5.23
669.953	8.77
669.985	3.77
670.016	-1.23
670.047	-1.23
670.079	-8.23
670.11	-4.23
670.142	16.77
670.173	10.77
670.204	0.77
670.236	-4.23
670.267	-10.23
670.299	-5.23
670.33	-5.23
670.362	-9.23
670.393	-9.23
670.424	-1.23
670.456	-9.23
670.487	-14.23
670.518	2.77
670.55	1.77
670.581	-8.23
670.613	-2.23
670.644	6.77
670.675	-10.23
670.707	-14.23
670.738	-1.23
670.769	-4.23
670.801	-24.23
670.832	-1.23
670.864	-5.23
670.895	-6.23
670.926	-2.23
670.958	-11.23
670.989	-14.23
671.02	-8.23
671.052	-1.23
671.083	-9.23
671.114	0.77
671.146	8.77
671.177	0.77
671.208	-5.23
671.24	-14.23
671.271	-2.23
671.302	6.77
671.333	-20.23
671.365	-6.23
671.396	5.77
671.427	15.77
671.459	12.77
671.49	13.77
671.521	-0.23
671.553	-4.23
671.584	1.77
671.615	-9.23
671.646	0.77
671.678	-9.23
671.709	-12.23
671.74	-20.23
671.771	-1.23
671.803	-17.23
671.834	8.77
671.865	6.77
671.896	5.77
671.928	-5.23
671.959	3.77
671.99	7.77
672.021	-17.23
672.053	-10.23
672.084	6.77
672.115	-2.23
672.146	-9.23
672.178	-11.23
672.209	-13.23
672.24	-19.23
672.271	23.77
672.303	0.77
672.334	3.77
672.365	-5.23
672.396	2.77
672.427	9.77
672.459	3.77
672.49	4.77
672.521	4.77
672.552	8.77
672.583	5.77
672.615	-2.23
672.646	8.77
672.677	-0.23
672.708	-15.23
672.739	-11.23
672.77	6.77
672.802	-2.23
672.833	9.77
672.864	1.77
672.895	-8.23
672.926	-1.23
672.957	-10.23
672.989	-17.23
673.02	-4.23
673.051	-7.23
673.082	-6.23
673.113	10.77
673.144	16.77
673.175	-6.23
673.206	0.77
673.238	5.77
673.269	1.77
673.3	-3.23
673.331	12.77
673.362	8.77
673.393	4.77
673.424	13.77
673.455	26.77
673.487	-7.23
673.518	32.77
673.549	4.77
673.58	-4.23
673.611	6.77
673.642	-2.23
673.673	-3.23
673.704	18.77
673.735	-6.23
673.766	-3.23
673.797	-15.23
673.828	-0.23
673.86	-8.23
673.891	-14.23
673.922	-9.23
673.953	0.77
673.984	-5.23
674.015	-1.23
674.046	-6.23
674.077	-8.23
674.108	1.77
674.139	11.77
674.17	2.77
674.201	-9.23
674.232	2.77
674.263	-0.23
674.294	-13.23
674.325	-5.23
674.356	-1.23
674.387	3.77
674.418	3.77
674.449	-2.23
674.48	-8.23
674.511	7.77
674.542	3.77
674.573	-5.23
674.604	11.77
674.635	-12.23
674.666	3.77
674.697	-12.23
674.728	-11.23
674.759	-2.23
674.79	-11.23
674.821	-15.23
674.852	0.77
674.883	-9.23
674.914	-8.23
674.945	-7.23
674.976	7.77
675.007	-16.23
675.038	-5.23
675.069	-23.23
675.1	-7.23
675.131	-0.23
675.162	-6.23
675.193	-27.23
675.224	-5.23
675.254	5.77
675.285	-4.23
675.316	11.77
675.347	8.77
675.378	-8.23
675.409	-8.23
675.44	-0.23
675.471	20.77
675.502	-2.23
675.533	-5.23
675.564	-3.23
675.595	-9.23
675.625	-0.23
675.656	1.77
675.687	3.77
675.718	-4.23
675.749	6.77
675.78	-0.23
675.811	-20.23
675.842	-4.23
675.873	-9.23
675.903	6.77
675.934	9.77
675.965	-6.23
675.996	-14.23
676.027	5.77
676.058	2.77
676.089	-13.23
676.119	-0.23
676.15	6.77
676.181	-1.23
676.212	7.77
676.243	19.77
676.274	-13.23
676.304	12.77
676.335	-7.23
676.366	-1.23
676.397	-13.23
676.428	-1.23
676.459	1.77
676.489	2.77
676.52	11.77
676.551	14.77
676.582	-9.23
676.613	8.77
676.643	-19.23
676.674	7.77
676.705	-18.23
676.736	-0.23
676.767	16.77
676.797	12.77
676.828	9.77
676.859	1.77
676.89	-11.23
676.92	7.77
676.951	-9.23
676.982	8.77
677.013	5.77
677.044	27.77
677.074	22.77
677.105	-1.23
677.136	-4.23
677.167	2.77
677.197	12.77
677.228	-5.23
677.259	-6.23
677.289	-0.23
677.32	-8.23
677.351	-8.23
677.382	-3.23
677.412	-14.23
677.443	-4.23
677.474	10.77
677.505	-6.23
677.535	2.77
677.566	-0.23
677.597	-11.23
677.627	-6.23
677.658	-7.23
677.689	-4.23
677.72	4.77
677.75	1.77
677.781	-9.23
677.812	-1.23
677.842	4.77
677.873	8.77
677.904	-15.23
677.934	0.77
677.965	-11.23
677.996	1.77
678.026	10.77
678.057	9.77
678.088	-15.23
678.118	-8.23
678.149	-15.23
678.18	-8.23
678.21	0.77
678.241	-6.23
678.272	-24.23
678.302	4.77
678.333	3.77
678.363	3.77
678.394	6.77
678.425	1.77
678.455	7.77
678.486	-1.23
678.517	-9.23
678.547	-17.23
678.578	-12.23
678.608	-7.23
678.639	12.77
678.67	-5.23
678.7	-13.23
678.731	-6.23
678.761	-0.23
678.792	8.77
678.823	5.77
678.853	3.77
678.884	-17.23
678.914	3.77
678.945	7.77
678.975	-11.23
679.006	-7.23
679.037	-16.23
679.067	23.77
679.098	-0.23
679.128	-14.23
679.159	5.77
679.189	22.77
679.22	-2.23
679.25	11.77
679.281	3.77
679.312	-14.23
679.342	-1.23
679.373	15.77
679.403	5.77
679.434	25.77
679.464	-4.23
679.495	-6.23
679.525	-0.23
679.556	-6.23
679.586	6.77
679.617	14.77
679.647	10.77
679.678	5.77
679.708	0.77
679.739	3.77
679.769	-14.23
679.8	-1.23
679.83	-12.23
679.861	-6.23
679.891	-6.23
679.922	-9.23
679.952	-4.23
679.983	6.77
680.013	-2.23
680.044	-1.23
680.074	0.77
680.105	4.77
680.135	-2.23
680.165	0.77
680.196	-11.23
680.226	10.77
680.257	2.77
680.287	0.77
680.318	-8.23
680.348	-17.23
680.379	7.77
680.409	0.77
680.439	-9.23
680.47	-1.23
680.5	-0.23
680.531	-15.23
680.561	8.77
680.592	18.77
680.622	5.77
680.652	15.77
680.683	12.77
680.713	-0.23
680.744	-0.23
680.774	1.77
680.804	14.77
680.835	1.77
680.865	-2.23
680.896	4.77
680.926	10.77
680.956	-1.23
680.987	-6.23
681.017	-14.23
681.047	3.77
681.078	-8.23
681.108	-11.23
681.139	4.77
681.169	-3.23
681.199	-2.23
681.23	-13.23
681.26	-14.23
681.29	-11.23
681.321	-2.23
681.351	4.77
681.381	-6.23
681.412	-11.23
681.442	4.77
681.472	14.77
681.503	12.77
681.533	-11.23
681.563	6.77
681.594	3.77
681.624	17.77
681.654	4.77
681.685	-2.23
681.715	6.77
681.745	-11.23
681.775	0.77
681.806	5.77
681.836	7.77
681.866	6.77
681.897	4.77
681.927	-10.23
681.957	-26.23
681.987	-14.23
682.018	2.77
682.048	9.77
682.078	-15.23
682.109	1.77
682.139	9.77
682.169	2.77
682.199	-9.23
682.23	-3.23
682.26	9.77
682.29	-1.23
682.32	-2.23
682.351	1.77
682.381	2.77
682.411	-2.23
682.441	-9.23
682.472	-4.23
682.502	3.77
682.532	-13.23
682.562	-5.23
682.592	4.77
682.623	5.77
682.653	2.77
682.683	5.77
682.713	3.77
682.743	-4.23
682.774	1.77
682.804	11.77
682.834	13.77
682.864	0.77
682.894	0.77
682.925	2.77
682.955	-0.23
682.985	-10.23
683.015	2.77
683.045	-4.23
683.076	-7.23
683.106	-3.23
683.136	-11.23
683.166	-18.23
683.196	-16.23
683.226	-6.23
683.257	-9.23
683.287	-11.23
683.317	-11.23
683.347	-13.23
683.377	-9.23
683.407	-7.23
683.437	-7.23
683.468	-3.23
683.498	-1.23
683.528	-4.23
683.558	0.77
683.588	-6.23
683.618	-6.23
683.648	-4.23
683.678	-1.23
683.708	18.77
683.739	-1.23
683.769	-5.23
683.799	-16.23
683.829	-6.23
683.859	8.77
683.889	4.77
683.919	-1.23
683.949	-3.23
683.979	-15.23
684.009	-20.23
684.039	10.77
684.07	8.77
684.1	5.77
684.13	-9.23
684.16	3.77
684.19	4.77
684.22	1.77
684.25	-7.23
684.28	-9.23
684.31	14.77
684.34	-1.23
684.37	14.77
684.4	-13.23
684.43	7.77
684.46	3.77
684.49	6.77
684.52	4.77
684.55	8.77
684.58	-11.23
684.61	-5.23
684.64	12.77
684.67	-3.23
684.7	-6.23
684.73	5.77
684.76	-15.23
684.79	7.77
684.82	3.77
684.85	-0.23
684.88	-0.23
684.91	-1.23
684.94	0.77
684.97	-7.23
685	-21.23
685.03	-4.23
685.06	-14.23
685.09	-23.23
685.12	3.77
685.15	-6.23
685.18	-15.23
685.21	19.77
685.24	19.77
685.27	14.77
685.3	3.77
685.33	2.77
685.36	-11.23
685.39	-2.23
685.42	-6.23
685.45	-5.23
685.48	5.77
685.51	-4.23
685.54	16.77
685.569	1.77
685.599	14.77
685.629	1.77
685.659	-7.23
685.689	-1.23
685.719	1.77
685.749	-7.23
685.779	-11.23
685.809	26.77
685.839	-9.23
685.869	-1.23
685.898	13.77
685.928	14.77
685.958	-1.23
685.988	6.77
686.018	-4.23
686.048	-6.23
686.078	10.77
686.108	8.77
686.137	-9.23
686.167	12.77
686.197	-4.23
686.227	-1.23
686.257	35.77
686.287	2.77
686.317	-9.23
686.346	-14.23
686.376	0.77
686.406	-7.23
686.436	17.77
686.466	-6.23
686.496	4.77
686.525	22.77
686.555	-0.23
686.585	11.77
686.615	11.77
686.645	-6.23
686.675	-11.23
686.704	-3.23
686.734	-1.23
686.764	-3.23
686.794	9.77
686.824	-0.23
686.853	-2.23
686.883	12.77
686.913	6.77
686.943	-4.23
686.973	3.77
687.002	0.77
687.032	2.77
687.062	-6.23
687.092	8.77
687.121	-1.23
687.151	5.77
687.181	3.77
687.211	10.77
687.24	10.77
687.27	2.77
687.3	-1.23
687.33	-6.23
687.359	-6.23
687.389	13.77
687.419	8.77
687.449	0.77
687.478	2.77
687.508	-14.23
687.538	-4.23
687.568	-8.23
687.597	-7.23
687.627	11.77
687.657	8.77
687.686	-2.23
687.716	20.77
687.746	-5.23
687.776	-4.23
687.805	1.77
687.835	-0.23
687.865	28.77
687.894	20.77
687.924	-4.23
687.954	-21.23
687.983	-7.23
688.013	4.77
688.043	11.77
688.072	2.77
688.102	2.77
688.132	1.77
688.161	-4.23
688.191	-10.23
688.221	9.77
688.25	-7.23
688.28	-3.23
688.31	14.77
688.339	13.77
688.369	-2.23
688.399	-5.23
688.428	-8.23
688.458	9.77
688.488	2.77
688.517	6.77
688.547	-11.23
688.576	25.77
688.606	3.77
688.636	-18.23
688.665	-1.23
688.695	4.77
688.725	12.77
688.754	5.77
688.784	23.77
688.813	0.77
688.843	-8.23
688.873	-3.23
688.902	1.77
688.932	-6.23
688.961	-15.23
688.991	8.77
689.02	9.77
689.05	4.77
689.08	0.77
689.109	12.77
689.139	-6.23
689.168	5.77
689.198	0.77
689.227	4.77
689.257	6.77
689.287	14.77
689.316	13.77
689.346	-13.23
689.375	-1.23
689.405	2.77
689.434	-8.23
689.464	7.77
689.493	-10.23
689.523	-4.23
689.552	-4.23
689.582	-1.23
689.611	-0.23
689.641	8.77
689.67	-3.23
689.7	10.77
689.73	1.77
689.759	7.77
689.789	11.77
689.818	-8.23
689.848	-18.23
689.877	13.77
689.906	-1.23
689.936	-21.23
689.965	-0.23
689.995	10.77
690.024	5.77
690.054	-2.23
690.083	2.77
690.113	-7.23
690.142	3.77
690.172	-8.23
690.201	8.77
690.231	-12.23
690.26	10.77
690.29	-12.23
690.319	3.77
690.348	-8.23
690.378	-2.23
690.407	4.77
690.437	-7.23
690.466	-5.23
690.496	-1.23
690.525	14.77
690.555	0.77
690.584	-5.23
690.613	2.77
690.643	-10.23
690.672	0.77
690.702	11.77
690.731	-2.23
690.76	31.77
690.79	43.77
690.819	35.77
690.849	24.77
690.878	19.77
690.907	5.77
690.937	38.77
690.966	5.77
690.996	6.77
691.025	-6.23
691.054	-12.23
691.084	2.77
691.113	10.77
691.142	12.77
691.172	2.77
691.201	15.77
691.23	2.77
691.26	14.77
691.289	5.77
691.319	-1.23
691.348	13.77
691.377	18.77
691.407	5.77
691.436	-0.23
691.465	1.77
691.495	0.77
691.524	-10.23
691.553	-2.23
691.583	-5.23
691.612	9.77
691.641	8.77
691.67	14.77
691.7	1.77
691.729	-9.23
691.758	7.77
691.788	8.77
691.817	-8.23
691.846	-3.23
691.876	-11.23
691.905	3.77
691.934	-0.23
691.963	-0.23
691.993	17.77
692.022	-3.23
692.051	-1.23
692.081	6.77
692.11	20.77
692.139	3.77
692.168	1.77
692.198	23.77
692.227	17.77
692.256	-0.23
692.285	-3.23
692.315	-4.23
692.344	12.77
692.373	-4.23
692.402	-13.23
692.432	-6.23
692.461	5.77
692.49	2.77
692.519	10.77
692.548	2.77
692.578	13.77
692.607	-5.23
692.636	-4.23
692.665	12.77
692.694	-16.23
692.724	-9.23
692.753	-2.23
692.782	5.77
692.811	-0.23
692.84	-5.23
692.87	1.77
692.899	-12.23
692.928	-2.23
692.957	-0.23
692.986	-15.23
693.016	8.77
693.045	2.77
693.074	6.77
693.103	-10.23
693.132	11.77
693.161	26.77
693.191	-0.23
693.22	-5.23
693.249	7.77
693.278	9.77
693.307	19.77
693.336	-7.23
693.365	-23.23
693.395	-5.23
693.424	7.77
693.453	26.77
693.482	-0.23
693.511	7.77
693.54	-3.23
693.569	7.77
693.598	-10.23
693.628	4.77
693.657	4.77
693.686	1.77
693.715	10.77
693.744	8.77
693.773	13.77
693.802	3.77
693.831	-15.23
693.86	3.77
693.889	-7.23
693.919	-0.23
693.948	-1.23
693.977	9.77
694.006	6.77
694.035	4.77
694.064	-1.23
694.093	5.77
694.122	-5.23
694.151	20.77
694.18	8.77
694.209	22.77
694.238	-0.23
694.267	16.77
694.296	4.77
694.325	15.77
694.354	-5.23
694.383	7.77
694.412	7.77
694.441	-1.23
694.471	-8.23
694.5	-15.23
694.529	-2.23
694.558	11.77
694.587	5.77
694.616	-4.23
694.645	3.77
694.674	8.77
694.703	14.77
694.732	5.77
694.761	-0.23
694.79	1.77
694.819	-20.23
694.848	9.77
694.877	6.77
694.906	33.77
694.935	8.77
694.963	29.77
694.992	-0.23
695.021	-1.23
695.05	-2.23
695.079	6.77
695.108	5.77
695.137	18.77
695.166	6.77
695.195	-9.23
695.224	8.77
695.253	1.77
695.282	-9.23
695.311	-0.23
695.34	0.77
695.369	1.77
695.398	2.77
695.427	23.77
695.456	-4.23
695.485	-1.23
695.513	-6.23
695.542	16.77
695.571	6.77
695.6	10.77
695.629	5.77
695.658	16.77
695.687	-4.23
695.716	0.77
695.745	19.77
695.774	-7.23
695.802	-5.23
695.831	8.77
695.86	-7.23
695.889	3.77
695.918	1.77
695.947	9.77
695.976	3.77
696.005	2.77
696.033	11.77
696.062	14.77
696.091	2.77
696.12	6.77
696.149	22.77
696.178	13.77
696.207	-1.23
696.235	-9.23
696.264	11.77
696.293	9.77
696.322	14.77
696.351	9.77
696.38	8.77
696.408	2.77
696.437	-10.23
696.466	4.77
696.495	6.77
696.524	10.77
696.553	11.77
696.581	0.77
696.61	-4.23
696.639	13.77
696.668	6.77
696.697	-4.23
696.725	-13.23
696.754	-10.23
696.783	-4.23
696.812	-10.23
696.84	1.77
696.869	-0.23
696.898	1.77
696.927	5.77
696.956	13.77
696.984	8.77
697.013	-2.23
697.042	9.77
697.071	-0.23
697.099	14.77
697.128	1.77
697.157	5.77
697.186	-1.23
697.214	-6.23
697.243	6.77
697.272	3.77
697.301	3.77
697.329	10.77
697.358	11.77
697.387	15.77
697.415	10.77
697.444	6.77
697.473	6.77
697.502	1.77
697.53	-3.23
697.559	-2.23
697.588	21.77
697.616	2.77
697.645	-0.23
697.674	17.77
697.703	-6.23
697.731	4.77
697.76	14.77
697.789	-4.23
697.817	-5.23
697.846	20.77
697.875	7.77
697.903	12.77
697.932	10.77
697.961	10.77
697.989	19.77
698.018	7.77
698.047	1.77
698.075	15.77
698.104	4.77
698.133	0.77
698.161	-5.23
698.19	-1.23
698.218	10.77
698.247	14.77
698.276	-8.23
698.304	5.77
698.333	-4.23
698.362	7.77
698.39	14.77
698.419	16.77
698.447	-2.23
698.476	-5.23
698.505	14.77
698.533	2.77
698.562	7.77
698.591	-11.23
698.619	-3.23
698.648	-0.23
698.676	0.77
698.705	-8.23
698.733	-10.23
698.762	15.77
698.791	12.77
698.819	-0.23
698.848	-11.23
698.876	10.77
698.905	5.77
698.933	2.77
698.962	-5.23
698.991	9.77
699.019	13.77
699.048	11.77
699.076	3.77
699.105	-12.23
699.133	-0.23
699.162	13.77
699.19	7.77
699.219	-1.23
699.248	-5.23
699.276	1.77
699.305	-1.23
699.333	7.77
699.362	-2.23
699.39	14.77
699.419	-6.23
699.447	-9.23
699.476	16.77
699.504	-0.23
699.533	18.77
699.561	-8.23
699.59	3.77
699.618	-6.23
699.647	2.77
699.675	-4.23
699.704	9.77
699.732	-1.23
699.761	0.77
699.789	9.77
699.818	16.77
699.846	2.77
699.874	-2.23
699.903	-3.23
699.931	-15.23
699.96	15.77
699.988	3.77
700.017	6.77
700.045	-4.23
700.074	-6.23
700.102	-5.23
700.13	-12.23
700.159	10.77
700.187	-2.23
700.216	-6.23
700.244	-7.23
700.273	3.77
700.301	-3.23
700.329	-2.23
700.358	1.77
700.386	0.77
700.415	6.77
700.443	2.77
700.472	2.77
700.5	5.77
700.528	-2.23
700.557	-10.23
700.585	-5.23
700.614	-7.23
700.642	-12.23
700.67	29.77
700.699	18.77
700.727	2.77
700.755	1.77
700.784	-3.23
700.812	-3.23
700.841	0.77
700.869	-3.23
700.897	-12.23
700.926	-3.23
700.954	6.77
700.982	7.77
701.011	1.77
701.039	0.77
701.067	3.77
701.096	20.77
701.124	2.77
701.152	7.77
701.181	4.77
701.209	-4.23
701.237	0.77
701.266	-4.23
701.294	-1.23
701.322	16.77
701.351	20.77
701.379	5.77
701.407	-1.23
701.435	1.77
701.464	10.77
701.492	21.77
701.52	3.77
701.549	17.77
701.577	-4.23
701.605	-4.23
701.634	10.77
701.662	16.77
701.69	-9.23
701.718	-26.23
701.747	3.77
701.775	7.77
701.803	-7.23
701.831	6.77
701.86	-1.23
701.888	-1.23
701.916	-4.23
701.944	11.77
701.973	0.77
702.001	-5.23
702.029	-10.23
702.057	10.77
702.086	2.77
702.114	-2.23
702.142	14.77
702.17	-9.23
702.199	-19.23
702.227	-10.23
702.255	-17.23
702.283	-5.23
702.311	-0.23
702.34	6.77
702.368	-25.23
702.396	-4.23
702.424	2.77
702.452	-12.23
702.481	-7.23
702.509	-3.23
702.537	12.77
702.565	5.77
702.593	-27.23
702.621	-1.23
702.65	5.77
702.678	8.77
702.706	5.77
702.734	-4.23
702.762	2.77
702.79	8.77
702.819	5.77
702.847	6.77
702.875	-5.23
702.903	10.77
702.931	-11.23
702.959	-8.23
702.988	-3.23
703.016	-14.23
703.044	3.77
703.072	-13.23
703.1	-5.23
703.128	0.77
703.156	5.77
703.184	-2.23
703.212	16.77
703.241	7.77
703.269	-9.23
703.297	-7.23
703.325	0.77
703.353	-12.23
703.381	-20.23
703.409	6.77
703.437	-3.23
703.465	-0.23
703.493	-17.23
703.522	29.77
703.55	24.77
703.578	14.77
703.606	3.77
703.634	-2.23
703.662	-12.23
703.69	-9.23
703.718	-7.23
703.746	12.77
703.774	8.77
703.802	10.77
703.83	18.77
703.858	-1.23
703.886	0.77
703.914	-3.23
703.942	14.77
703.97	-4.23
703.998	-7.23
704.027	23.77
704.055	7.77
704.083	8.77
704.111	-5.23
704.139	5.77
704.167	-6.23
704.195	-7.23
704.223	-14.23
704.251	-5.23
704.279	3.77
704.307	-0.23
704.335	-21.23
704.363	9.77
704.391	-3.23
704.419	1.77
704.447	-18.23
704.475	6.77
704.503	-16.23
704.531	-6.23
704.558	9.77
704.586	12.77
704.614	-3.23
704.642	12.77
704.67	-5.23
704.698	4.77
704.726	7.77
704.754	-5.23
704.782	17.77
704.81	-13.23
704.838	14.77
704.866	2.77
704.894	-24.23
704.922	-11.23
704.95	-6.23
704.978	1.77
705.006	-4.23
705.034	7.77
705.061	-16.23
705.089	0.77
705.117	4.77
705.145	-11.23
705.173	-9.23
705.201	-7.23
705.229	3.77
705.257	-5.23
705.285	11.77
705.313	10.77
705.34	-11.23
705.368	-10.23
705.396	-8.23
705.424	-3.23
705.452	-3.23
705.48	7.77
705.508	-3.23
705.536	5.77
705.563	-3.23
705.591	3.77
705.619	7.77
705.647	-11.23
705.675	9.77
705.703	7.77
705.731	6.77
705.758	1.77
705.786	1.77
705.814	9.77
705.842	13.77
705.87	11.77
705.898	12.77
705.925	-8.23
705.953	-5.23
705.981	11.77
706.009	5.77
706.037	4.77
706.065	-6.23
706.092	-20.23
706.12	11.77
706.148	-7.23
706.176	3.77
706.204	-1.23
706.231	2.77
706.259	-10.23
706.287	-11.23
706.315	0.77
706.342	-8.23
706.37	5.77
706.398	0.77
706.426	-25.23
706.454	-5.23
706.481	14.77
706.509	4.77
706.537	-1.23
706.565	-23.23
706.592	0.77
706.62	11.77
706.648	11.77
706.676	-21.23
706.703	-7.23
706.731	-5.23
706.759	-6.23
706.787	-0.23
706.814	11.77
706.842	7.77
706.87	-4.23
706.897	8.77
706.925	-4.23
706.953	10.77
706.981	6.77
707.008	6.77
707.036	-1.23
707.064	-8.23
707.091	-10.23
707.119	-9.23
707.147	8.77
707.174	-13.23
707.202	6.77
707.23	-8.23
707.258	10.77
707.285	-9.23
707.313	-1.23
707.341	-10.23
707.368	-1.23
707.396	-2.23
707.424	18.77
707.451	7.77
707.479	5.77
707.507	-3.23
707.534	5.77
707.562	-8.23
707.59	-14.23
707.617	-8.23
707.645	-5.23
707.672	-3.23
707.7	3.77
707.728	13.77
707.755	-4.23
707.783	-15.23
707.811	-1.23
707.838	6.77
707.866	4.77
707.893	-18.23
707.921	-24.23
707.949	-8.23
707.976	-2.23
708.004	7.77
708.031	-10.23
708.059	-18.23
708.087	-15.23
708.114	-13.23
708.142	-10.23
708.169	-3.23
708.197	-5.23
708.225	-5.23
708.252	2.77
708.28	12.77
708.307	4.77
708.335	-4.23
708.362	-4.23
708.39	-17.23
708.418	-3.23
708.445	-5.23
708.473	14.77
708.5	-12.23
708.528	7.77
708.555	-1.23
708.583	-4.23
708.61	-7.23
708.638	10.77
708.665	-11.23
708.693	4.77
708.72	1.77
708.748	-4.23
708.776	4.77
708.803	6.77
708.831	11.77
708.858	12.77
708.886	-1.23
708.913	2.77
708.941	-5.23
708.968	2.77
708.996	3.77
709.023	25.77
709.051	6.77
709.078	-9.23
709.105	-2.23
709.133	4.77
709.16	8.77
709.188	14.77
709.215	8.77
709.243	7.77
709.27	-5.23
709.298	-4.23
709.325	1.77
709.353	-4.23
709.38	1.77
709.408	5.77
709.435	2.77
709.462	1.77
709.49	14.77
709.517	-8.23
709.545	-5.23
709.572	-5.23
709.6	4.77
709.627	-14.23
709.655	-18.23
709.682	-5.23
709.709	-8.23
709.737	-2.23
709.764	-20.23
709.792	8.77
709.819	0.77
709.846	-17.23
709.874	6.77
709.901	31.77
709.929	11.77
709.956	-1.23
709.983	-14.23
710.011	-12.23
710.038	-7.23
710.066	-5.23
710.093	2.77
710.12	-8.23
710.148	5.77
710.175	-8.23
710.202	-5.23
710.23	3.77
710.257	13.77
710.284	6.77
710.312	2.77
710.339	-11.23
710.366	-9.23
710.394	-7.23
710.421	-2.23
710.448	5.77
710.476	-7.23
710.503	8.77
710.53	6.77
710.558	22.77
710.585	7.77
710.612	-3.23
710.64	-8.23
710.667	-3.23
710.694	-14.23
710.722	-1.23
710.749	-9.23
710.776	-1.23
710.804	14.77
710.831	1.77
710.858	-4.23
710.885	-8.23
710.913	-29.23
710.94	2.77
710.967	8.77
710.995	10.77
711.022	-1.23
711.049	-5.23
711.076	-7.23
711.104	-4.23
711.131	-3.23
711.158	3.77
711.185	6.77
711.213	-4.23
711.24	-13.23
711.267	-4.23
711.294	-8.23
711.322	5.77
711.349	-5.23
711.376	3.77
711.403	10.77
711.431	-3.23
711.458	-5.23
711.485	-5.23
711.512	7.77
711.54	4.77
711.567	-3.23
711.594	-12.23
711.621	-5.23
711.648	1.77
711.676	6.77
711.703	0.77
711.73	-16.23
711.757	-5.23
711.784	3.77
711.812	2.77
711.839	-6.23
711.866	-6.23
711.893	-13.23
711.92	-7.23
711.947	-0.23
711.975	6.77
712.002	-7.23
712.029	9.77
712.056	-1.23
712.083	-8.23
712.11	-8.23
712.138	15.77
712.165	13.77
712.192	-9.23
712.219	-12.23
712.246	-13.23
712.273	-12.23
712.3	-16.23
712.328	-10.23
712.355	1.77
712.382	-12.23
712.409	2.77
712.436	2.77
712.463	5.77
712.49	1.77
712.517	-10.23
712.544	-11.23
712.572	3.77
712.599	-25.23
712.626	-4.23
712.653	-5.23
712.68	1.77
712.707	8.77
712.734	12.77
712.761	14.77
712.788	-7.23
712.815	0.77
712.842	13.77
712.87	2.77
712.897	-13.23
712.924	-21.23
712.951	-7.23
712.978	5.77
713.005	8.77
713.032	-5.23
713.059	-13.23
713.086	-4.23
713.113	-13.23
713.14	-10.23
713.167	8.77
713.194	21.77
713.221	-4.23
713.248	-8.23
713.275	-10.23
713.302	-12.23
713.329	-4.23
713.356	6.77
713.383	-0.23
713.41	0.77
713.437	-9.23
713.464	14.77
713.491	6.77
713.518	-2.23
713.545	-8.23
713.572	-11.23
713.599	32.77
713.626	-4.23
713.653	12.77
713.68	-19.23
713.707	-3.23
713.734	-0.23
713.761	-7.23
713.788	-5.23
713.815	2.77
713.842	-4.23
713.869	-2.23
713.896	-4.23
713.923	-7.23
713.95	-3.23
713.977	1.77
714.004	-12.23
714.031	-19.23
714.058	-16.23
714.085	2.77
714.112	17.77
714.139	-1.23
714.165	-0.23
714.192	1.77
714.219	11.77
714.246	-2.23
714.273	-2.23
714.3	-3.23
714.327	-1.23
714.354	16.77
714.381	-1.23
714.408	5.77
714.435	-4.23
714.461	-4.23
714.488	4.77
714.515	-15.23
714.542	-7.23
714.569	-4.23
714.596	-12.23
714.623	-11.23
714.65	-8.23
714.677	-7.23
714.703	2.77
714.73	-4.23
714.757	-5.23
714.784	-13.23
714.811	-13.23
714.838	0.77
714.865	-5.23
714.891	-1.23
714.918	-13.23
714.945	-8.23
714.972	2.77
714.999	3.77
715.026	-11.23
715.052	15.77
715.079	1.77
715.106	-3.23
715.133	9.77
715.16	-13.23
715.187	-0.23
715.213	18.77
715.24	-8.23
715.267	-13.23
715.294	-12.23
715.321	18.77
715.347	-0.23
715.374	-5.23
715.401	2.77
715.428	-4.23
715.455	-2.23
715.481	-18.23
715.508	4.77
715.535	-16.23
715.562	18.77
715.588	-4.23
715.615	-6.23
715.642	-8.23
715.669	0.77
715.695	-7.23
715.722	-5.23
715.749	-2.23
715.776	16.77
715.802	-9.23
715.829	6.77
715.856	-15.23
715.883	2.77
715.909	-8.23
715.936	-5.23
715.963	3.77
715.99	4.77
716.016	2.77
716.043	-7.23
716.07	-2.23
716.096	-7.23
716.123	-0.23
716.15	-4.23
716.177	9.77
716.203	0.77
716.23	5.77
716.257	3.77
716.283	18.77
716.31	-0.23
716.337	-5.23
716.363	-10.23
716.39	4.77
716.417	11.77
716.443	-4.23
716.47	0.77
716.497	14.77
716.523	10.77
716.55	6.77
716.577	16.77
716.603	-6.23
716.63	11.77
716.657	3.77
716.683	-1.23
716.71	-4.23
716.737	-10.23
716.763	-16.23
716.79	-4.23
716.817	6.77
716.843	-1.23
716.87	-13.23
716.897	-9.23
716.923	17.77
716.95	2.77
716.976	-11.23
717.003	-5.23
717.03	7.77
717.056	-4.23
717.083	-2.23
717.109	-1.23
717.136	13.77
717.163	-18.23
717.189	0.77
717.216	6.77
717.242	3.77
717.269	-3.23
717.296	-4.23
717.322	-0.23
717.349	-1.23
717.375	9.77
717.402	-0.23
717.428	5.77
717.455	9.77
717.481	-5.23
717.508	9.77
717.535	0.77
717.561	-15.23
717.588	-9.23
717.614	-12.23
717.641	-7.23
717.667	2.77
717.694	-8.23
717.72	-8.23
717.747	2.77
717.773	5.77
717.8	11.77
717.826	0.77
717.853	-1.23
717.88	15.77
717.906	-8.23
717.933	8.77
717.959	11.77
717.986	12.77
718.012	1.77
718.039	0.77
718.065	10.77
718.092	-0.23
718.118	9.77
718.144	-3.23
718.171	11.77
718.197	16.77
718.224	-10.23
718.25	-12.23
718.277	-1.23
718.303	2.77
718.33	3.77
718.356	-8.23
718.383	-7.23
718.409	12.77
718.436	-0.23
718.462	-25.23
718.489	-16.23
718.515	8.77
718.541	2.77
718.568	10.77
718.594	6.77
718.621	-4.23
718.647	-7.23
718.674	2.77
718.7	3.77
718.726	-12.23
718.753	0.77
718.779	12.77
718.806	0.77
718.832	3.77
718.858	3.77
718.885	-7.23
718.911	-7.23
718.938	6.77
718.964	-23.23
718.99	0.77
719.017	0.77
719.043	3.77
719.07	0.77
719.096	-12.23
719.122	13.77
719.149	-3.23
719.175	-8.23
719.201	-2.23
719.228	3.77
719.254	2.77
719.281	-10.23
719.307	0.77
719.333	-4.23
719.36	11.77
719.386	-10.23
719.412	10.77
719.439	-17.23
719.465	1.77
719.491	-7.23
719.518	-4.23
719.544	-0.23
719.57	6.77
719.597	1.77
719.623	-18.23
719.649	5.77
719.675	-11.23
719.702	3.77
719.728	17.77
719.754	-0.23
719.781	-2.23
719.807	-2.23
719.833	-4.23
719.86	-1.23
719.886	5.77
719.912	10.77
719.938	-10.23
719.965	-6.23
719.991	12.77
720.017	7.77
720.044	-4.23
720.07	7.77
720.096	8.77
720.122	3.77
720.149	5.77
720.175	22.77
720.201	0.77
720.227	-10.23
720.254	-2.23
720.28	2.77
720.306	-6.23
720.332	3.77
720.359	1.77
720.385	12.77
720.411	4.77
720.437	7.77
720.463	-13.23
720.49	-9.23
720.516	3.77
720.542	-1.23
720.568	7.77
720.595	-2.23
720.621	8.77
720.647	2.77
720.673	3.77
720.699	-4.23
720.725	-3.23
720.752	-12.23
720.778	3.77
720.804	11.77
720.83	0.77
720.856	-10.23
720.883	-16.23
720.909	-1.23
720.935	12.77
720.961	10.77
720.987	-7.23
721.013	9.77
721.04	2.77
721.066	1.77
721.092	-5.23
721.118	3.77
721.144	3.77
721.17	-1.23
721.196	1.77
721.223	-3.23
721.249	-9.23
721.275	13.77
721.301	-1.23
721.327	10.77
721.353	-0.23
721.379	-7.23
721.405	-13.23
721.432	-1.23
721.458	-6.23
721.484	1.77
721.51	-8.23
721.536	-0.23
721.562	-8.23
721.588	-10.23
721.614	-11.23
721.64	3.77
721.666	-1.23
721.693	-5.23
721.719	4.77
721.745	-6.23
721.771	-4.23
721.797	-7.23
721.823	7.77
721.849	3.77
721.875	3.77
721.901	-0.23
721.927	4.77
721.953	-7.23
721.979	17.77
722.005	6.77
722.031	-4.23
722.057	0.77
722.083	3.77
722.109	-4.23
722.135	14.77
722.161	16.77
722.187	-1.23
722.214	-5.23
722.24	-8.23
722.266	-10.23
722.292	12.77
722.318	-9.23
722.344	-1.23
722.37	3.77
722.396	8.77
722.422	-10.23
722.448	9.77
722.474	-17.23
722.5	9.77
722.526	8.77
722.552	10.77
722.578	-0.23
722.603	11.77
722.629	4.77
722.655	6.77
722.681	-9.23
722.707	2.77
722.733	-0.23
722.759	-15.23
722.785	-17.23
722.811	-3.23
722.837	0.77
722.863	14.77
722.889	15.77
722.915	-11.23
722.941	-2.23
722.967	0.77
722.993	-4.23
723.019	9.77
723.045	9.77
723.071	-4.23
723.097	-7.23
723.122	-4.23
723.148	-9.23
723.174	5.77
723.2	3.77
723.226	-14.23
723.252	4.77
723.278	3.77
723.304	-10.23
723.33	12.77
723.356	-13.23
723.381	-5.23
723.407	-12.23
723.433	6.77
723.459	8.77
723.485	-6.23
723.511	-0.23
723.537	1.77
723.563	3.77
723.588	2.77
723.614	8.77
723.64	-8.23
723.666	-1.23
723.692	-2.23
723.718	-8.23
723.744	5.77
723.769	0.77
723.795	-13.23
723.821	4.77
723.847	-14.23
723.873	17.77
723.899	5.77
723.924	14.77
723.95	7.77
723.976	3.77
724.002	-1.23
724.028	11.77
724.053	-9.23
724.079	-15.23
724.105	0.77
724.131	-5.23
724.157	-8.23
724.182	5.77
724.208	0.77
724.234	-10.23
724.26	-9.23
724.286	0.77
724.311	-9.23
724.337	-0.23
724.363	-15.23
724.389	-7.23
724.415	-4.23
724.44	22.77
724.466	-13.23
724.492	4.77
724.518	-2.23
724.543	11.77
724.569	7.77
724.595	-5.23
724.621	-20.23
724.646	9.77
724.672	-0.23
724.698	-5.23
724.723	-10.23
724.749	-5.23
724.775	1.77
724.801	0.77
724.826	-5.23
724.852	-3.23
724.878	-9.23
724.904	-18.23
724.929	6.77
724.955	-12.23
724.981	6.77
725.006	18.77
725.032	16.77
725.058	14.77
725.083	-14.23
725.109	-4.23
725.135	-2.23
725.161	5.77
725.186	-5.23
725.212	-9.23
725.238	-4.23
725.263	-7.23
725.289	-3.23
725.315	-20.23
725.34	1.77
725.366	-0.23
725.392	4.77
725.417	-21.23
725.443	-4.23
725.468	-2.23
725.494	0.77
725.52	0.77
725.545	-2.23
725.571	-6.23
725.597	-0.23
725.622	-2.23
725.648	-1.23
725.674	10.77
725.699	9.77
725.725	2.77
725.75	8.77
725.776	-6.23
725.802	-1.23
725.827	-1.23
725.853	-18.23
725.878	3.77
725.904	-7.23
725.93	-0.23
725.955	-30.23
725.981	-9.23
726.006	-0.23
726.032	5.77
726.057	-9.23
726.083	-14.23
726.109	8.77
726.134	13.77
726.16	13.77
726.185	0.77
726.211	-7.23
726.236	8.77
726.262	7.77
726.288	7.77
726.313	11.77
726.339	-4.23
726.364	-5.23
726.39	15.77
726.415	8.77
726.441	-8.23
726.466	-18.23
726.492	-2.23
726.517	23.77
726.543	-1.23
726.568	-11.23
726.594	1.77
726.619	-10.23
726.645	-4.23
726.67	6.77
726.696	10.77
726.721	-4.23
726.747	-8.23
726.772	6.77
726.798	-8.23
726.823	0.77
726.849	9.77
726.874	-2.23
726.9	4.77
726.925	2.77
726.951	7.77
726.976	12.77
727.002	2.77
727.027	15.77
727.053	22.77
727.078	-15.23
727.104	-5.23
727.129	-7.23
727.155	-4.23
727.18	4.77
727.205	1.77
727.231	6.77
727.256	6.77
727.282	10.77
727.307	-8.23
727.333	-12.23
727.358	-20.23
727.383	-22.23
727.409	-16.23
727.434	17.77
727.46	-12.23
727.485	-5.23
727.511	7.77
727.536	-5.23
727.561	-6.23
727.587	2.77
727.612	-18.23
727.637	-11.23
727.663	-5.23
727.688	7.77
727.714	-10.23
727.739	-16.23
727.764	-11.23
727.79	-0.23
727.815	0.77
727.841	3.77
727.866	-5.23
727.891	-3.23
727.917	-11.23
727.942	-5.23
727.967	-15.23
727.993	-5.23
728.018	-1.23
728.043	13.77
728.069	-1.23
728.094	15.77
728.119	6.77
728.145	8.77
728.17	5.77
728.195	-10.23
728.221	-1.23
728.246	-13.23
728.271	-17.23
728.297	-8.23
728.322	-6.23
728.347	-6.23
728.373	-7.23
728.398	12.77
728.423	-1.23
728.448	3.77
728.474	8.77
728.499	-12.23
728.524	-8.23
728.55	-12.23
728.575	8.77
728.6	13.77
728.625	-5.23
728.651	1.77
728.676	11.77
728.701	-8.23
728.727	2.77
728.752	-13.23
728.777	-5.23
728.802	-11.23
728.828	4.77
728.853	4.77
728.878	-10.23
728.903	-7.23
728.929	-13.23
728.954	-0.23
728.979	7.77
729.004	8.77
729.03	-5.23
729.055	5.77
729.08	-8.23
729.105	-4.23
729.13	6.77
729.156	7.77
729.181	-7.23
729.206	-9.23
729.231	13.77
729.256	1.77
729.282	10.77
729.307	-7.23
729.332	-9.23
729.357	4.77
729.382	4.77
729.408	-3.23
729.433	-2.23
729.458	3.77
729.483	2.77
729.508	6.77
729.533	6.77
729.559	8.77
729.584	-3.23
729.609	1.77
729.634	-5.23
729.659	-18.23
729.684	-13.23
729.71	11.77
729.735	1.77
729.76	-12.23
729.785	-8.23
729.81	11.77
729.835	-1.23
729.86	-1.23
729.886	17.77
729.911	18.77
729.936	-3.23
729.961	22.77
729.986	15.77
730.011	64.77
730.036	200.77
730.061	992.77
730.086	2736.77
730.112	3463.77
730.137	2896.77
730.162	2105.77
730.187	1643.77
730.212	1266.77
730.237	801.77
730.262	462.77
730.287	228.77
730.312	146.77
730.337	71.77
730.362	65.77
730.387	43.77
730.413	22.77
730.438	3.77
730.463	31.77
730.488	9.77
730.513	17.77
730.538	20.77
730.563	35.77
730.588	18.77
730.613	14.77
730.638	3.77
730.663	-12.23
730.688	24.77
730.713	-0.23
730.738	-2.23
730.763	-5.23
730.788	-16.23
730.813	12.77
730.838	0.77
730.863	-2.23
730.888	-7.23
730.913	2.77
730.938	12.77
730.963	23.77
730.988	137.77
731.013	415.77
731.038	636.77
731.063	607.77
731.088	459.77
731.113	352.77
731.138	255.77
731.163	179.77
731.188	114.77
731.213	64.77
731.238	43.77
731.263	18.77
731.288	7.77
731.313	11.77
731.338	-0.23
731.363	2.77
731.388	9.77
731.413	-0.23
731.438	14.77
731.463	2.77
731.487	21.77
731.512	-4.23
731.537	-4.23
731.562	-9.23
731.587	13.77
731.612	-5.23
731.637	3.77
731.662	1.77
731.687	9.77
731.712	-9.23
731.737	-0.23
731.762	3.77
731.786	13.77
731.811	12.77
731.836	0.77
731.861	-4.23
731.886	-3.23
731.911	19.77
731.936	5.77
731.961	8.77
731.986	-2.23
732.01	-1.23
732.035	-1.23
732.06	19.77
732.085	5.77
732.11	-0.23
732.135	-2.23
732.16	3.77
732.184	-2.23
732.209	12.77
732.234	0.77
732.259	-15.23
732.284	-1.23
732.309	-0.23
732.334	-8.23
732.358	-16.23
732.383	-21.23
732.408	-8.23
732.433	1.77
732.458	6.77
732.482	0.77
732.507	-10.23
732.532	-9.23
732.557	11.77
732.582	11.77
732.607	22.77
732.631	48.77
732.656	86.77
732.681	161.77
732.706	322.77
732.73	450.77
732.755	410.77
732.78	294.77
732.805	222.77
732.83	164.77
732.854	121.77
732.879	82.77
732.904	44.77
732.929	16.77
732.953	23.77
732.978	4.77
733.003	8.77
733.028	-1.23
733.052	3.77
733.077	1.77
733.102	10.77
733.127	-9.23
733.151	-3.23
733.176	18.77
733.201	4.77
733.226	-13.23
733.25	-5.23
733.275	3.77
733.3	16.77
733.324	13.77
733.349	14.77
733.374	1.77
733.399	-0.23
733.423	-3.23
733.448	-17.23
733.473	-15.23
733.497	-4.23
733.522	-14.23
733.547	-0.23
733.571	9.77
733.596	3.77
733.621	2.77
733.646	-4.23
733.67	-3.23
733.695	-10.23
733.72	11.77
733.744	8.77
733.769	17.77
733.794	17.77
733.818	2.77
733.843	-14.23
733.867	-14.23
733.892	-8.23
733.917	-9.23
733.941	0.77
733.966	-10.23
733.991	-18.23
734.015	-4.23
734.04	-12.23
734.065	0.77
734.089	7.77
734.114	-14.23
734.138	2.77
734.163	-13.23
734.188	6.77
734.212	0.77
734.237	-0.23
734.261	8.77
734.286	-2.23
734.311	-0.23
734.335	6.77
734.36	3.77
734.384	1.77
734.409	-5.23
734.434	-10.23
734.458	11.77
734.483	-2.23
734.507	-11.23
734.532	12.77
734.556	5.77
734.581	-3.23
734.606	-2.23
734.63	-2.23
734.655	4.77
734.679	-7.23
734.704	6.77
734.728	10.77
734.753	-3.23
734.777	-0.23
734.802	-27.23
734.826	6.77
734.851	9.77
734.876	14.77
734.9	3.77
734.925	9.77
734.949	15.77
734.974	-9.23
734.998	-7.23
735.023	-4.23
735.047	-9.23
735.072	27.77
735.096	1.77
735.121	8.77
735.145	-13.23
735.17	-8.23
735.194	-10.23
735.219	2.77
735.243	8.77
735.268	0.77
735.292	3.77
735.317	9.77
735.341	7.77
735.365	-9.23
735.39	26.77
735.414	3.77
735.439	6.77
735.463	-9.23
735.488	5.77
735.512	7.77
735.537	0.77
735.561	0.77
735.586	-12.23
735.61	0.77
735.634	2.77
735.659	-0.23
735.683	7.77
735.708	-0.23
735.732	-15.23
735.757	7.77
735.781	11.77
735.805	-2.23
735.83	-6.23
735.854	-21.23
735.879	-5.23
735.903	25.77
735.927	3.77
735.952	-3.23
735.976	-16.23
736.001	-1.23
736.025	-9.23
736.049	-0.23
736.074	-8.23
736.098	1.77
736.123	20.77
736.147	-17.23
736.171	-4.23
736.196	2.77
736.22	-14.23
736.244	5.77
736.269	-1.23
736.293	-2.23
736.317	8.77
736.342	-3.23
736.366	11.77
736.39	18.77
736.415	4.77
736.439	-12.23
736.463	-7.23
736.488	-15.23
736.512	-12.23
736.536	2.77
736.561	12.77
736.585	-0.23
736.609	3.77
736.634	-9.23
736.658	3.77
736.682	-14.23
736.707	-16.23
736.731	-9.23
736.755	-1.23
736.78	5.77
736.804	12.77
736.828	1.77
736.852	-1.23
736.877	2.77
736.901	12.77
736.925	3.77
736.949	-15.23
736.974	4.77
736.998	-13.23
737.022	-4.23
737.047	-9.23
737.071	1.77
737.095	16.77
737.119	18.77
737.144	6.77
737.168	-2.23
737.192	0.77
737.216	-5.23
737.241	-10.23
737.265	0.77
737.289	-6.23
737.313	-15.23
737.337	-1.23
737.362	5.77
737.386	-2.23
737.41	-13.23
737.434	-11.23
737.459	-8.23
737.483	5.77
737.507	0.77
737.531	3.77
737.555	7.77
737.58	6.77
737.604	-3.23
737.628	-16.23
737.652	-2.23
737.676	-2.23
737.701	10.77
737.725	2.77
737.749	12.77
737.773	-9.23
737.797	-18.23
737.821	-1.23
737.846	-9.23
737.87	15.77
737.894	-0.23
737.918	5.77
737.942	-22.23
737.966	13.77
737.99	12.77
738.015	7.77
738.039	-2.23
738.063	-4.23
738.087	4.77
738.111	-4.23
738.135	4.77
738.159	0.77
738.184	-10.23
738.208	-0.23
738.232	-2.23
738.256	15.77
738.28	3.77
738.304	8.77
738.328	-8.23
738.352	2.77
738.376	-12.23
738.4	6.77
738.425	7.77
738.449	-2.23
738.473	14.77
738.497	4.77
738.521	6.77
738.545	-5.23
738.569	3.77
738.593	12.77
738.617	-4.23
738.641	-4.23
738.665	1.77
738.689	11.77
738.713	-1.23
738.737	-13.23
738.762	23.77
738.786	9.77
738.81	-23.23
738.834	17.77
738.858	-2.23
738.882	9.77
738.906	2.77
738.93	6.77
738.954	-4.23
738.978	2.77
739.002	8.77
739.026	9.77
739.05	8.77
739.074	-4.23
739.098	35.77
739.122	18.77
739.146	20.77
739.17	5.77
739.194	13.77
739.218	-8.23
739.242	-1.23
739.266	-7.23
739.29	4.77
739.314	3.77
739.338	-0.23
739.362	-10.23
739.386	-0.23
739.41	-9.23
739.434	-7.23
739.458	4.77
739.482	9.77
739.506	5.77
739.53	10.77
739.554	16.77
739.577	-8.23
739.601	-2.23
739.625	-17.23
739.649	-4.23
739.673	-12.23
739.697	18.77
739.721	-9.23
739.745	2.77
739.769	10.77
739.793	15.77
739.817	22.77
739.841	-12.23
739.865	-3.23
739.889	-4.23
739.912	9.77
739.936	-9.23
739.96	-11.23
739.984	4.77
740.008	-4.23
740.032	-25.23
740.056	-9.23
740.08	-3.23
740.104	-11.23
740.127	0.77
740.151	13.77
740.175	8.77
740.199	4.77
740.223	36.77
740.247	1.77
740.271	-8.23
740.295	-20.23
740.318	-5.23
740.342	-12.23
740.366	7.77
740.39	5.77
740.414	10.77
740.438	0.77
740.461	11.77
740.485	4.77
740.509	-12.23
740.533	-0.23
740.557	-0.23
740.581	-1.23
740.604	-2.23
740.628	-7.23
740.652	9.77
740.676	-9.23
740.7	11.77
740.723	6.77
740.747	-5.23
740.771	-0.23
740.795	-5.23
740.819	16.77
740.842	-8.23
740.866	-4.23
740.89	-0.23
740.914	8.77
740.938	4.77
740.961	19.77
740.985	4.77
741.009	0.77
741.033	15.77
741.056	4.77
741.08	-1.23
741.104	3.77
741.128	-10.23
741.151	1.77
741.175	10.77
741.199	9.77
741.223	11.77
741.246	-9.23
741.27	-2.23
741.294	3.77
741.318	-1.23
741.341	6.77
741.365	3.77
741.389	4.77
741.413	-0.23
741.436	7.77
741.46	3.77
741.484	20.77
741.507	4.77
741.531	23.77
741.555	37.77
741.579	12.77
741.602	5.77
741.626	12.77
741.65	-5.23
741.673	16.77
741.697	11.77
741.721	6.77
741.744	-18.23
741.768	-9.23
741.792	3.77
741.815	0.77
741.839	14.77
741.863	14.77
741.886	0.77
741.91	0.77
741.934	-7.23
741.957	-10.23
741.981	22.77
742.005	5.77
742.028	-8.23
742.052	-5.23
742.075	3.77
742.099	6.77
742.123	1.77
742.146	5.77
742.17	11.77
742.194	-11.23
742.217	-3.23
742.241	-9.23
742.264	-10.23
742.288	11.77
742.312	-0.23
742.335	-4.23
742.359	-4.23
742.382	11.77
742.406	6.77
742.43	-15.23
742.453	-1.23
742.477	-1.23
742.5	1.77
742.524	-4.23
742.548	-11.23
742.571	-4.23
742.595	2.77
742.618	-23.23
742.642	-0.23
742.665	2.77
742.689	-11.23
742.712	-1.23
742.736	-8.23
742.76	-11.23
742.783	-10.23
742.807	-11.23
742.83	8.77
742.854	-21.23
742.877	-1.23
742.901	-0.23
742.924	-8.23
742.948	-4.23
742.971	7.77
742.995	2.77
743.018	-2.23
743.042	1.77
743.065	-3.23
743.089	0.77
743.112	-3.23
743.136	1.77
743.159	-5.23
743.183	-4.23
743.206	11.77
743.23	6.77
743.253	13.77
743.277	6.77
743.3	-1.23
743.324	-3.23
743.347	0.77
743.371	8.77
743.394	3.77
743.418	11.77
743.441	14.77
743.465	4.77
743.488	6.77
743.512	9.77
743.535	2.77
743.558	-8.23
743.582	-1.23
743.605	8.77
743.629	11.77
743.652	7.77
743.676	-2.23
743.699	2.77
743.723	-9.23
743.746	3.77
743.769	-7.23
743.793	6.77
743.816	-4.23
743.84	12.77
743.863	3.77
743.886	4.77
743.91	13.77
743.933	8.77
743.957	-8.23
743.98	-19.23
744.003	4.77
744.027	2.77
744.05	5.77
744.074	0.77
744.097	-19.23
744.12	-12.23
744.144	-8.23
744.167	9.77
744.19	-6.23
744.214	3.77
744.237	-8.23
744.26	25.77
744.284	-11.23
744.307	-18.23
744.331	13.77
744.354	-9.23
744.377	-11.23
744.401	-10.23
744.424	-7.23
744.447	-29.23
744.471	-6.23
