Data from HighRes_mercury_15_13_11_07_2024_HR4C61891__66__15-14-29-786.txt Node

Date: Thu Nov 07 15:14:29 EST 2024
User: crc00042
Spectrometer: HR4C6189
Trigger mode: 4
Integration Time (sec): 1.000000E-1
Scans to average: 1
Electric dark correction enabled: true
Nonlinearity correction enabled: false
Boxcar width: 0
XAxis mode: Wavelengths
Number of Pixels in Spectrum: 3648
>>>>>Begin Spectral Data<<<<<
639.567	-40.77
639.602	-40.77
639.636	-40.77
639.67	-40.77
639.704	-12.77
639.738	-6.77
639.773	12.23
639.807	-14.77
639.841	-0.77
639.875	9.23
639.909	-2.77
639.943	-0.77
639.978	-4.77
640.012	3.23
640.046	16.23
640.08	9.23
640.114	-9.77
640.148	-9.77
640.182	-12.77
640.217	5.23
640.251	23.23
640.285	11.23
640.319	-5.77
640.353	-5.77
640.387	9.23
640.421	-11.77
640.455	-5.77
640.49	-8.77
640.524	-4.77
640.558	10.23
640.592	15.23
640.626	-10.77
640.66	0.23
640.694	-13.77
640.728	3.23
640.762	5.23
640.796	15.23
640.83	13.23
640.865	4.23
640.899	3.23
640.933	18.23
640.967	5.23
641.001	6.23
641.035	9.23
641.069	2.23
641.103	9.23
641.137	-6.77
641.171	-12.77
641.205	16.23
641.239	9.23
641.273	23.23
641.307	24.23
641.341	13.23
641.375	8.23
641.409	9.23
641.443	0.23
641.477	7.23
641.511	5.23
641.545	11.23
641.579	-0.77
641.614	4.23
641.648	6.23
641.682	-7.77
641.716	3.23
641.75	19.23
641.784	-5.77
641.818	-4.77
641.852	4.23
641.886	7.23
641.919	35.23
641.953	6.23
641.987	-16.77
642.021	9.23
642.055	4.23
642.089	-1.77
642.123	1.23
642.157	6.23
642.191	-1.77
642.225	4.23
642.259	8.23
642.293	16.23
642.327	0.23
642.361	-6.77
642.395	7.23
642.429	14.23
642.463	21.23
642.497	24.23
642.531	6.23
642.565	15.23
642.599	13.23
642.633	-8.77
642.666	10.23
642.7	20.23
642.734	8.23
642.768	-5.77
642.802	4.23
642.836	14.23
642.87	4.23
642.904	-3.77
642.938	-3.77
642.972	-1.77
643.005	4.23
643.039	23.23
643.073	-8.77
643.107	5.23
643.141	14.23
643.175	0.23
643.209	5.23
643.243	-3.77
643.276	3.23
643.31	9.23
643.344	2.23
643.378	6.23
643.412	0.23
643.446	4.23
643.48	-9.77
643.513	9.23
643.547	-6.77
643.581	-16.77
643.615	9.23
643.649	8.23
643.683	14.23
643.716	16.23
643.75	17.23
643.784	-8.77
643.818	13.23
643.852	2.23
643.886	13.23
643.919	6.23
643.953	-2.77
643.987	6.23
644.021	15.23
644.055	7.23
644.088	6.23
644.122	-15.77
644.156	9.23
644.19	1.23
644.224	7.23
644.257	-1.77
644.291	17.23
644.325	20.23
644.359	8.23
644.392	30.23
644.426	18.23
644.46	-0.77
644.494	0.23
644.527	2.23
644.561	14.23
644.595	19.23
644.629	7.23
644.662	-7.77
644.696	15.23
644.73	6.23
644.764	0.23
644.797	-16.77
644.831	-6.77
644.865	0.23
644.899	8.23
644.932	18.23
644.966	-5.77
645	1.23
645.033	23.23
645.067	0.23
645.101	25.23
645.135	10.23
645.168	3.23
645.202	-10.77
645.236	-17.77
645.269	6.23
645.303	-5.77
645.337	-8.77
645.37	6.23
645.404	13.23
645.438	1.23
645.471	-4.77
645.505	7.23
645.539	7.23
645.572	-10.77
645.606	-3.77
645.64	10.23
645.673	-8.77
645.707	18.23
645.741	-3.77
645.774	-6.77
645.808	13.23
645.842	2.23
645.875	3.23
645.909	-15.77
645.943	-10.77
645.976	5.23
646.01	16.23
646.043	23.23
646.077	10.23
646.111	11.23
646.144	16.23
646.178	11.23
646.212	-3.77
646.245	-7.77
646.279	1.23
646.312	10.23
646.346	13.23
646.38	0.23
646.413	-3.77
646.447	-10.77
646.48	0.23
646.514	7.23
646.547	3.23
646.581	8.23
646.615	-5.77
646.648	-1.77
646.682	10.23
646.715	0.23
646.749	4.23
646.782	-8.77
646.816	3.23
646.85	-2.77
646.883	-13.77
646.917	14.23
646.95	12.23
646.984	11.23
647.017	-7.77
647.051	7.23
647.084	0.23
647.118	-10.77
647.151	-9.77
647.185	13.23
647.218	-19.77
647.252	8.23
647.285	3.23
647.319	-7.77
647.353	6.23
647.386	17.23
647.42	-6.77
647.453	-11.77
647.487	2.23
647.52	4.23
647.553	5.23
647.587	9.23
647.62	8.23
647.654	10.23
647.687	10.23
647.721	6.23
647.754	12.23
647.788	12.23
647.821	-9.77
647.855	4.23
647.888	7.23
647.922	12.23
647.955	-1.77
647.989	-4.77
648.022	1.23
648.055	4.23
648.089	5.23
648.122	17.23
648.156	5.23
648.189	-4.77
648.223	24.23
648.256	26.23
648.29	1.23
648.323	7.23
648.356	7.23
648.39	-4.77
648.423	-8.77
648.457	0.23
648.49	7.23
648.523	17.23
648.557	4.23
648.59	-2.77
648.624	-6.77
648.657	-4.77
648.69	29.23
648.724	-2.77
648.757	-1.77
648.791	14.23
648.824	-0.77
648.857	22.23
648.891	1.23
648.924	7.23
648.957	13.23
648.991	-5.77
649.024	22.23
649.057	3.23
649.091	0.23
649.124	14.23
649.158	16.23
649.191	16.23
649.224	8.23
649.258	9.23
649.291	-2.77
649.324	8.23
649.358	5.23
649.391	21.23
649.424	9.23
649.458	3.23
649.491	7.23
649.524	9.23
649.557	4.23
649.591	-15.77
649.624	12.23
649.657	-19.77
649.691	-1.77
649.724	15.23
649.757	-2.77
649.791	-0.77
649.824	5.23
649.857	25.23
649.89	11.23
649.924	-0.77
649.957	13.23
649.99	-4.77
650.023	-6.77
650.057	-8.77
650.09	-0.77
650.123	-0.77
650.157	27.23
650.19	11.23
650.223	5.23
650.256	1.23
650.29	0.23
650.323	-1.77
650.356	4.23
650.389	-9.77
650.423	-4.77
650.456	14.23
650.489	0.23
650.522	16.23
650.555	2.23
650.589	9.23
650.622	3.23
650.655	5.23
650.688	3.23
650.721	-11.77
650.755	2.23
650.788	6.23
650.821	2.23
650.854	-10.77
650.887	4.23
650.921	1.23
650.954	-9.77
650.987	-3.77
651.02	4.23
651.053	-14.77
651.087	-14.77
651.12	28.23
651.153	3.23
651.186	7.23
651.219	-14.77
651.252	19.23
651.286	0.23
651.319	-0.77
651.352	6.23
651.385	10.23
651.418	12.23
651.451	22.23
651.484	6.23
651.518	-1.77
651.551	23.23
651.584	-1.77
651.617	12.23
651.65	1.23
651.683	4.23
651.716	3.23
651.749	-1.77
651.783	-0.77
651.816	-14.77
651.849	-0.77
651.882	-0.77
651.915	-8.77
651.948	-3.77
651.981	0.23
652.014	-24.77
652.047	-24.77
652.08	-15.77
652.114	1.23
652.147	-18.77
652.18	-6.77
652.213	24.23
652.246	-20.77
652.279	-11.77
652.312	20.23
652.345	-2.77
652.378	8.23
652.411	21.23
652.444	5.23
652.477	6.23
652.51	2.23
652.543	-19.77
652.576	5.23
652.609	-3.77
652.642	2.23
652.675	-1.77
652.709	2.23
652.742	24.23
652.775	17.23
652.808	16.23
652.841	2.23
652.874	-3.77
652.907	14.23
652.94	12.23
652.973	-10.77
653.006	-0.77
653.039	2.23
653.072	2.23
653.105	-12.77
653.138	-10.77
653.171	5.23
653.204	-3.77
653.237	11.23
653.27	6.23
653.303	3.23
653.336	7.23
653.368	-16.77
653.401	-2.77
653.434	11.23
653.467	4.23
653.5	-13.77
653.533	-13.77
653.566	7.23
653.599	-4.77
653.632	4.23
653.665	6.23
653.698	6.23
653.731	3.23
653.764	6.23
653.797	-13.77
653.83	10.23
653.863	4.23
653.896	5.23
653.929	7.23
653.961	11.23
653.994	4.23
654.027	-0.77
654.06	-1.77
654.093	10.23
654.126	19.23
654.159	2.23
654.192	8.23
654.225	-3.77
654.258	-8.77
654.29	1.23
654.323	7.23
654.356	-3.77
654.389	-1.77
654.422	-7.77
654.455	3.23
654.488	8.23
654.521	-8.77
654.553	-7.77
654.586	-2.77
654.619	-7.77
654.652	5.23
654.685	7.23
654.718	31.23
654.751	18.23
654.783	11.23
654.816	1.23
654.849	3.23
654.882	-17.77
654.915	-7.77
654.948	23.23
654.98	-3.77
655.013	-3.77
655.046	-5.77
655.079	-5.77
655.112	3.23
655.144	-1.77
655.177	14.23
655.21	14.23
655.243	18.23
655.276	20.23
655.308	-6.77
655.341	-4.77
655.374	12.23
655.407	-3.77
655.44	-10.77
655.472	7.23
655.505	-10.77
655.538	-3.77
655.571	7.23
655.603	2.23
655.636	-7.77
655.669	8.23
655.702	6.23
655.734	-18.77
655.767	-14.77
655.8	-3.77
655.833	4.23
655.865	-5.77
655.898	-5.77
655.931	2.23
655.964	-0.77
655.996	2.23
656.029	2.23
656.062	-17.77
656.095	-14.77
656.127	-14.77
656.16	-4.77
656.193	-4.77
656.225	11.23
656.258	4.23
656.291	12.23
656.324	6.23
656.356	13.23
656.389	14.23
656.422	3.23
656.454	8.23
656.487	18.23
656.52	17.23
656.552	4.23
656.585	-9.77
656.618	21.23
656.65	15.23
656.683	9.23
656.716	15.23
656.748	3.23
656.781	-22.77
656.814	1.23
656.846	8.23
656.879	6.23
656.912	2.23
656.944	-19.77
656.977	-16.77
657.01	-0.77
657.042	14.23
657.075	12.23
657.108	-4.77
657.14	4.23
657.173	15.23
657.205	32.23
657.238	20.23
657.271	8.23
657.303	-16.77
657.336	7.23
657.369	6.23
657.401	2.23
657.434	7.23
657.466	-5.77
657.499	6.23
657.532	-0.77
657.564	11.23
657.597	11.23
657.629	4.23
657.662	-13.77
657.694	-13.77
657.727	-7.77
657.76	10.23
657.792	-4.77
657.825	-5.77
657.857	9.23
657.89	9.23
657.922	9.23
657.955	5.23
657.987	13.23
658.02	22.23
658.053	22.23
658.085	5.23
658.118	14.23
658.15	7.23
658.183	33.23
658.215	-0.77
658.248	2.23
658.28	-3.77
658.313	11.23
658.345	17.23
658.378	1.23
658.41	0.23
658.443	22.23
658.475	3.23
658.508	-7.77
658.54	-16.77
658.573	-25.77
658.605	19.23
658.638	6.23
658.67	9.23
658.703	5.23
658.735	-21.77
658.768	2.23
658.8	3.23
658.833	23.23
658.865	14.23
658.898	7.23
658.93	-11.77
658.963	-8.77
658.995	-7.77
659.028	-10.77
659.06	5.23
659.092	3.23
659.125	7.23
659.157	17.23
659.19	3.23
659.222	-11.77
659.255	-0.77
659.287	0.23
659.32	-3.77
659.352	0.23
659.384	4.23
659.417	16.23
659.449	8.23
659.482	10.23
659.514	-16.77
659.546	8.23
659.579	-21.77
659.611	8.23
659.644	-2.77
659.676	-17.77
659.708	6.23
659.741	-0.77
659.773	2.23
659.806	7.23
659.838	6.23
659.87	18.23
659.903	-3.77
659.935	10.23
659.967	2.23
660	12.23
660.032	-10.77
660.065	7.23
660.097	1.23
660.129	3.23
660.162	7.23
660.194	4.23
660.226	-4.77
660.259	10.23
660.291	-26.77
660.323	-6.77
660.356	6.23
660.388	-10.77
660.42	-9.77
660.453	27.23
660.485	17.23
660.517	11.23
660.55	3.23
660.582	3.23
660.614	5.23
660.647	1.23
660.679	1.23
660.711	2.23
660.743	-0.77
660.776	-5.77
660.808	-0.77
660.84	5.23
660.873	0.23
660.905	-5.77
660.937	4.23
660.969	-8.77
661.002	8.23
661.034	26.23
661.066	-0.77
661.099	4.23
661.131	16.23
661.163	4.23
661.195	-19.77
661.228	4.23
661.26	1.23
661.292	3.23
661.324	20.23
661.357	18.23
661.389	19.23
661.421	8.23
661.453	10.23
661.485	7.23
661.518	16.23
661.55	-7.77
661.582	4.23
661.614	-5.77
661.647	1.23
661.679	0.23
661.711	10.23
661.743	3.23
661.775	6.23
661.808	9.23
661.84	-20.77
661.872	-3.77
661.904	0.23
661.936	7.23
661.969	8.23
662.001	-1.77
662.033	7.23
662.065	0.23
662.097	-5.77
662.129	-1.77
662.162	-5.77
662.194	12.23
662.226	13.23
662.258	19.23
662.29	-8.77
662.322	-5.77
662.355	-20.77
662.387	26.23
662.419	22.23
662.451	11.23
662.483	5.23
662.515	0.23
662.547	8.23
662.58	-10.77
662.612	1.23
662.644	-4.77
662.676	14.23
662.708	16.23
662.74	9.23
662.772	3.23
662.804	2.23
662.836	14.23
662.869	5.23
662.901	-0.77
662.933	0.23
662.965	8.23
662.997	13.23
663.029	-4.77
663.061	-4.77
663.093	-20.77
663.125	2.23
663.157	8.23
663.189	-4.77
663.221	12.23
663.254	14.23
663.286	16.23
663.318	9.23
663.35	10.23
663.382	-2.77
663.414	2.23
663.446	3.23
663.478	-9.77
663.51	30.23
663.542	8.23
663.574	10.23
663.606	-2.77
663.638	-6.77
663.67	5.23
663.702	-4.77
663.734	-10.77
663.766	5.23
663.798	0.23
663.83	9.23
663.862	11.23
663.894	8.23
663.926	3.23
663.958	15.23
663.99	-0.77
664.022	-5.77
664.054	-2.77
664.086	9.23
664.118	-6.77
664.15	-13.77
664.182	-8.77
664.214	15.23
664.246	8.23
664.278	9.23
664.31	14.23
664.342	4.23
664.374	9.23
664.406	9.23
664.438	11.23
664.47	36.23
664.502	6.23
664.534	-0.77
664.566	-4.77
664.598	0.23
664.63	-12.77
664.662	8.23
664.693	2.23
664.725	-11.77
664.757	8.23
664.789	-9.77
664.821	22.23
664.853	0.23
664.885	9.23
664.917	3.23
664.949	7.23
664.981	27.23
665.013	5.23
665.045	-2.77
665.076	-4.77
665.108	2.23
665.14	4.23
665.172	19.23
665.204	0.23
665.236	18.23
665.268	15.23
665.3	5.23
665.331	-16.77
665.363	3.23
665.395	0.23
665.427	-11.77
665.459	9.23
665.491	-5.77
665.523	-2.77
665.555	10.23
665.586	2.23
665.618	7.23
665.65	-2.77
665.682	-4.77
665.714	0.23
665.746	-9.77
665.777	0.23
665.809	4.23
665.841	2.23
665.873	-5.77
665.905	-15.77
665.937	26.23
665.968	3.23
666	-3.77
666.032	2.23
666.064	-3.77
666.096	-10.77
666.127	19.23
666.159	16.23
666.191	4.23
666.223	3.23
666.255	2.23
666.286	2.23
666.318	6.23
666.35	13.23
666.382	13.23
666.413	0.23
666.445	-16.77
666.477	-9.77
666.509	-0.77
666.54	4.23
666.572	-3.77
666.604	-11.77
666.636	1.23
666.667	2.23
666.699	3.23
666.731	4.23
666.763	-6.77
666.794	4.23
666.826	18.23
666.858	-8.77
666.89	13.23
666.921	7.23
666.953	7.23
666.985	4.23
667.017	24.23
667.048	12.23
667.08	9.23
667.112	-2.77
667.143	-15.77
667.175	-0.77
667.207	-0.77
667.238	-3.77
667.27	-7.77
667.302	5.23
667.334	2.23
667.365	25.23
667.397	14.23
667.429	-5.77
667.46	19.23
667.492	12.23
667.524	5.23
667.555	-3.77
667.587	10.23
667.619	-6.77
667.65	-12.77
667.682	6.23
667.714	8.23
667.745	12.23
667.777	5.23
667.808	13.23
667.84	4.23
667.872	-3.77
667.903	14.23
667.935	-10.77
667.967	13.23
667.998	8.23
668.03	-5.77
668.061	11.23
668.093	0.23
668.125	14.23
668.156	3.23
668.188	5.23
668.22	-8.77
668.251	17.23
668.283	18.23
668.314	3.23
668.346	9.23
668.377	14.23
668.409	5.23
668.441	9.23
668.472	16.23
668.504	18.23
668.535	16.23
668.567	7.23
668.599	6.23
668.63	-0.77
668.662	2.23
668.693	21.23
668.725	-0.77
668.756	-0.77
668.788	5.23
668.819	4.23
668.851	-2.77
668.882	1.23
668.914	-1.77
668.946	-8.77
668.977	4.23
669.009	-7.77
669.04	-8.77
669.072	-6.77
669.103	-1.77
669.135	-14.77
669.166	-2.77
669.198	-1.77
669.229	7.23
669.261	2.23
669.292	8.23
669.324	-2.77
669.355	-3.77
669.387	-4.77
669.418	10.23
669.45	-4.77
669.481	17.23
669.513	14.23
669.544	17.23
669.576	-3.77
669.607	3.23
669.639	19.23
669.67	-10.77
669.701	2.23
669.733	-10.77
669.764	2.23
669.796	-15.77
669.827	-6.77
669.859	4.23
669.89	-0.77
669.922	5.23
669.953	12.23
669.985	11.23
670.016	11.23
670.047	4.23
670.079	7.23
670.11	15.23
670.142	2.23
670.173	-8.77
670.204	-8.77
670.236	10.23
670.267	-18.77
670.299	8.23
670.33	-2.77
670.362	6.23
670.393	11.23
670.424	35.23
670.456	3.23
670.487	5.23
670.518	-1.77
670.55	1.23
670.581	-5.77
670.613	1.23
670.644	-4.77
670.675	-5.77
670.707	-5.77
670.738	-6.77
670.769	-18.77
670.801	-1.77
670.832	15.23
670.864	-9.77
670.895	6.23
670.926	-7.77
670.958	-10.77
670.989	-13.77
671.02	0.23
671.052	10.23
671.083	6.23
671.114	-1.77
671.146	10.23
671.177	9.23
671.208	-7.77
671.24	-33.77
671.271	-8.77
671.302	4.23
671.333	-6.77
671.365	-9.77
671.396	-6.77
671.427	3.23
671.459	6.23
671.49	7.23
671.521	5.23
671.553	-11.77
671.584	9.23
671.615	-7.77
671.646	9.23
671.678	5.23
671.709	0.23
671.74	-19.77
671.771	-14.77
671.803	5.23
671.834	7.23
671.865	-1.77
671.896	-2.77
671.928	2.23
671.959	-9.77
671.99	1.23
672.021	-0.77
672.053	-8.77
672.084	15.23
672.115	1.23
672.146	2.23
672.178	-13.77
672.209	1.23
672.24	6.23
672.271	36.23
672.303	7.23
672.334	-8.77
672.365	-2.77
672.396	-7.77
672.427	-0.77
672.459	11.23
672.49	7.23
672.521	0.23
672.552	10.23
672.583	8.23
672.615	16.23
672.646	12.23
672.677	2.23
672.708	3.23
672.739	1.23
672.77	14.23
672.802	13.23
672.833	0.23
672.864	-5.77
672.895	-0.77
672.926	-16.77
672.957	-23.77
672.989	-17.77
673.02	11.23
673.051	2.23
673.082	33.23
673.113	3.23
673.144	5.23
673.175	4.23
673.206	-0.77
673.238	-10.77
673.269	-10.77
673.3	-9.77
673.331	13.23
673.362	5.23
673.393	-3.77
673.424	12.23
673.455	7.23
673.487	-10.77
673.518	8.23
673.549	2.23
673.58	-0.77
673.611	-1.77
673.642	-5.77
673.673	-9.77
673.704	9.23
673.735	-2.77
673.766	-5.77
673.797	-0.77
673.828	10.23
673.86	-5.77
673.891	-8.77
673.922	-12.77
673.953	0.23
673.984	-5.77
674.015	8.23
674.046	1.23
674.077	9.23
674.108	-1.77
674.139	-17.77
674.17	-12.77
674.201	-8.77
674.232	2.23
674.263	0.23
674.294	2.23
674.325	-12.77
674.356	-3.77
674.387	13.23
674.418	-1.77
674.449	-8.77
674.48	-13.77
674.511	-12.77
674.542	10.23
674.573	-4.77
674.604	12.23
674.635	14.23
674.666	11.23
674.697	0.23
674.728	2.23
674.759	-10.77
674.79	-0.77
674.821	0.23
674.852	-6.77
674.883	-12.77
674.914	-3.77
674.945	10.23
674.976	19.23
675.007	0.23
675.038	2.23
675.069	-12.77
675.1	-11.77
675.131	-0.77
675.162	-19.77
675.193	-1.77
675.224	2.23
675.254	10.23
675.285	-4.77
675.316	12.23
675.347	17.23
675.378	-14.77
675.409	-10.77
675.44	20.23
675.471	-5.77
675.502	-5.77
675.533	5.23
675.564	1.23
675.595	-19.77
675.625	11.23
675.656	15.23
675.687	8.23
675.718	-9.77
675.749	0.23
675.78	5.23
675.811	-11.77
675.842	1.23
675.873	-1.77
675.903	-10.77
675.934	-14.77
675.965	-14.77
675.996	-5.77
676.027	1.23
676.058	5.23
676.089	-24.77
676.119	6.23
676.15	15.23
676.181	3.23
676.212	-17.77
676.243	-1.77
676.274	-4.77
676.304	2.23
676.335	-8.77
676.366	6.23
676.397	-0.77
676.428	6.23
676.459	12.23
676.489	3.23
676.52	3.23
676.551	-5.77
676.582	-16.77
676.613	2.23
676.643	-9.77
676.674	0.23
676.705	-4.77
676.736	15.23
676.767	12.23
676.797	18.23
676.828	0.23
676.859	-9.77
676.89	3.23
676.92	15.23
676.951	-5.77
676.982	2.23
677.013	2.23
677.044	22.23
677.074	27.23
677.105	-2.77
677.136	-0.77
677.167	-11.77
677.197	10.23
677.228	-23.77
677.259	-16.77
677.289	-5.77
677.32	-7.77
677.351	-3.77
677.382	-5.77
677.412	-8.77
677.443	-2.77
677.474	6.23
677.505	-10.77
677.535	-7.77
677.566	0.23
677.597	-19.77
677.627	-0.77
677.658	-5.77
677.689	3.23
677.72	-20.77
677.75	4.23
677.781	13.23
677.812	11.23
677.842	6.23
677.873	10.23
677.904	3.23
677.934	-10.77
677.965	2.23
677.996	-1.77
678.026	-0.77
678.057	-2.77
678.088	-16.77
678.118	-20.77
678.149	-5.77
678.18	-1.77
678.21	-3.77
678.241	-9.77
678.272	6.23
678.302	3.23
678.333	10.23
678.363	12.23
678.394	2.23
678.425	9.23
678.455	21.23
678.486	4.23
678.517	5.23
678.547	1.23
678.578	1.23
678.608	-11.77
678.639	1.23
678.67	0.23
678.7	-15.77
678.731	0.23
678.761	5.23
678.792	-4.77
678.823	-1.77
678.853	1.23
678.884	-13.77
678.914	9.23
678.945	20.23
678.975	9.23
679.006	-10.77
679.037	-9.77
679.067	4.23
679.098	1.23
679.128	8.23
679.159	-0.77
679.189	9.23
679.22	-3.77
679.25	15.23
679.281	10.23
679.312	12.23
679.342	9.23
679.373	23.23
679.403	15.23
679.434	3.23
679.464	-6.77
679.495	-0.77
679.525	7.23
679.556	-11.77
679.586	-5.77
679.617	1.23
679.647	-3.77
679.678	2.23
679.708	-2.77
679.739	5.23
679.769	-12.77
679.8	-9.77
679.83	-3.77
679.861	15.23
679.891	-1.77
679.922	-5.77
679.952	-14.77
679.983	11.23
680.013	6.23
680.044	4.23
680.074	12.23
680.105	-3.77
680.135	3.23
680.165	16.23
680.196	12.23
680.226	9.23
680.257	10.23
680.287	-0.77
680.318	-1.77
680.348	-8.77
680.379	-1.77
680.409	0.23
680.439	17.23
680.47	3.23
680.5	1.23
680.531	-2.77
680.561	11.23
680.592	17.23
680.622	22.23
680.652	-2.77
680.683	18.23
680.713	0.23
680.744	-5.77
680.774	-6.77
680.804	16.23
680.835	3.23
680.865	-3.77
680.896	25.23
680.926	-1.77
680.956	9.23
680.987	-2.77
681.017	3.23
681.047	5.23
681.078	1.23
681.108	9.23
681.139	16.23
681.169	-0.77
681.199	-3.77
681.23	11.23
681.26	1.23
681.29	4.23
681.321	-13.77
681.351	3.23
681.381	-16.77
681.412	2.23
681.442	9.23
681.472	7.23
681.503	22.23
681.533	14.23
681.563	4.23
681.594	4.23
681.624	0.23
681.654	-4.77
681.685	4.23
681.715	2.23
681.745	-0.77
681.775	1.23
681.806	-8.77
681.836	18.23
681.866	-10.77
681.897	-3.77
681.927	-9.77
681.957	-22.77
681.987	-9.77
682.018	6.23
682.048	12.23
682.078	13.23
682.109	25.23
682.139	11.23
682.169	9.23
682.199	10.23
682.23	-0.77
682.26	13.23
682.29	-0.77
682.32	9.23
682.351	14.23
682.381	13.23
682.411	2.23
682.441	7.23
682.472	-16.77
682.502	2.23
682.532	-11.77
682.562	-0.77
682.592	4.23
682.623	8.23
682.653	-6.77
682.683	-6.77
682.713	0.23
682.743	1.23
682.774	-9.77
682.804	-0.77
682.834	21.23
682.864	9.23
682.894	7.23
682.925	-5.77
682.955	-2.77
682.985	-5.77
683.015	0.23
683.045	13.23
683.076	1.23
683.106	7.23
683.136	7.23
683.166	-6.77
683.196	-5.77
683.226	1.23
683.257	-1.77
683.287	-9.77
683.317	-4.77
683.347	-3.77
683.377	-7.77
683.407	5.23
683.437	-4.77
683.468	1.23
683.498	-5.77
683.528	-10.77
683.558	-2.77
683.588	-3.77
683.618	-17.77
683.648	-2.77
683.678	4.23
683.708	24.23
683.739	-3.77
683.769	-3.77
683.799	4.23
683.829	-0.77
683.859	-4.77
683.889	18.23
683.919	2.23
683.949	2.23
683.979	0.23
684.009	-3.77
684.039	-7.77
684.07	-1.77
684.1	32.23
684.13	7.23
684.16	5.23
684.19	-0.77
684.22	-2.77
684.25	4.23
684.28	10.23
684.31	8.23
684.34	24.23
684.37	10.23
684.4	5.23
684.43	16.23
684.46	-2.77
684.49	14.23
684.52	3.23
684.55	16.23
684.58	2.23
684.61	4.23
684.64	2.23
684.67	5.23
684.7	0.23
684.73	12.23
684.76	12.23
684.79	13.23
684.82	-8.77
684.85	-8.77
684.88	2.23
684.91	7.23
684.94	1.23
684.97	-0.77
685	-6.77
685.03	7.23
685.06	1.23
685.09	3.23
685.12	8.23
685.15	-24.77
685.18	4.23
685.21	7.23
685.24	-5.77
685.27	17.23
685.3	5.23
685.33	-5.77
685.36	4.23
685.39	1.23
685.42	-11.77
685.45	10.23
685.48	9.23
685.51	2.23
685.54	15.23
685.569	7.23
685.599	6.23
685.629	10.23
685.659	2.23
685.689	-15.77
685.719	-7.77
685.749	-2.77
685.779	20.23
685.809	12.23
685.839	1.23
685.869	10.23
685.898	34.23
685.928	11.23
685.958	5.23
685.988	7.23
686.018	11.23
686.048	10.23
686.078	7.23
686.108	10.23
686.137	3.23
686.167	2.23
686.197	4.23
686.227	18.23
686.257	24.23
686.287	6.23
686.317	-6.77
686.346	-14.77
686.376	9.23
686.406	-5.77
686.436	-0.77
686.466	-4.77
686.496	-7.77
686.525	-8.77
686.555	1.23
686.585	16.23
686.615	30.23
686.645	-2.77
686.675	12.23
686.704	12.23
686.734	8.23
686.764	2.23
686.794	8.23
686.824	5.23
686.853	11.23
686.883	4.23
686.913	15.23
686.943	-2.77
686.973	-3.77
687.002	1.23
687.032	10.23
687.062	-6.77
687.092	20.23
687.121	5.23
687.151	-9.77
687.181	-2.77
687.211	15.23
687.24	4.23
687.27	0.23
687.3	-5.77
687.33	13.23
687.359	-14.77
687.389	-0.77
687.419	-0.77
687.449	-5.77
687.478	9.23
687.508	-0.77
687.538	14.23
687.568	23.23
687.597	-4.77
687.627	4.23
687.657	12.23
687.686	12.23
687.716	18.23
687.746	-7.77
687.776	-0.77
687.805	18.23
687.835	-8.77
687.865	19.23
687.894	14.23
687.924	-6.77
687.954	-5.77
687.983	7.23
688.013	2.23
688.043	18.23
688.072	2.23
688.102	13.23
688.132	0.23
688.161	3.23
688.191	-0.77
688.221	27.23
688.25	-6.77
688.28	6.23
688.31	11.23
688.339	-11.77
688.369	2.23
688.399	-12.77
688.428	2.23
688.458	8.23
688.488	-6.77
688.517	10.23
688.547	1.23
688.576	24.23
688.606	13.23
688.636	1.23
688.665	0.23
688.695	16.23
688.725	20.23
688.754	5.23
688.784	7.23
688.813	27.23
688.843	-1.77
688.873	-5.77
688.902	1.23
688.932	5.23
688.961	6.23
688.991	10.23
689.02	7.23
689.05	10.23
689.08	8.23
689.109	8.23
689.139	-9.77
689.168	7.23
689.198	0.23
689.227	-1.77
689.257	15.23
689.287	11.23
689.316	-4.77
689.346	-11.77
689.375	-1.77
689.405	10.23
689.434	-4.77
689.464	13.23
689.493	1.23
689.523	4.23
689.552	3.23
689.582	10.23
689.611	11.23
689.641	5.23
689.67	-2.77
689.7	1.23
689.73	20.23
689.759	1.23
689.789	5.23
689.818	-3.77
689.848	0.23
689.877	2.23
689.906	0.23
689.936	-16.77
689.965	13.23
689.995	5.23
690.024	15.23
690.054	-7.77
690.083	9.23
690.113	7.23
690.142	18.23
690.172	-10.77
690.201	8.23
690.231	2.23
690.26	16.23
690.29	20.23
690.319	6.23
690.348	4.23
690.378	-3.77
690.407	7.23
690.437	-5.77
690.466	3.23
690.496	-6.77
690.525	10.23
690.555	-0.77
690.584	7.23
690.613	4.23
690.643	6.23
690.672	3.23
690.702	-1.77
690.731	17.23
690.76	38.23
690.79	58.23
690.819	33.23
690.849	35.23
690.878	28.23
690.907	24.23
690.937	16.23
690.966	12.23
690.996	1.23
691.025	1.23
691.054	-3.77
691.084	3.23
691.113	4.23
691.142	3.23
691.172	8.23
691.201	16.23
691.23	12.23
691.26	7.23
691.289	-0.77
691.319	10.23
691.348	25.23
691.377	18.23
691.407	3.23
691.436	13.23
691.465	-0.77
691.495	-0.77
691.524	-4.77
691.553	2.23
691.583	5.23
691.612	8.23
691.641	-3.77
691.67	8.23
691.7	5.23
691.729	2.23
691.758	8.23
691.788	7.23
691.817	2.23
691.846	11.23
691.876	11.23
691.905	0.23
691.934	-10.77
691.963	21.23
691.993	6.23
692.022	-8.77
692.051	-13.77
692.081	4.23
692.11	23.23
692.139	7.23
692.168	10.23
692.198	8.23
692.227	-0.77
692.256	16.23
692.285	24.23
692.315	10.23
692.344	15.23
692.373	7.23
692.402	1.23
692.432	-8.77
692.461	-1.77
692.49	3.23
692.519	6.23
692.548	15.23
692.578	18.23
692.607	-0.77
692.636	-3.77
692.665	2.23
692.694	1.23
692.724	4.23
692.753	13.23
692.782	15.23
692.811	-19.77
692.84	-5.77
692.87	13.23
692.899	-2.77
692.928	0.23
692.957	19.23
692.986	14.23
693.016	-6.77
693.045	2.23
693.074	14.23
693.103	12.23
693.132	18.23
693.161	16.23
693.191	0.23
693.22	-15.77
693.249	12.23
693.278	11.23
693.307	4.23
693.336	-4.77
693.365	-10.77
693.395	4.23
693.424	-1.77
693.453	-2.77
693.482	7.23
693.511	4.23
693.54	6.23
693.569	13.23
693.598	1.23
693.628	0.23
693.657	8.23
693.686	14.23
693.715	27.23
693.744	24.23
693.773	17.23
693.802	4.23
693.831	-5.77
693.86	21.23
693.889	1.23
693.919	-3.77
693.948	-0.77
693.977	5.23
694.006	-6.77
694.035	15.23
694.064	0.23
694.093	6.23
694.122	-5.77
694.151	-7.77
694.18	10.23
694.209	17.23
694.238	1.23
694.267	30.23
694.296	0.23
694.325	-1.77
694.354	11.23
694.383	11.23
694.412	21.23
694.441	3.23
694.471	6.23
694.5	-8.77
694.529	2.23
694.558	9.23
694.587	6.23
694.616	-9.77
694.645	2.23
694.674	23.23
694.703	11.23
694.732	8.23
694.761	33.23
694.79	26.23
694.819	-14.77
694.848	7.23
694.877	30.23
694.906	31.23
694.935	20.23
694.963	25.23
694.992	12.23
695.021	1.23
695.05	22.23
695.079	12.23
695.108	-2.77
695.137	21.23
695.166	8.23
695.195	6.23
695.224	14.23
695.253	-1.77
695.282	5.23
695.311	23.23
695.34	3.23
695.369	17.23
695.398	9.23
695.427	36.23
695.456	8.23
695.485	13.23
695.513	0.23
695.542	-1.77
695.571	-0.77
695.6	24.23
695.629	5.23
695.658	24.23
695.687	4.23
695.716	15.23
695.745	13.23
695.774	-10.77
695.802	11.23
695.831	16.23
695.86	26.23
695.889	24.23
695.918	15.23
695.947	-3.77
695.976	5.23
696.005	3.23
696.033	4.23
696.062	13.23
696.091	12.23
696.12	10.23
696.149	19.23
696.178	6.23
696.207	20.23
696.235	-1.77
696.264	5.23
696.293	8.23
696.322	5.23
696.351	10.23
696.38	-1.77
696.408	9.23
696.437	7.23
696.466	8.23
696.495	20.23
696.524	21.23
696.553	10.23
696.581	3.23
696.61	-2.77
696.639	0.23
696.668	15.23
696.697	12.23
696.725	11.23
696.754	4.23
696.783	2.23
696.812	2.23
696.84	14.23
696.869	13.23
696.898	8.23
696.927	2.23
696.956	24.23
696.984	2.23
697.013	14.23
697.042	13.23
697.071	12.23
697.099	10.23
697.128	-0.77
697.157	14.23
697.186	-0.77
697.214	2.23
697.243	2.23
697.272	-4.77
697.301	7.23
697.329	12.23
697.358	16.23
697.387	26.23
697.415	14.23
697.444	17.23
697.473	5.23
697.502	9.23
697.53	14.23
697.559	1.23
697.588	-0.77
697.616	0.23
697.645	-4.77
697.674	17.23
697.703	6.23
697.731	26.23
697.76	12.23
697.789	8.23
697.817	12.23
697.846	17.23
697.875	17.23
697.903	13.23
697.932	10.23
697.961	8.23
697.989	7.23
698.018	14.23
698.047	8.23
698.075	3.23
698.104	8.23
698.133	10.23
698.161	3.23
698.19	12.23
698.218	-5.77
698.247	20.23
698.276	-4.77
698.304	17.23
698.333	-0.77
698.362	9.23
698.39	0.23
698.419	13.23
698.447	20.23
698.476	5.23
698.505	14.23
698.533	17.23
698.562	2.23
698.591	-14.77
698.619	4.23
698.648	12.23
698.676	6.23
698.705	-6.77
698.733	-2.77
698.762	10.23
698.791	-6.77
698.819	5.23
698.848	9.23
698.876	11.23
698.905	11.23
698.933	13.23
698.962	10.23
698.991	9.23
699.019	24.23
699.048	1.23
699.076	-2.77
699.105	3.23
699.133	6.23
699.162	11.23
699.19	25.23
699.219	12.23
699.248	0.23
699.276	-0.77
699.305	1.23
699.333	17.23
699.362	-4.77
699.39	2.23
699.419	-7.77
699.447	-1.77
699.476	4.23
699.504	4.23
699.533	-5.77
699.561	1.23
699.59	14.23
699.618	9.23
699.647	12.23
699.675	-6.77
699.704	6.23
699.732	10.23
699.761	1.23
699.789	-1.77
699.818	12.23
699.846	-2.77
699.874	12.23
699.903	7.23
699.931	7.23
699.96	0.23
699.988	-14.77
700.017	4.23
700.045	-7.77
700.074	2.23
700.102	-5.77
700.13	3.23
700.159	8.23
700.187	14.23
700.216	3.23
700.244	-5.77
700.273	-5.77
700.301	-21.77
700.329	0.23
700.358	10.23
700.386	7.23
700.415	1.23
700.443	-1.77
700.472	7.23
700.5	17.23
700.528	17.23
700.557	9.23
700.585	-5.77
700.614	13.23
700.642	21.23
700.67	34.23
700.699	23.23
700.727	-5.77
700.755	7.23
700.784	19.23
700.812	-4.77
700.841	19.23
700.869	-11.77
700.897	-14.77
700.926	10.23
700.954	-0.77
700.982	14.23
701.011	3.23
701.039	-10.77
701.067	-8.77
701.096	9.23
701.124	5.23
701.152	17.23
701.181	5.23
701.209	-3.77
701.237	19.23
701.266	1.23
701.294	-12.77
701.322	20.23
701.351	17.23
701.379	0.23
701.407	-4.77
701.435	-0.77
701.464	3.23
701.492	33.23
701.52	5.23
701.549	-5.77
701.577	-10.77
701.605	5.23
701.634	11.23
701.662	4.23
701.69	-9.77
701.718	-16.77
701.747	7.23
701.775	3.23
701.803	-11.77
701.831	9.23
701.86	4.23
701.888	3.23
701.916	-6.77
701.944	-6.77
701.973	-9.77
702.001	0.23
702.029	0.23
702.057	-8.77
702.086	1.23
702.114	-13.77
702.142	4.23
702.17	-3.77
702.199	3.23
702.227	3.23
702.255	-5.77
702.283	4.23
702.311	7.23
702.34	-8.77
702.368	4.23
702.396	11.23
702.424	13.23
702.452	-1.77
702.481	-7.77
702.509	-3.77
702.537	7.23
702.565	8.23
702.593	-12.77
702.621	4.23
702.65	12.23
702.678	-0.77
702.706	18.23
702.734	7.23
702.762	22.23
702.79	4.23
702.819	9.23
702.847	6.23
702.875	23.23
702.903	15.23
702.931	1.23
702.959	5.23
702.988	9.23
703.016	4.23
703.044	9.23
703.072	7.23
703.1	-4.77
703.128	-9.77
703.156	-1.77
703.184	-6.77
703.212	10.23
703.241	-15.77
703.269	-0.77
703.297	4.23
703.325	10.23
703.353	-17.77
703.381	-3.77
703.409	-3.77
703.437	-5.77
703.465	-8.77
703.493	0.23
703.522	-0.77
703.55	18.23
703.578	3.23
703.606	3.23
703.634	-4.77
703.662	-4.77
703.69	9.23
703.718	12.23
703.746	8.23
703.774	-1.77
703.802	22.23
703.83	-10.77
703.858	3.23
703.886	-5.77
703.914	-9.77
703.942	6.23
703.97	-9.77
703.998	-14.77
704.027	23.23
704.055	10.23
704.083	7.23
704.111	-4.77
704.139	8.23
704.167	7.23
704.195	-1.77
704.223	-5.77
704.251	-4.77
704.279	15.23
704.307	10.23
704.335	-4.77
704.363	-8.77
704.391	-5.77
704.419	2.23
704.447	-4.77
704.475	2.23
704.503	-12.77
704.531	3.23
704.558	-1.77
704.586	11.23
704.614	-2.77
704.642	7.23
704.67	-14.77
704.698	-3.77
704.726	-0.77
704.754	4.23
704.782	3.23
704.81	3.23
704.838	21.23
704.866	14.23
704.894	-3.77
704.922	-3.77
704.95	4.23
704.978	22.23
705.006	20.23
705.034	11.23
705.061	-16.77
705.089	-6.77
705.117	-4.77
705.145	8.23
705.173	5.23
705.201	-3.77
705.229	15.23
705.257	9.23
705.285	13.23
705.313	12.23
705.34	-1.77
705.368	3.23
705.396	4.23
705.424	10.23
705.452	-3.77
705.48	2.23
705.508	-9.77
705.536	1.23
705.563	8.23
705.591	15.23
705.619	9.23
705.647	-4.77
705.675	-4.77
705.703	-5.77
705.731	-1.77
705.758	0.23
705.786	-11.77
705.814	23.23
705.842	-1.77
705.87	17.23
705.898	17.23
705.925	-15.77
705.953	-1.77
705.981	9.23
706.009	-2.77
706.037	1.23
706.065	11.23
706.092	-3.77
706.12	5.23
706.148	13.23
706.176	-8.77
706.204	3.23
706.231	14.23
706.259	-1.77
706.287	-1.77
706.315	13.23
706.342	2.23
706.37	3.23
706.398	-2.77
706.426	-1.77
706.454	-0.77
706.481	18.23
706.509	-0.77
706.537	-0.77
706.565	11.23
706.592	17.23
706.62	0.23
706.648	-5.77
706.676	-18.77
706.703	0.23
706.731	1.23
706.759	-3.77
706.787	-0.77
706.814	1.23
706.842	0.23
706.87	-0.77
706.897	4.23
706.925	2.23
706.953	17.23
706.981	4.23
707.008	10.23
707.036	-3.77
707.064	7.23
707.091	-21.77
707.119	7.23
707.147	10.23
707.174	-6.77
707.202	-1.77
707.23	-19.77
707.258	-4.77
707.285	-4.77
707.313	3.23
707.341	0.23
707.368	-7.77
707.396	6.23
707.424	22.23
707.451	-9.77
707.479	-10.77
707.507	-5.77
707.534	-6.77
707.562	-0.77
707.59	1.23
707.617	-2.77
707.645	1.23
707.672	-0.77
707.7	3.23
707.728	23.23
707.755	-8.77
707.783	-1.77
707.811	-15.77
707.838	-7.77
707.866	-7.77
707.893	3.23
707.921	-1.77
707.949	-8.77
707.976	0.23
708.004	11.23
708.031	8.23
708.059	-1.77
708.087	-1.77
708.114	-12.77
708.142	2.23
708.169	1.23
708.197	-8.77
708.225	20.23
708.252	13.23
708.28	21.23
708.307	11.23
708.335	4.23
708.362	6.23
708.39	6.23
708.418	5.23
708.445	3.23
708.473	-11.77
708.5	-4.77
708.528	14.23
708.555	7.23
708.583	-4.77
708.61	-1.77
708.638	-6.77
708.665	-23.77
708.693	-6.77
708.72	-7.77
708.748	-15.77
708.776	2.23
708.803	3.23
708.831	9.23
708.858	6.23
708.886	-3.77
708.913	1.23
708.941	-12.77
708.968	-3.77
708.996	-4.77
709.023	15.23
709.051	5.23
709.078	-5.77
709.105	4.23
709.133	-6.77
709.16	-3.77
709.188	31.23
709.215	21.23
709.243	14.23
709.27	1.23
709.298	11.23
709.325	-6.77
709.353	-4.77
709.38	8.23
709.408	17.23
709.435	13.23
709.462	-0.77
709.49	6.23
709.517	-1.77
709.545	-6.77
709.572	-7.77
709.6	-8.77
709.627	10.23
709.655	-3.77
709.682	-7.77
709.709	-2.77
709.737	-5.77
709.764	-9.77
709.792	-3.77
709.819	-2.77
709.846	-3.77
709.874	4.23
709.901	11.23
709.929	8.23
709.956	-4.77
709.983	-1.77
710.011	0.23
710.038	-4.77
710.066	8.23
710.093	13.23
710.12	3.23
710.148	-7.77
710.175	-10.77
710.202	-17.77
710.23	-2.77
710.257	9.23
710.284	8.23
710.312	-5.77
710.339	3.23
710.366	-4.77
710.394	11.23
710.421	-1.77
710.448	-7.77
710.476	-11.77
710.503	11.23
710.53	20.23
710.558	13.23
710.585	11.23
710.612	3.23
710.64	-4.77
710.667	8.23
710.694	9.23
710.722	0.23
710.749	-6.77
710.776	10.23
710.804	9.23
710.831	-0.77
710.858	-0.77
710.885	-2.77
710.913	2.23
710.94	4.23
710.967	2.23
710.995	1.23
711.022	1.23
711.049	9.23
711.076	-6.77
711.104	1.23
711.131	-21.77
711.158	7.23
711.185	10.23
711.213	-20.77
711.24	-4.77
711.267	-3.77
711.294	-5.77
711.322	1.23
711.349	-1.77
711.376	-3.77
711.403	1.23
711.431	-17.77
711.458	-4.77
711.485	-1.77
711.512	6.23
711.54	-2.77
711.567	-2.77
711.594	-2.77
711.621	-6.77
711.648	-6.77
711.676	2.23
711.703	10.23
711.73	-13.77
711.757	-1.77
711.784	-10.77
711.812	10.23
711.839	2.23
711.866	-1.77
711.893	12.23
711.92	13.23
711.947	9.23
711.975	30.23
712.002	11.23
712.029	10.23
712.056	3.23
712.083	-4.77
712.11	-12.77
712.138	-3.77
712.165	6.23
712.192	9.23
712.219	-4.77
712.246	-5.77
712.273	-7.77
712.3	-12.77
712.328	15.23
712.355	4.23
712.382	-8.77
712.409	15.23
712.436	-12.77
712.463	10.23
712.49	13.23
712.517	-1.77
712.544	-21.77
712.572	-0.77
712.599	-1.77
712.626	24.23
712.653	-1.77
712.68	-6.77
712.707	19.23
712.734	-1.77
712.761	5.23
712.788	10.23
712.815	3.23
712.842	13.23
712.87	11.23
712.897	-9.77
712.924	-1.77
712.951	-5.77
712.978	7.23
713.005	12.23
713.032	25.23
713.059	18.23
713.086	4.23
713.113	-18.77
713.14	-8.77
713.167	-6.77
713.194	1.23
713.221	-1.77
713.248	-10.77
713.275	-8.77
713.302	-7.77
713.329	-5.77
713.356	4.23
713.383	19.23
713.41	14.23
713.437	-7.77
713.464	14.23
713.491	20.23
713.518	17.23
713.545	9.23
713.572	-5.77
713.599	12.23
713.626	6.23
713.653	9.23
713.68	7.23
713.707	-3.77
713.734	6.23
713.761	2.23
713.788	11.23
713.815	9.23
713.842	1.23
713.869	-0.77
713.896	8.23
713.923	0.23
713.95	-7.77
713.977	-0.77
714.004	3.23
714.031	1.23
714.058	-3.77
714.085	-3.77
714.112	15.23
714.139	9.23
714.165	-4.77
714.192	-12.77
714.219	9.23
714.246	10.23
714.273	23.23
714.3	2.23
714.327	6.23
714.354	5.23
714.381	-0.77
714.408	17.23
714.435	-7.77
714.461	1.23
714.488	16.23
714.515	0.23
714.542	-5.77
714.569	-3.77
714.596	-0.77
714.623	3.23
714.65	-5.77
714.677	0.23
714.703	10.23
714.73	21.23
714.757	10.23
714.784	10.23
714.811	-12.77
714.838	-1.77
714.865	3.23
714.891	11.23
714.918	3.23
714.945	-10.77
714.972	-0.77
714.999	10.23
715.026	-0.77
715.052	12.23
715.079	3.23
715.106	6.23
715.133	8.23
715.16	-13.77
715.187	8.23
715.213	24.23
715.24	0.23
715.267	-5.77
715.294	-3.77
715.321	-8.77
715.347	10.23
715.374	1.23
715.401	-1.77
715.428	2.23
715.455	3.23
715.481	1.23
715.508	5.23
715.535	2.23
715.562	23.23
715.588	-3.77
715.615	-1.77
715.642	-5.77
715.669	7.23
715.695	-1.77
715.722	2.23
715.749	-5.77
715.776	17.23
715.802	11.23
715.829	0.23
715.856	-5.77
715.883	11.23
715.909	-11.77
715.936	-10.77
715.963	17.23
715.99	-5.77
716.016	-0.77
716.043	9.23
716.07	-4.77
716.096	-17.77
716.123	-3.77
716.15	4.23
716.177	0.23
716.203	10.23
716.23	19.23
716.257	23.23
716.283	24.23
716.31	0.23
716.337	4.23
716.363	0.23
716.39	9.23
716.417	20.23
716.443	7.23
716.47	8.23
716.497	11.23
716.523	5.23
716.55	-1.77
716.577	9.23
716.603	5.23
716.63	-0.77
716.657	21.23
716.683	-11.77
716.71	-10.77
716.737	2.23
716.763	19.23
716.79	-5.77
716.817	5.23
716.843	15.23
716.87	-3.77
716.897	2.23
716.923	12.23
716.95	-18.77
716.976	-17.77
717.003	-3.77
717.03	-1.77
717.056	3.23
717.083	-1.77
717.109	-5.77
717.136	11.23
717.163	-5.77
717.189	4.23
717.216	3.23
717.242	-5.77
717.269	-12.77
717.296	20.23
717.322	18.23
717.349	15.23
717.375	5.23
717.402	-16.77
717.428	3.23
717.455	-0.77
717.481	-1.77
717.508	-8.77
717.535	10.23
717.561	20.23
717.588	-1.77
717.614	-3.77
717.641	-0.77
717.667	0.23
717.694	9.23
717.72	-0.77
717.747	8.23
717.773	4.23
717.8	18.23
717.826	11.23
717.853	8.23
717.88	3.23
717.906	-6.77
717.933	16.23
717.959	11.23
717.986	4.23
718.012	-0.77
718.039	17.23
718.065	18.23
718.092	9.23
718.118	3.23
718.144	7.23
718.171	18.23
718.197	17.23
718.224	7.23
718.25	0.23
718.277	15.23
718.303	8.23
718.33	-1.77
718.356	-15.77
718.383	-13.77
718.409	-4.77
718.436	10.23
718.462	3.23
718.489	-7.77
718.515	18.23
718.541	16.23
718.568	19.23
718.594	23.23
718.621	-0.77
718.647	-3.77
718.674	12.23
718.7	-3.77
718.726	-0.77
718.753	5.23
718.779	6.23
718.806	4.23
718.832	-2.77
718.858	-7.77
718.885	2.23
718.911	12.23
718.938	27.23
718.964	3.23
718.99	4.23
719.017	0.23
719.043	7.23
719.07	10.23
719.096	-9.77
719.122	11.23
719.149	1.23
719.175	4.23
719.201	15.23
719.228	-9.77
719.254	-1.77
719.281	2.23
719.307	4.23
719.333	9.23
719.36	7.23
719.386	15.23
719.412	29.23
719.439	-2.77
719.465	2.23
719.491	-12.77
719.518	16.23
719.544	-9.77
719.57	8.23
719.597	5.23
719.623	-10.77
719.649	-4.77
719.675	-1.77
719.702	16.23
719.728	15.23
719.754	-1.77
719.781	8.23
719.807	-3.77
719.833	-1.77
719.86	2.23
719.886	6.23
719.912	16.23
719.938	2.23
719.965	-7.77
719.991	-4.77
720.017	11.23
720.044	9.23
720.07	0.23
720.096	12.23
720.122	5.23
720.149	6.23
720.175	20.23
720.201	-1.77
720.227	-7.77
720.254	-8.77
720.28	-1.77
720.306	-7.77
720.332	-17.77
720.359	-0.77
720.385	2.23
720.411	2.23
720.437	12.23
720.463	-1.77
720.49	0.23
720.516	-4.77
720.542	-7.77
720.568	-3.77
720.595	8.23
720.621	3.23
720.647	-4.77
720.673	17.23
720.699	6.23
720.725	-3.77
720.752	7.23
720.778	11.23
720.804	15.23
720.83	15.23
720.856	0.23
720.883	-2.77
720.909	7.23
720.935	-0.77
720.961	14.23
720.987	6.23
721.013	-1.77
721.04	-4.77
721.066	6.23
721.092	-8.77
721.118	-21.77
721.144	-6.77
721.17	-3.77
721.196	-1.77
721.223	-1.77
721.249	5.23
721.275	35.23
721.301	2.23
721.327	13.23
721.353	20.23
721.379	5.23
721.405	11.23
721.432	15.23
721.458	10.23
721.484	14.23
721.51	-5.77
721.536	9.23
721.562	3.23
721.588	4.23
721.614	0.23
721.64	-2.77
721.666	-18.77
721.693	8.23
721.719	15.23
721.745	7.23
721.771	-3.77
721.797	18.23
721.823	6.23
721.849	12.23
721.875	16.23
721.901	8.23
721.927	-1.77
721.953	-5.77
721.979	7.23
722.005	-7.77
722.031	4.23
722.057	19.23
722.083	12.23
722.109	14.23
722.135	17.23
722.161	-0.77
722.187	7.23
722.214	1.23
722.24	10.23
722.266	0.23
722.292	17.23
722.318	5.23
722.344	6.23
722.37	11.23
722.396	20.23
722.422	-1.77
722.448	17.23
722.474	-4.77
722.5	20.23
722.526	14.23
722.552	10.23
722.578	-5.77
722.603	10.23
722.629	-10.77
722.655	-5.77
722.681	-6.77
722.707	-11.77
722.733	-11.77
722.759	-13.77
722.785	19.23
722.811	-2.77
722.837	5.23
722.863	12.23
722.889	20.23
722.915	-1.77
722.941	-5.77
722.967	4.23
722.993	11.23
723.019	-8.77
723.045	3.23
723.071	18.23
723.097	26.23
723.122	1.23
723.148	-3.77
723.174	-0.77
723.2	14.23
723.226	14.23
723.252	16.23
723.278	-5.77
723.304	3.23
723.33	13.23
723.356	11.23
723.381	-11.77
723.407	-7.77
723.433	19.23
723.459	-3.77
723.485	-5.77
723.511	21.23
723.537	4.23
723.563	3.23
723.588	7.23
723.614	0.23
723.64	9.23
723.666	3.23
723.692	9.23
723.718	15.23
723.744	-0.77
723.769	-8.77
723.795	-7.77
723.821	0.23
723.847	-0.77
723.873	-4.77
723.899	10.23
723.924	0.23
723.95	-2.77
723.976	-19.77
724.002	9.23
724.028	10.23
724.053	-0.77
724.079	-5.77
724.105	8.23
724.131	-6.77
724.157	-3.77
724.182	11.23
724.208	-4.77
724.234	11.23
724.26	-3.77
724.286	18.23
724.311	-7.77
724.337	4.23
724.363	9.23
724.389	7.23
724.415	-2.77
724.44	3.23
724.466	8.23
724.492	-1.77
724.518	20.23
724.543	-4.77
724.569	-0.77
724.595	16.23
724.621	1.23
724.646	0.23
724.672	-6.77
724.698	-1.77
724.723	-3.77
724.749	-0.77
724.775	12.23
724.801	0.23
724.826	-7.77
724.852	2.23
724.878	-2.77
724.904	-2.77
724.929	5.23
724.955	1.23
724.981	10.23
725.006	3.23
725.032	6.23
725.058	12.23
725.083	11.23
725.109	-11.77
725.135	9.23
725.161	15.23
725.186	-4.77
725.212	-6.77
725.238	5.23
725.263	9.23
725.289	-17.77
725.315	-4.77
725.34	0.23
725.366	10.23
725.392	-9.77
725.417	-3.77
725.443	-0.77
725.468	2.23
725.494	11.23
725.52	15.23
725.545	-12.77
725.571	-1.77
725.597	-1.77
725.622	-4.77
725.648	-6.77
725.674	1.23
725.699	-4.77
725.725	0.23
725.75	23.23
725.776	-4.77
725.802	-1.77
725.827	-10.77
725.853	6.23
725.878	8.23
725.904	-5.77
725.93	-3.77
725.955	-11.77
725.981	-7.77
726.006	8.23
726.032	14.23
726.057	-20.77
726.083	-3.77
726.109	-2.77
726.134	8.23
726.16	8.23
726.185	-1.77
726.211	-5.77
726.236	9.23
726.262	4.23
726.288	-10.77
726.313	3.23
726.339	16.23
726.364	3.23
726.39	23.23
726.415	14.23
726.441	0.23
726.466	-20.77
726.492	3.23
726.517	13.23
726.543	7.23
726.568	-7.77
726.594	-4.77
726.619	-0.77
726.645	10.23
726.67	5.23
726.696	4.23
726.721	-1.77
726.747	2.23
726.772	12.23
726.798	11.23
726.823	6.23
726.849	6.23
726.874	7.23
726.9	22.23
726.925	2.23
726.951	9.23
726.976	15.23
727.002	-1.77
727.027	8.23
727.053	10.23
727.078	9.23
727.104	-1.77
727.129	-1.77
727.155	-0.77
727.18	3.23
727.205	-8.77
727.231	7.23
727.256	11.23
727.282	2.23
727.307	12.23
727.333	7.23
727.358	3.23
727.383	10.23
727.409	-0.77
727.434	9.23
727.46	11.23
727.485	-2.77
727.511	19.23
727.536	-9.77
727.561	-6.77
727.587	4.23
727.612	-13.77
727.637	-1.77
727.663	-1.77
727.688	18.23
727.714	-4.77
727.739	-11.77
727.764	8.23
727.79	10.23
727.815	4.23
727.841	4.23
727.866	-6.77
727.891	-1.77
727.917	3.23
727.942	2.23
727.967	-2.77
727.993	-12.77
728.018	0.23
728.043	16.23
728.069	-6.77
728.094	-0.77
728.119	4.23
728.145	16.23
728.17	11.23
728.195	4.23
728.221	3.23
728.246	2.23
728.271	-1.77
728.297	-1.77
728.322	-7.77
728.347	0.23
728.373	16.23
728.398	8.23
728.423	-1.77
728.448	-7.77
728.474	5.23
728.499	16.23
728.524	6.23
728.55	-3.77
728.575	-2.77
728.6	7.23
728.625	10.23
728.651	10.23
728.676	-0.77
728.701	-0.77
728.727	8.23
728.752	-3.77
728.777	-1.77
728.802	-7.77
728.828	12.23
728.853	2.23
728.878	-4.77
728.903	5.23
728.929	-4.77
728.954	-5.77
728.979	-1.77
729.004	4.23
729.03	-2.77
729.055	19.23
729.08	-6.77
729.105	-5.77
729.13	5.23
729.156	0.23
729.181	1.23
729.206	-3.77
729.231	-10.77
729.256	20.23
729.282	13.23
729.307	-1.77
729.332	-5.77
729.357	-6.77
729.382	-4.77
729.408	17.23
729.433	7.23
729.458	16.23
729.483	24.23
729.508	16.23
729.533	-2.77
729.559	-11.77
729.584	1.23
729.609	15.23
729.634	16.23
729.659	12.23
729.684	-14.77
729.71	24.23
729.735	-0.77
729.76	1.23
729.785	-2.77
729.81	12.23
729.835	6.23
729.86	0.23
729.886	18.23
729.911	12.23
729.936	14.23
729.961	24.23
729.986	24.23
730.011	52.23
730.036	214.23
730.061	1006.23
730.086	2680.23
730.112	3445.23
730.137	2844.23
730.162	2138.23
730.187	1664.23
730.212	1259.23
730.237	785.23
730.262	447.23
730.287	238.23
730.312	147.23
730.337	73.23
730.362	79.23
730.387	36.23
730.413	23.23
730.438	26.23
730.463	25.23
730.488	12.23
730.513	-1.77
730.538	2.23
730.563	35.23
730.588	8.23
730.613	22.23
730.638	7.23
730.663	5.23
730.688	25.23
730.713	9.23
730.738	11.23
730.763	27.23
730.788	-4.77
730.813	-0.77
730.838	4.23
730.863	-12.77
730.888	13.23
730.913	12.23
730.938	0.23
730.963	23.23
730.988	125.23
731.013	425.23
731.038	626.23
731.063	623.23
731.088	476.23
731.113	322.23
731.138	273.23
731.163	204.23
731.188	93.23
731.213	68.23
731.238	38.23
731.263	12.23
731.288	-5.77
731.313	12.23
731.338	4.23
731.363	4.23
731.388	9.23
731.413	-14.77
731.438	26.23
731.463	7.23
731.487	1.23
731.512	2.23
731.537	-8.77
731.562	-8.77
731.587	8.23
731.612	10.23
731.637	2.23
731.662	3.23
731.687	-4.77
731.712	-17.77
731.737	2.23
731.762	-0.77
731.786	16.23
731.811	3.23
731.836	2.23
731.861	20.23
731.886	-1.77
731.911	-4.77
731.936	2.23
731.961	0.23
731.986	-6.77
732.01	3.23
732.035	4.23
732.06	16.23
732.085	6.23
732.11	0.23
732.135	8.23
732.16	2.23
732.184	12.23
732.209	-8.77
732.234	2.23
732.259	3.23
732.284	18.23
732.309	2.23
732.334	3.23
732.358	-11.77
732.383	-14.77
732.408	-12.77
732.433	2.23
732.458	-1.77
732.482	3.23
732.507	-1.77
732.532	6.23
732.557	26.23
732.582	22.23
732.607	29.23
732.631	60.23
732.656	95.23
732.681	152.23
732.706	348.23
732.73	465.23
732.755	404.23
732.78	316.23
732.805	244.23
732.83	178.23
732.854	121.23
732.879	87.23
732.904	57.23
732.929	18.23
732.953	3.23
732.978	15.23
733.003	-4.77
733.028	9.23
733.052	9.23
733.077	1.23
733.102	-5.77
733.127	-1.77
733.151	-5.77
733.176	7.23
733.201	-3.77
733.226	-1.77
733.25	6.23
733.275	-5.77
733.3	-6.77
733.324	4.23
733.349	7.23
733.374	14.23
733.399	3.23
733.423	4.23
733.448	4.23
733.473	10.23
733.497	-0.77
733.522	-3.77
733.547	11.23
733.571	16.23
733.596	13.23
733.621	7.23
733.646	1.23
733.67	6.23
733.695	-8.77
733.72	6.23
733.744	17.23
733.769	23.23
733.794	25.23
733.818	11.23
733.843	-5.77
733.867	-10.77
733.892	11.23
733.917	-0.77
733.941	8.23
733.966	1.23
733.991	10.23
734.015	13.23
734.04	8.23
734.065	24.23
734.089	13.23
734.114	7.23
734.138	9.23
734.163	-0.77
734.188	6.23
734.212	-1.77
734.237	3.23
734.261	13.23
734.286	-4.77
734.311	-0.77
734.335	-3.77
734.36	-9.77
734.384	3.23
734.409	11.23
734.434	-13.77
734.458	20.23
734.483	-11.77
734.507	-13.77
734.532	-0.77
734.556	1.23
734.581	17.23
734.606	2.23
734.63	-8.77
734.655	-1.77
734.679	11.23
734.704	-3.77
734.728	-2.77
734.753	-15.77
734.777	3.23
734.802	1.23
734.826	10.23
734.851	-9.77
734.876	13.23
734.9	10.23
734.925	5.23
734.949	7.23
734.974	-6.77
734.998	15.23
735.023	-4.77
735.047	-8.77
735.072	6.23
735.096	4.23
735.121	14.23
735.145	-5.77
735.17	5.23
735.194	4.23
735.219	10.23
735.243	10.23
735.268	14.23
735.292	-8.77
735.317	-0.77
735.341	18.23
735.365	-13.77
735.39	9.23
735.414	5.23
735.439	1.23
735.463	-0.77
735.488	8.23
735.512	-6.77
735.537	-5.77
735.561	-0.77
735.586	-11.77
735.61	2.23
735.634	4.23
735.659	-1.77
735.683	18.23
735.708	0.23
735.732	-12.77
735.757	-15.77
735.781	-3.77
735.805	7.23
735.83	-12.77
735.854	-26.77
735.879	-3.77
735.903	17.23
735.927	18.23
735.952	4.23
735.976	10.23
736.001	-1.77
736.025	-3.77
736.049	9.23
736.074	4.23
736.098	-2.77
736.123	6.23
736.147	-0.77
736.171	0.23
736.196	15.23
736.22	-5.77
736.244	2.23
736.269	-2.77
736.293	2.23
736.317	23.23
736.342	19.23
736.366	12.23
736.39	13.23
736.415	5.23
736.439	-5.77
736.463	17.23
736.488	7.23
736.512	6.23
736.536	8.23
736.561	32.23
736.585	16.23
736.609	23.23
736.634	2.23
736.658	7.23
736.682	2.23
736.707	-1.77
736.731	-17.77
736.755	2.23
736.78	21.23
736.804	18.23
736.828	16.23
736.852	-14.77
736.877	-12.77
736.901	-3.77
736.925	-1.77
736.949	9.23
736.974	-8.77
736.998	-3.77
737.022	12.23
737.047	-5.77
737.071	-3.77
737.095	13.23
737.119	15.23
737.144	10.23
737.168	-2.77
737.192	-1.77
737.216	-0.77
737.241	1.23
737.265	0.23
737.289	21.23
737.313	-3.77
737.337	15.23
737.362	11.23
737.386	-6.77
737.41	-11.77
737.434	-0.77
737.459	-1.77
737.483	22.23
737.507	0.23
737.531	-6.77
737.555	18.23
737.58	9.23
737.604	2.23
737.628	-10.77
737.652	-7.77
737.676	7.23
737.701	14.23
737.725	-7.77
737.749	3.23
737.773	2.23
737.797	-14.77
737.821	1.23
737.846	-2.77
737.87	11.23
737.894	7.23
737.918	9.23
737.942	-5.77
737.966	3.23
737.99	12.23
738.015	23.23
738.039	15.23
738.063	15.23
738.087	8.23
738.111	8.23
738.135	0.23
738.159	-0.77
738.184	16.23
738.208	13.23
738.232	-3.77
738.256	14.23
738.28	12.23
738.304	4.23
738.328	0.23
738.352	15.23
738.376	13.23
738.4	14.23
738.425	12.23
738.449	2.23
738.473	26.23
738.497	11.23
738.521	6.23
738.545	3.23
738.569	17.23
738.593	28.23
738.617	26.23
738.641	10.23
738.665	17.23
738.689	4.23
738.713	10.23
738.737	-0.77
738.762	16.23
738.786	-6.77
738.81	-8.77
738.834	-1.77
738.858	-15.77
738.882	-8.77
738.906	-12.77
738.93	10.23
738.954	-1.77
738.978	12.23
739.002	-5.77
739.026	8.23
739.05	13.23
739.074	-1.77
739.098	20.23
739.122	27.23
739.146	9.23
739.17	17.23
739.194	9.23
739.218	2.23
739.242	-7.77
739.266	3.23
739.29	8.23
739.314	26.23
739.338	4.23
739.362	4.23
739.386	10.23
739.41	5.23
739.434	-9.77
739.458	3.23
739.482	14.23
739.506	13.23
739.53	4.23
739.554	13.23
739.577	-12.77
739.601	1.23
739.625	2.23
739.649	4.23
739.673	5.23
739.697	14.23
739.721	-6.77
739.745	-6.77
739.769	18.23
739.793	5.23
739.817	19.23
739.841	-5.77
739.865	-1.77
739.889	-16.77
739.912	8.23
739.936	-8.77
739.96	0.23
739.984	10.23
740.008	15.23
740.032	-13.77
740.056	-2.77
740.08	3.23
740.104	-6.77
740.127	15.23
740.151	18.23
740.175	6.23
740.199	2.23
740.223	40.23
740.247	15.23
740.271	10.23
740.295	-5.77
740.318	-15.77
740.342	-1.77
740.366	-9.77
740.39	6.23
740.414	-6.77
740.438	-1.77
740.461	25.23
740.485	13.23
740.509	6.23
740.533	17.23
740.557	-14.77
740.581	-14.77
740.604	-8.77
740.628	-3.77
740.652	14.23
740.676	3.23
740.7	20.23
740.723	-2.77
740.747	-4.77
740.771	-2.77
740.795	-9.77
740.819	23.23
740.842	15.23
740.866	6.23
740.89	-3.77
740.914	-0.77
740.938	-4.77
740.961	18.23
740.985	16.23
741.009	11.23
741.033	1.23
741.056	-1.77
741.08	1.23
741.104	-3.77
741.128	10.23
741.151	11.23
741.175	11.23
741.199	4.23
741.223	14.23
741.246	-6.77
741.27	11.23
741.294	19.23
741.318	12.23
741.341	-8.77
741.365	10.23
741.389	3.23
741.413	12.23
741.436	11.23
741.46	11.23
741.484	15.23
741.507	5.23
741.531	26.23
741.555	13.23
741.579	24.23
741.602	10.23
741.626	-11.77
741.65	-8.77
741.673	-0.77
741.697	18.23
741.721	1.23
741.744	-14.77
741.768	-3.77
741.792	8.23
741.815	6.23
741.839	10.23
741.863	31.23
741.886	15.23
741.91	9.23
741.934	-4.77
741.957	-11.77
741.981	3.23
742.005	15.23
742.028	10.23
742.052	5.23
742.075	6.23
742.099	16.23
742.123	-3.77
742.146	5.23
742.17	5.23
742.194	-14.77
742.217	3.23
742.241	2.23
742.264	-1.77
742.288	17.23
742.312	14.23
742.335	11.23
742.359	-0.77
742.382	15.23
742.406	21.23
742.43	-9.77
742.453	11.23
742.477	3.23
742.5	-4.77
742.524	-10.77
742.548	2.23
742.571	-1.77
742.595	-1.77
742.618	0.23
742.642	12.23
742.665	12.23
742.689	5.23
742.712	9.23
742.736	13.23
742.76	6.23
742.783	1.23
742.807	22.23
742.83	17.23
742.854	2.23
742.877	4.23
742.901	-0.77
742.924	2.23
742.948	18.23
742.971	6.23
742.995	8.23
743.018	-5.77
743.042	-7.77
743.065	-13.77
743.089	-8.77
743.112	2.23
743.136	12.23
743.159	12.23
743.183	2.23
743.206	11.23
743.23	3.23
743.253	-4.77
743.277	2.23
743.3	-3.77
743.324	5.23
743.347	-9.77
743.371	9.23
743.394	14.23
743.418	14.23
743.441	11.23
743.465	-0.77
743.488	0.23
743.512	-5.77
743.535	6.23
743.558	6.23
743.582	9.23
743.605	5.23
743.629	6.23
743.652	19.23
743.676	-0.77
743.699	4.23
743.723	-11.77
743.746	18.23
743.769	-1.77
743.793	25.23
743.816	3.23
743.84	9.23
743.863	2.23
743.886	11.23
743.91	7.23
743.933	7.23
743.957	14.23
743.98	7.23
744.003	10.23
744.027	-0.77
744.05	8.23
744.074	11.23
744.097	-6.77
744.12	-6.77
744.144	-0.77
744.167	10.23
744.19	6.23
744.214	10.23
744.237	-1.77
744.26	27.23
744.284	11.23
744.307	-9.77
744.331	7.23
744.354	-7.77
744.377	3.23
744.401	-4.77
744.424	6.23
744.447	-4.77
744.471	-2.77
