Data from HighRes_mercury_15_13_11_07_2024_HR4C61891__28__15-14-25-986.txt Node

Date: Thu Nov 07 15:14:25 EST 2024
User: crc00042
Spectrometer: HR4C6189
Trigger mode: 4
Integration Time (sec): 1.000000E-1
Scans to average: 1
Electric dark correction enabled: true
Nonlinearity correction enabled: false
Boxcar width: 0
XAxis mode: Wavelengths
Number of Pixels in Spectrum: 3648
>>>>>Begin Spectral Data<<<<<
639.567	-64.38
639.602	-64.38
639.636	-64.38
639.67	-43.38
639.704	-10.38
639.738	-3.38
639.773	11.62
639.807	-20.38
639.841	-3.38
639.875	17.62
639.909	2.62
639.943	-12.38
639.978	-6.38
640.012	4.62
640.046	3.62
640.08	9.62
640.114	8.62
640.148	-12.38
640.182	-6.38
640.217	-1.38
640.251	16.62
640.285	5.62
640.319	-18.38
640.353	11.62
640.387	-6.38
640.421	-7.38
640.455	-2.38
640.49	-14.38
640.524	-12.38
640.558	-13.38
640.592	3.62
640.626	-4.38
640.66	2.62
640.694	-10.38
640.728	7.62
640.762	0.62
640.796	4.62
640.83	6.62
640.865	-22.38
640.899	-11.38
640.933	-13.38
640.967	-3.38
641.001	6.62
641.035	1.62
641.069	-0.38
641.103	-10.38
641.137	-10.38
641.171	-18.38
641.205	-17.38
641.239	-2.38
641.273	8.62
641.307	-1.38
641.341	-4.38
641.375	-9.38
641.409	-7.38
641.443	-3.38
641.477	-7.38
641.511	-7.38
641.545	9.62
641.579	-6.38
641.614	-3.38
641.648	-3.38
641.682	-18.38
641.716	-3.38
641.75	1.62
641.784	0.62
641.818	-8.38
641.852	0.62
641.886	-16.38
641.919	9.62
641.953	-20.38
641.987	-2.38
642.021	-10.38
642.055	-1.38
642.089	10.62
642.123	-17.38
642.157	-14.38
642.191	-15.38
642.225	11.62
642.259	-3.38
642.293	16.62
642.327	1.62
642.361	-11.38
642.395	6.62
642.429	9.62
642.463	-4.38
642.497	-10.38
642.531	-1.38
642.565	-2.38
642.599	-3.38
642.633	-0.38
642.666	7.62
642.7	9.62
642.734	15.62
642.768	-17.38
642.802	-7.38
642.836	-7.38
642.87	-10.38
642.904	-2.38
642.938	20.62
642.972	-3.38
643.005	1.62
643.039	8.62
643.073	1.62
643.107	8.62
643.141	-14.38
643.175	-8.38
643.209	-5.38
643.243	-16.38
643.276	-2.38
643.31	-1.38
643.344	-3.38
643.378	-11.38
643.412	-3.38
643.446	-6.38
643.48	-4.38
643.513	-2.38
643.547	-5.38
643.581	-11.38
643.615	11.62
643.649	-1.38
643.683	0.62
643.716	-5.38
643.75	-10.38
643.784	-27.38
643.818	-19.38
643.852	-13.38
643.886	2.62
643.919	6.62
643.953	-15.38
643.987	-15.38
644.021	-3.38
644.055	2.62
644.088	-18.38
644.122	-21.38
644.156	-21.38
644.19	-8.38
644.224	-6.38
644.257	-13.38
644.291	9.62
644.325	5.62
644.359	0.62
644.392	27.62
644.426	-5.38
644.46	-5.38
644.494	-3.38
644.527	-6.38
644.561	-13.38
644.595	-21.38
644.629	-22.38
644.662	-10.38
644.696	5.62
644.73	7.62
644.764	14.62
644.797	-16.38
644.831	10.62
644.865	0.62
644.899	-7.38
644.932	18.62
644.966	-6.38
645	9.62
645.033	-4.38
645.067	-11.38
645.101	9.62
645.135	-12.38
645.168	-22.38
645.202	-24.38
645.236	-1.38
645.269	-6.38
645.303	-8.38
645.337	-21.38
645.37	5.62
645.404	-6.38
645.438	-5.38
645.471	-6.38
645.505	-9.38
645.539	-2.38
645.572	-3.38
645.606	11.62
645.64	6.62
645.673	-1.38
645.707	26.62
645.741	-8.38
645.774	-22.38
645.808	-6.38
645.842	-8.38
645.875	7.62
645.909	-16.38
645.943	-24.38
645.976	2.62
646.01	-14.38
646.043	9.62
646.077	13.62
646.111	14.62
646.144	19.62
646.178	3.62
646.212	-19.38
646.245	-20.38
646.279	5.62
646.312	0.62
646.346	22.62
646.38	-1.38
646.413	4.62
646.447	-11.38
646.48	-4.38
646.514	14.62
646.547	0.62
646.581	-5.38
646.615	-5.38
646.648	-8.38
646.682	7.62
646.715	-7.38
646.749	3.62
646.782	-8.38
646.816	-14.38
646.85	10.62
646.883	-13.38
646.917	4.62
646.95	17.62
646.984	12.62
647.017	-1.38
647.051	7.62
647.084	-2.38
647.118	-13.38
647.151	-11.38
647.185	-7.38
647.218	-19.38
647.252	7.62
647.285	-20.38
647.319	-16.38
647.353	-6.38
647.386	4.62
647.42	-10.38
647.453	-15.38
647.487	3.62
647.52	13.62
647.553	3.62
647.587	-14.38
647.62	-13.38
647.654	-8.38
647.687	-3.38
647.721	8.62
647.754	-3.38
647.788	-0.38
647.821	-8.38
647.855	-8.38
647.888	9.62
647.922	5.62
647.955	6.62
647.989	7.62
648.022	8.62
648.055	-1.38
648.089	-5.38
648.122	16.62
648.156	-7.38
648.189	-15.38
648.223	15.62
648.256	7.62
648.29	-0.38
648.323	-3.38
648.356	-1.38
648.39	-4.38
648.423	-16.38
648.457	-4.38
648.49	2.62
648.523	-3.38
648.557	-5.38
648.59	-27.38
648.624	-14.38
648.657	6.62
648.69	9.62
648.724	5.62
648.757	10.62
648.791	6.62
648.824	-0.38
648.857	-10.38
648.891	4.62
648.924	-12.38
648.957	12.62
648.991	-12.38
649.024	-0.38
649.057	7.62
649.091	-5.38
649.124	9.62
649.158	-4.38
649.191	15.62
649.224	-15.38
649.258	-8.38
649.291	3.62
649.324	8.62
649.358	2.62
649.391	-0.38
649.424	-7.38
649.458	-3.38
649.491	-11.38
649.524	-12.38
649.557	-14.38
649.591	-31.38
649.624	8.62
649.657	-26.38
649.691	-9.38
649.724	-8.38
649.757	-0.38
649.791	-6.38
649.824	19.62
649.857	8.62
649.89	-4.38
649.924	-14.38
649.957	-8.38
649.99	-27.38
650.023	-5.38
650.057	-10.38
650.09	0.62
650.123	-2.38
650.157	5.62
650.19	5.62
650.223	1.62
650.256	-2.38
650.29	-13.38
650.323	3.62
650.356	-11.38
650.389	-20.38
650.423	-12.38
650.456	-10.38
650.489	-14.38
650.522	6.62
650.555	5.62
650.589	1.62
650.622	-4.38
650.655	12.62
650.688	-9.38
650.721	3.62
650.755	5.62
650.788	-3.38
650.821	-9.38
650.854	-11.38
650.887	-7.38
650.921	-13.38
650.954	-24.38
650.987	-9.38
651.02	-4.38
651.053	-18.38
651.087	-15.38
651.12	7.62
651.153	9.62
651.186	-5.38
651.219	-34.38
651.252	15.62
651.286	14.62
651.319	-11.38
651.352	-14.38
651.385	-7.38
651.418	-1.38
651.451	7.62
651.484	4.62
651.518	-3.38
651.551	15.62
651.584	2.62
651.617	11.62
651.65	-0.38
651.683	13.62
651.716	-16.38
651.749	-15.38
651.783	-7.38
651.816	2.62
651.849	12.62
651.882	0.62
651.915	-10.38
651.948	-11.38
651.981	-16.38
652.014	-16.38
652.047	-16.38
652.08	-2.38
652.114	4.62
652.147	-4.38
652.18	1.62
652.213	14.62
652.246	-0.38
652.279	-22.38
652.312	1.62
652.345	-17.38
652.378	6.62
652.411	10.62
652.444	-3.38
652.477	-7.38
652.51	-8.38
652.543	-21.38
652.576	-1.38
652.609	-20.38
652.642	-9.38
652.675	9.62
652.709	-3.38
652.742	4.62
652.775	-6.38
652.808	4.62
652.841	-3.38
652.874	5.62
652.907	8.62
652.94	-8.38
652.973	-12.38
653.006	-8.38
653.039	-16.38
653.072	-1.38
653.105	2.62
653.138	-16.38
653.171	-13.38
653.204	-3.38
653.237	1.62
653.27	-14.38
653.303	-4.38
653.336	-13.38
653.368	-22.38
653.401	-18.38
653.434	-1.38
653.467	-4.38
653.5	-11.38
653.533	-17.38
653.566	-3.38
653.599	-2.38
653.632	-7.38
653.665	-3.38
653.698	-22.38
653.731	-26.38
653.764	4.62
653.797	-6.38
653.83	4.62
653.863	8.62
653.896	-5.38
653.929	-7.38
653.961	-3.38
653.994	-11.38
654.027	-20.38
654.06	-4.38
654.093	-2.38
654.126	-2.38
654.159	-15.38
654.192	-3.38
654.225	-6.38
654.258	-11.38
654.29	-8.38
654.323	-0.38
654.356	-6.38
654.389	-4.38
654.422	4.62
654.455	8.62
654.488	2.62
654.521	-16.38
654.553	-4.38
654.586	8.62
654.619	-6.38
654.652	-3.38
654.685	16.62
654.718	-5.38
654.751	4.62
654.783	-16.38
654.816	26.62
654.849	-1.38
654.882	-2.38
654.915	-6.38
654.948	2.62
654.98	-12.38
655.013	-16.38
655.046	-14.38
655.079	-10.38
655.112	3.62
655.144	-6.38
655.177	16.62
655.21	0.62
655.243	11.62
655.276	-7.38
655.308	-8.38
655.341	-18.38
655.374	-11.38
655.407	-10.38
655.44	-6.38
655.472	14.62
655.505	1.62
655.538	-5.38
655.571	-4.38
655.603	-17.38
655.636	-15.38
655.669	-6.38
655.702	-16.38
655.734	-15.38
655.767	-10.38
655.8	3.62
655.833	-2.38
655.865	5.62
655.898	-9.38
655.931	-6.38
655.964	-12.38
655.996	-5.38
656.029	3.62
656.062	-16.38
656.095	-9.38
656.127	-15.38
656.16	-11.38
656.193	-10.38
656.225	-14.38
656.258	-10.38
656.291	1.62
656.324	8.62
656.356	5.62
656.389	5.62
656.422	16.62
656.454	-0.38
656.487	9.62
656.52	6.62
656.552	-8.38
656.585	-12.38
656.618	1.62
656.65	20.62
656.683	0.62
656.716	-9.38
656.748	-15.38
656.781	-1.38
656.814	-9.38
656.846	-3.38
656.879	-6.38
656.912	-3.38
656.944	-16.38
656.977	-14.38
657.01	-3.38
657.042	11.62
657.075	8.62
657.108	-10.38
657.14	-3.38
657.173	27.62
657.205	26.62
657.238	5.62
657.271	-15.38
657.303	-13.38
657.336	-15.38
657.369	-10.38
657.401	-5.38
657.434	6.62
657.466	8.62
657.499	-6.38
657.532	-8.38
657.564	-16.38
657.597	-21.38
657.629	4.62
657.662	-4.38
657.694	-2.38
657.727	-10.38
657.76	12.62
657.792	5.62
657.825	0.62
657.857	3.62
657.89	0.62
657.922	-4.38
657.955	-11.38
657.987	-18.38
658.02	12.62
658.053	6.62
658.085	10.62
658.118	2.62
658.15	11.62
658.183	9.62
658.215	-3.38
658.248	-11.38
658.28	-10.38
658.313	14.62
658.345	-7.38
658.378	-1.38
658.41	-29.38
658.443	-5.38
658.475	-17.38
658.508	1.62
658.54	4.62
658.573	-14.38
658.605	-20.38
658.638	-13.38
658.67	-3.38
658.703	8.62
658.735	-1.38
658.768	4.62
658.8	-10.38
658.833	-0.38
658.865	-6.38
658.898	-1.38
658.93	-7.38
658.963	-12.38
658.995	-14.38
659.028	-11.38
659.06	-12.38
659.092	-20.38
659.125	-3.38
659.157	28.62
659.19	-20.38
659.222	-8.38
659.255	-11.38
659.287	-3.38
659.32	4.62
659.352	-9.38
659.384	-8.38
659.417	-25.38
659.449	-15.38
659.482	-7.38
659.514	-6.38
659.546	-22.38
659.579	-19.38
659.611	3.62
659.644	-6.38
659.676	-13.38
659.708	-11.38
659.741	-6.38
659.773	0.62
659.806	-2.38
659.838	-0.38
659.87	2.62
659.903	-6.38
659.935	-6.38
659.967	-6.38
660	8.62
660.032	-38.38
660.065	9.62
660.097	6.62
660.129	-0.38
660.162	-14.38
660.194	15.62
660.226	-1.38
660.259	-6.38
660.291	-0.38
660.323	-9.38
660.356	-7.38
660.388	-18.38
660.42	1.62
660.453	-3.38
660.485	1.62
660.517	2.62
660.55	3.62
660.582	-9.38
660.614	-3.38
660.647	-19.38
660.679	-19.38
660.711	11.62
660.743	-26.38
660.776	-31.38
660.808	-5.38
660.84	-20.38
660.873	-1.38
660.905	2.62
660.937	-0.38
660.969	-7.38
661.002	3.62
661.034	16.62
661.066	-15.38
661.099	-5.38
661.131	9.62
661.163	-3.38
661.195	-7.38
661.228	13.62
661.26	0.62
661.292	-14.38
661.324	-10.38
661.357	-11.38
661.389	-2.38
661.421	-3.38
661.453	4.62
661.485	-1.38
661.518	-4.38
661.55	-5.38
661.582	-3.38
661.614	-20.38
661.647	-0.38
661.679	-12.38
661.711	-6.38
661.743	-23.38
661.775	-2.38
661.808	5.62
661.84	-5.38
661.872	-1.38
661.904	-12.38
661.936	12.62
661.969	-8.38
662.001	-19.38
662.033	-16.38
662.065	-14.38
662.097	11.62
662.129	12.62
662.162	-12.38
662.194	-1.38
662.226	3.62
662.258	1.62
662.29	0.62
662.322	-14.38
662.355	-13.38
662.387	1.62
662.419	-0.38
662.451	11.62
662.483	-3.38
662.515	1.62
662.547	-3.38
662.58	-19.38
662.612	-13.38
662.644	-0.38
662.676	-9.38
662.708	11.62
662.74	-5.38
662.772	5.62
662.804	4.62
662.836	3.62
662.869	-13.38
662.901	8.62
662.933	9.62
662.965	16.62
662.997	-1.38
663.029	-5.38
663.061	-10.38
663.093	-7.38
663.125	-10.38
663.157	-11.38
663.189	-8.38
663.221	14.62
663.254	1.62
663.286	3.62
663.318	0.62
663.35	-5.38
663.382	4.62
663.414	-1.38
663.446	-5.38
663.478	-12.38
663.51	12.62
663.542	-9.38
663.574	1.62
663.606	-12.38
663.638	-29.38
663.67	-19.38
663.702	-9.38
663.734	13.62
663.766	-7.38
663.798	0.62
663.83	-2.38
663.862	1.62
663.894	4.62
663.926	-7.38
663.958	16.62
663.99	-9.38
664.022	-7.38
664.054	8.62
664.086	-15.38
664.118	-6.38
664.15	-5.38
664.182	-14.38
664.214	-24.38
664.246	-5.38
664.278	11.62
664.31	18.62
664.342	4.62
664.374	11.62
664.406	-1.38
664.438	-2.38
664.47	7.62
664.502	6.62
664.534	-20.38
664.566	-16.38
664.598	-7.38
664.63	-14.38
664.662	-6.38
664.693	-2.38
664.725	-17.38
664.757	-6.38
664.789	-16.38
664.821	-2.38
664.853	17.62
664.885	-6.38
664.917	-7.38
664.949	8.62
664.981	15.62
665.013	0.62
665.045	-31.38
665.076	-18.38
665.108	4.62
665.14	-7.38
665.172	4.62
665.204	-3.38
665.236	-19.38
665.268	16.62
665.3	-6.38
665.331	-10.38
665.363	-4.38
665.395	-11.38
665.427	-10.38
665.459	11.62
665.491	-1.38
665.523	-3.38
665.555	0.62
665.586	7.62
665.618	2.62
665.65	-20.38
665.682	3.62
665.714	-13.38
665.746	-22.38
665.777	-16.38
665.809	-3.38
665.841	8.62
665.873	-5.38
665.905	-26.38
665.937	4.62
665.968	7.62
666	-10.38
666.032	-10.38
666.064	-8.38
666.096	-18.38
666.127	-12.38
666.159	13.62
666.191	2.62
666.223	-1.38
666.255	2.62
666.286	3.62
666.318	-0.38
666.35	19.62
666.382	-9.38
666.413	-14.38
666.445	-9.38
666.477	-23.38
666.509	-4.38
666.54	-6.38
666.572	-22.38
666.604	-5.38
666.636	-3.38
666.667	-0.38
666.699	5.62
666.731	-5.38
666.763	-5.38
666.794	-12.38
666.826	-5.38
666.858	-10.38
666.89	6.62
666.921	5.62
666.953	-4.38
666.985	14.62
667.017	13.62
667.048	-7.38
667.08	-17.38
667.112	-11.38
667.143	-16.38
667.175	-3.38
667.207	12.62
667.238	9.62
667.27	13.62
667.302	-1.38
667.334	0.62
667.365	14.62
667.397	-14.38
667.429	-22.38
667.46	5.62
667.492	4.62
667.524	-9.38
667.555	0.62
667.587	9.62
667.619	10.62
667.65	-7.38
667.682	11.62
667.714	-7.38
667.745	-5.38
667.777	-5.38
667.808	-14.38
667.84	-0.38
667.872	0.62
667.903	26.62
667.935	-2.38
667.967	-24.38
667.998	3.62
668.03	5.62
668.061	5.62
668.093	-1.38
668.125	-11.38
668.156	11.62
668.188	4.62
668.22	-15.38
668.251	3.62
668.283	29.62
668.314	10.62
668.346	-11.38
668.377	-1.38
668.409	4.62
668.441	16.62
668.472	-3.38
668.504	-2.38
668.535	0.62
668.567	12.62
668.599	11.62
668.63	0.62
668.662	0.62
668.693	32.62
668.725	-11.38
668.756	8.62
668.788	4.62
668.819	-2.38
668.851	-7.38
668.882	-3.38
668.914	-3.38
668.946	-3.38
668.977	-12.38
669.009	-3.38
669.04	-20.38
669.072	1.62
669.103	-5.38
669.135	0.62
669.166	4.62
669.198	-2.38
669.229	5.62
669.261	-11.38
669.292	-15.38
669.324	-7.38
669.355	3.62
669.387	-6.38
669.418	-10.38
669.45	-27.38
669.481	-9.38
669.513	-9.38
669.544	4.62
669.576	-7.38
669.607	-11.38
669.639	2.62
669.67	-20.38
669.701	-0.38
669.733	-0.38
669.764	-9.38
669.796	-1.38
669.827	-21.38
669.859	-11.38
669.89	-2.38
669.922	15.62
669.953	-12.38
669.985	-12.38
670.016	-5.38
670.047	8.62
670.079	-3.38
670.11	12.62
670.142	4.62
670.173	2.62
670.204	-5.38
670.236	7.62
670.267	-3.38
670.299	2.62
670.33	-2.38
670.362	1.62
670.393	-22.38
670.424	-8.38
670.456	-24.38
670.487	-7.38
670.518	-11.38
670.55	17.62
670.581	0.62
670.613	-0.38
670.644	-6.38
670.675	-1.38
670.707	-7.38
670.738	-5.38
670.769	-13.38
670.801	-10.38
670.832	0.62
670.864	-10.38
670.895	12.62
670.926	-5.38
670.958	-10.38
670.989	-2.38
671.02	-15.38
671.052	-0.38
671.083	5.62
671.114	1.62
671.146	4.62
671.177	3.62
671.208	-14.38
671.24	-15.38
671.271	-7.38
671.302	-4.38
671.333	-5.38
671.365	-17.38
671.396	-2.38
671.427	7.62
671.459	10.62
671.49	23.62
671.521	-12.38
671.553	-6.38
671.584	-10.38
671.615	-18.38
671.646	-6.38
671.678	2.62
671.709	-3.38
671.74	-25.38
671.771	-12.38
671.803	-16.38
671.834	-7.38
671.865	-0.38
671.896	-2.38
671.928	-9.38
671.959	-5.38
671.99	-13.38
672.021	3.62
672.053	5.62
672.084	5.62
672.115	6.62
672.146	-15.38
672.178	-21.38
672.209	-11.38
672.24	-11.38
672.271	1.62
672.303	-10.38
672.334	6.62
672.365	-21.38
672.396	-14.38
672.427	0.62
672.459	-9.38
672.49	21.62
672.521	8.62
672.552	4.62
672.583	2.62
672.615	-5.38
672.646	3.62
672.677	-14.38
672.708	-2.38
672.739	2.62
672.77	-4.38
672.802	9.62
672.833	-0.38
672.864	-3.38
672.895	-10.38
672.926	4.62
672.957	-21.38
672.989	-4.38
673.02	0.62
673.051	-6.38
673.082	8.62
673.113	-6.38
673.144	18.62
673.175	1.62
673.206	-14.38
673.238	-9.38
673.269	-21.38
673.3	-20.38
673.331	1.62
673.362	-6.38
673.393	-9.38
673.424	-2.38
673.455	7.62
673.487	-6.38
673.518	-4.38
673.549	-19.38
673.58	-7.38
673.611	-3.38
673.642	-10.38
673.673	-24.38
673.704	-11.38
673.735	1.62
673.766	-10.38
673.797	3.62
673.828	-0.38
673.86	-18.38
673.891	-15.38
673.922	-12.38
673.953	-10.38
673.984	-21.38
674.015	0.62
674.046	-14.38
674.077	2.62
674.108	-31.38
674.139	-16.38
674.17	-13.38
674.201	-8.38
674.232	-7.38
674.263	-6.38
674.294	4.62
674.325	-13.38
674.356	18.62
674.387	-1.38
674.418	-2.38
674.449	-4.38
674.48	0.62
674.511	-6.38
674.542	-4.38
674.573	1.62
674.604	-1.38
674.635	-12.38
674.666	-0.38
674.697	-4.38
674.728	-17.38
674.759	-11.38
674.79	-9.38
674.821	-1.38
674.852	-2.38
674.883	-14.38
674.914	-10.38
674.945	-11.38
674.976	-2.38
675.007	-6.38
675.038	-6.38
675.069	-8.38
675.1	-4.38
675.131	2.62
675.162	-0.38
675.193	-2.38
675.224	-6.38
675.254	0.62
675.285	5.62
675.316	6.62
675.347	-8.38
675.378	-23.38
675.409	-15.38
675.44	-5.38
675.471	-3.38
675.502	-8.38
675.533	-4.38
675.564	12.62
675.595	-20.38
675.625	2.62
675.656	-7.38
675.687	-13.38
675.718	-9.38
675.749	-2.38
675.78	-14.38
675.811	-19.38
675.842	0.62
675.873	-7.38
675.903	-9.38
675.934	6.62
675.965	9.62
675.996	-5.38
676.027	13.62
676.058	-2.38
676.089	-14.38
676.119	-6.38
676.15	-10.38
676.181	-6.38
676.212	-6.38
676.243	-5.38
676.274	-7.38
676.304	-13.38
676.335	-24.38
676.366	-2.38
676.397	-13.38
676.428	-6.38
676.459	-3.38
676.489	6.62
676.52	-4.38
676.551	-2.38
676.582	-6.38
676.613	12.62
676.643	-12.38
676.674	8.62
676.705	-11.38
676.736	-15.38
676.767	3.62
676.797	2.62
676.828	-2.38
676.859	-4.38
676.89	-11.38
676.92	-17.38
676.951	6.62
676.982	14.62
677.013	0.62
677.044	18.62
677.074	24.62
677.105	-18.38
677.136	1.62
677.167	-0.38
677.197	-2.38
677.228	-12.38
677.259	-5.38
677.289	-4.38
677.32	-22.38
677.351	-16.38
677.382	-8.38
677.412	2.62
677.443	-2.38
677.474	-16.38
677.505	-6.38
677.535	-4.38
677.566	1.62
677.597	-23.38
677.627	-17.38
677.658	12.62
677.689	-1.38
677.72	0.62
677.75	-8.38
677.781	-14.38
677.812	-7.38
677.842	4.62
677.873	-6.38
677.904	1.62
677.934	-9.38
677.965	-2.38
677.996	-20.38
678.026	-8.38
678.057	2.62
678.088	-12.38
678.118	4.62
678.149	-1.38
678.18	-8.38
678.21	9.62
678.241	-3.38
678.272	-3.38
678.302	5.62
678.333	3.62
678.363	6.62
678.394	2.62
678.425	-15.38
678.455	-1.38
678.486	17.62
678.517	-24.38
678.547	-17.38
678.578	-7.38
678.608	-8.38
678.639	6.62
678.67	-6.38
678.7	-8.38
678.731	-17.38
678.761	-17.38
678.792	-7.38
678.823	1.62
678.853	-7.38
678.884	-13.38
678.914	0.62
678.945	-1.38
678.975	-0.38
679.006	2.62
679.037	-7.38
679.067	1.62
679.098	-2.38
679.128	-12.38
679.159	-2.38
679.189	13.62
679.22	-0.38
679.25	-2.38
679.281	-1.38
679.312	-6.38
679.342	-2.38
679.373	23.62
679.403	-4.38
679.434	22.62
679.464	-1.38
679.495	-16.38
679.525	-3.38
679.556	4.62
679.586	31.62
679.617	5.62
679.647	2.62
679.678	-1.38
679.708	3.62
679.739	-5.38
679.769	-0.38
679.8	-10.38
679.83	4.62
679.861	-3.38
679.891	-6.38
679.922	-21.38
679.952	4.62
679.983	3.62
680.013	-3.38
680.044	-11.38
680.074	10.62
680.105	5.62
680.135	-3.38
680.165	-3.38
680.196	7.62
680.226	1.62
680.257	5.62
680.287	10.62
680.318	-4.38
680.348	-14.38
680.379	13.62
680.409	-4.38
680.439	-3.38
680.47	-10.38
680.5	0.62
680.531	-8.38
680.561	8.62
680.592	-3.38
680.622	12.62
680.652	-17.38
680.683	2.62
680.713	-14.38
680.744	-19.38
680.774	-6.38
680.804	3.62
680.835	-4.38
680.865	-6.38
680.896	20.62
680.926	19.62
680.956	-1.38
680.987	6.62
681.017	-15.38
681.047	16.62
681.078	-4.38
681.108	-14.38
681.139	-11.38
681.169	-5.38
681.199	0.62
681.23	6.62
681.26	-16.38
681.29	-10.38
681.321	-26.38
681.351	-2.38
681.381	-8.38
681.412	6.62
681.442	1.62
681.472	3.62
681.503	6.62
681.533	17.62
681.563	-3.38
681.594	-9.38
681.624	-3.38
681.654	-10.38
681.685	-1.38
681.715	-4.38
681.745	-2.38
681.775	-7.38
681.806	-7.38
681.836	10.62
681.866	-4.38
681.897	-6.38
681.927	-20.38
681.957	-19.38
681.987	-0.38
682.018	-8.38
682.048	-2.38
682.078	-7.38
682.109	18.62
682.139	-3.38
682.169	-3.38
682.199	5.62
682.23	-3.38
682.26	5.62
682.29	-5.38
682.32	0.62
682.351	-9.38
682.381	-13.38
682.411	12.62
682.441	-22.38
682.472	-2.38
682.502	-4.38
682.532	-17.38
682.562	-2.38
682.592	4.62
682.623	4.62
682.653	-2.38
682.683	-11.38
682.713	-0.38
682.743	-10.38
682.774	-21.38
682.804	-0.38
682.834	1.62
682.864	-4.38
682.894	-1.38
682.925	-4.38
682.955	-5.38
682.985	4.62
683.015	-3.38
683.045	-14.38
683.076	-17.38
683.106	-9.38
683.136	-1.38
683.166	4.62
683.196	-11.38
683.226	0.62
683.257	-12.38
683.287	5.62
683.317	-14.38
683.347	-20.38
683.377	-7.38
683.407	-5.38
683.437	2.62
683.468	17.62
683.498	-13.38
683.528	-5.38
683.558	0.62
683.588	-11.38
683.618	-12.38
683.648	-14.38
683.678	-4.38
683.708	13.62
683.739	8.62
683.769	-5.38
683.799	-10.38
683.829	-2.38
683.859	-7.38
683.889	4.62
683.919	-22.38
683.949	-8.38
683.979	-8.38
684.009	-10.38
684.039	-0.38
684.07	-8.38
684.1	18.62
684.13	-4.38
684.16	5.62
684.19	8.62
684.22	-7.38
684.25	-20.38
684.28	-11.38
684.31	19.62
684.34	-7.38
684.37	-4.38
684.4	-5.38
684.43	-1.38
684.46	3.62
684.49	-2.38
684.52	-1.38
684.55	-1.38
684.58	-4.38
684.61	-2.38
684.64	1.62
684.67	9.62
684.7	-5.38
684.73	7.62
684.76	-8.38
684.79	33.62
684.82	-1.38
684.85	-17.38
684.88	11.62
684.91	3.62
684.94	0.62
684.97	-17.38
685	-8.38
685.03	-12.38
685.06	12.62
685.09	9.62
685.12	-2.38
685.15	-15.38
685.18	9.62
685.21	6.62
685.24	6.62
685.27	11.62
685.3	11.62
685.33	11.62
685.36	8.62
685.39	-11.38
685.42	-7.38
685.45	-3.38
685.48	-4.38
685.51	-15.38
685.54	-0.38
685.569	3.62
685.599	-0.38
685.629	7.62
685.659	14.62
685.689	11.62
685.719	-5.38
685.749	2.62
685.779	7.62
685.809	-1.38
685.839	-4.38
685.869	0.62
685.898	-2.38
685.928	1.62
685.958	-8.38
685.988	5.62
686.018	5.62
686.048	1.62
686.078	-1.38
686.108	0.62
686.137	-6.38
686.167	2.62
686.197	-15.38
686.227	-11.38
686.257	20.62
686.287	5.62
686.317	-2.38
686.346	-3.38
686.376	-1.38
686.406	-15.38
686.436	-1.38
686.466	4.62
686.496	9.62
686.525	6.62
686.555	-0.38
686.585	-3.38
686.615	17.62
686.645	13.62
686.675	-6.38
686.704	5.62
686.734	-2.38
686.764	-11.38
686.794	-5.38
686.824	10.62
686.853	1.62
686.883	-10.38
686.913	-8.38
686.943	4.62
686.973	-14.38
687.002	4.62
687.032	12.62
687.062	-12.38
687.092	9.62
687.121	-7.38
687.151	1.62
687.181	-6.38
687.211	-2.38
687.24	-2.38
687.27	-2.38
687.3	0.62
687.33	-15.38
687.359	-30.38
687.389	-4.38
687.419	-23.38
687.449	7.62
687.478	9.62
687.508	-0.38
687.538	2.62
687.568	5.62
687.597	-12.38
687.627	-7.38
687.657	0.62
687.686	7.62
687.716	9.62
687.746	-2.38
687.776	-16.38
687.805	-1.38
687.835	-3.38
687.865	8.62
687.894	-3.38
687.924	-3.38
687.954	6.62
687.983	4.62
688.013	6.62
688.043	16.62
688.072	2.62
688.102	10.62
688.132	-4.38
688.161	-11.38
688.191	-9.38
688.221	9.62
688.25	-3.38
688.28	-12.38
688.31	-15.38
688.339	1.62
688.369	-8.38
688.399	0.62
688.428	-12.38
688.458	-14.38
688.488	-7.38
688.517	5.62
688.547	-18.38
688.576	19.62
688.606	18.62
688.636	-14.38
688.665	-4.38
688.695	17.62
688.725	2.62
688.754	13.62
688.784	-13.38
688.813	22.62
688.843	5.62
688.873	-10.38
688.902	-20.38
688.932	-0.38
688.961	12.62
688.991	7.62
689.02	4.62
689.05	5.62
689.08	10.62
689.109	8.62
689.139	-16.38
689.168	1.62
689.198	3.62
689.227	1.62
689.257	4.62
689.287	5.62
689.316	-13.38
689.346	-28.38
689.375	-1.38
689.405	0.62
689.434	-9.38
689.464	5.62
689.493	-2.38
689.523	-18.38
689.552	-2.38
689.582	1.62
689.611	-8.38
689.641	-4.38
689.67	-13.38
689.7	7.62
689.73	7.62
689.759	2.62
689.789	1.62
689.818	0.62
689.848	-3.38
689.877	14.62
689.906	-24.38
689.936	-29.38
689.965	0.62
689.995	-5.38
690.024	3.62
690.054	-11.38
690.083	0.62
690.113	-17.38
690.142	-7.38
690.172	-2.38
690.201	-4.38
690.231	-5.38
690.26	1.62
690.29	-22.38
690.319	-8.38
690.348	10.62
690.378	1.62
690.407	16.62
690.437	-2.38
690.466	4.62
690.496	3.62
690.525	2.62
690.555	-7.38
690.584	-4.38
690.613	-6.38
690.643	-7.38
690.672	0.62
690.702	-4.38
690.731	-7.38
690.76	12.62
690.79	42.62
690.819	50.62
690.849	42.62
690.878	14.62
690.907	23.62
690.937	16.62
690.966	12.62
690.996	13.62
691.025	1.62
691.054	-18.38
691.084	-6.38
691.113	-1.38
691.142	0.62
691.172	-1.38
691.201	1.62
691.23	6.62
691.26	1.62
691.289	-7.38
691.319	-0.38
691.348	0.62
691.377	2.62
691.407	6.62
691.436	7.62
691.465	2.62
691.495	-4.38
691.524	-19.38
691.553	-21.38
691.583	-4.38
691.612	11.62
691.641	5.62
691.67	1.62
691.7	-7.38
691.729	-16.38
691.758	-13.38
691.788	-7.38
691.817	-5.38
691.846	-11.38
691.876	-11.38
691.905	-6.38
691.934	-15.38
691.963	7.62
691.993	12.62
692.022	-5.38
692.051	-15.38
692.081	-1.38
692.11	-3.38
692.139	-6.38
692.168	3.62
692.198	11.62
692.227	3.62
692.256	9.62
692.285	8.62
692.315	-6.38
692.344	0.62
692.373	6.62
692.402	-20.38
692.432	-2.38
692.461	6.62
692.49	-6.38
692.519	-19.38
692.548	0.62
692.578	15.62
692.607	-7.38
692.636	-1.38
692.665	12.62
692.694	-5.38
692.724	-4.38
692.753	-3.38
692.782	10.62
692.811	-15.38
692.84	-10.38
692.87	-2.38
692.899	-1.38
692.928	-6.38
692.957	9.62
692.986	2.62
693.016	-3.38
693.045	-4.38
693.074	-13.38
693.103	-2.38
693.132	-6.38
693.161	9.62
693.191	-4.38
693.22	-13.38
693.249	-3.38
693.278	-3.38
693.307	1.62
693.336	-19.38
693.365	-14.38
693.395	-22.38
693.424	-5.38
693.453	11.62
693.482	-0.38
693.511	-3.38
693.54	-6.38
693.569	-0.38
693.598	-8.38
693.628	-1.38
693.657	8.62
693.686	19.62
693.715	10.62
693.744	7.62
693.773	8.62
693.802	-10.38
693.831	-10.38
693.86	19.62
693.889	-3.38
693.919	3.62
693.948	-14.38
693.977	4.62
694.006	6.62
694.035	0.62
694.064	1.62
694.093	2.62
694.122	-7.38
694.151	1.62
694.18	2.62
694.209	15.62
694.238	7.62
694.267	21.62
694.296	-2.38
694.325	10.62
694.354	2.62
694.383	3.62
694.412	-4.38
694.441	3.62
694.471	-6.38
694.5	-20.38
694.529	3.62
694.558	9.62
694.587	2.62
694.616	-3.38
694.645	-12.38
694.674	12.62
694.703	17.62
694.732	-14.38
694.761	-4.38
694.79	5.62
694.819	-21.38
694.848	-0.38
694.877	16.62
694.906	18.62
694.935	11.62
694.963	25.62
694.992	8.62
695.021	-9.38
695.05	-0.38
695.079	-1.38
695.108	-13.38
695.137	8.62
695.166	-7.38
695.195	-4.38
695.224	-9.38
695.253	-5.38
695.282	-0.38
695.311	-1.38
695.34	-3.38
695.369	-3.38
695.398	7.62
695.427	6.62
695.456	17.62
695.485	1.62
695.513	-4.38
695.542	-1.38
695.571	5.62
695.6	-0.38
695.629	6.62
695.658	-5.38
695.687	26.62
695.716	-3.38
695.745	15.62
695.774	-2.38
695.802	-5.38
695.831	-2.38
695.86	-2.38
695.889	12.62
695.918	4.62
695.947	-6.38
695.976	-10.38
696.005	-11.38
696.033	-14.38
696.062	10.62
696.091	7.62
696.12	-7.38
696.149	12.62
696.178	16.62
696.207	8.62
696.235	-4.38
696.264	7.62
696.293	5.62
696.322	2.62
696.351	17.62
696.38	-6.38
696.408	-3.38
696.437	-16.38
696.466	-1.38
696.495	25.62
696.524	25.62
696.553	-0.38
696.581	6.62
696.61	-7.38
696.639	-6.38
696.668	-0.38
696.697	-10.38
696.725	6.62
696.754	21.62
696.783	-3.38
696.812	-5.38
696.84	-2.38
696.869	4.62
696.898	-14.38
696.927	-2.38
696.956	11.62
696.984	-13.38
697.013	-10.38
697.042	-7.38
697.071	16.62
697.099	19.62
697.128	-7.38
697.157	-3.38
697.186	5.62
697.214	-0.38
697.243	-13.38
697.272	-9.38
697.301	-12.38
697.329	6.62
697.358	5.62
697.387	23.62
697.415	4.62
697.444	12.62
697.473	-5.38
697.502	-12.38
697.53	-3.38
697.559	-11.38
697.588	-11.38
697.616	4.62
697.645	-13.38
697.674	9.62
697.703	-3.38
697.731	1.62
697.76	-1.38
697.789	-1.38
697.817	-2.38
697.846	18.62
697.875	-4.38
697.903	8.62
697.932	7.62
697.961	11.62
697.989	-2.38
698.018	9.62
698.047	4.62
698.075	12.62
698.104	-5.38
698.133	-2.38
698.161	-10.38
698.19	-0.38
698.218	5.62
698.247	17.62
698.276	5.62
698.304	7.62
698.333	2.62
698.362	-12.38
698.39	8.62
698.419	10.62
698.447	-10.38
698.476	-7.38
698.505	5.62
698.533	6.62
698.562	11.62
698.591	-8.38
698.619	-0.38
698.648	1.62
698.676	-8.38
698.705	-3.38
698.733	-11.38
698.762	-2.38
698.791	-1.38
698.819	3.62
698.848	-3.38
698.876	4.62
698.905	-7.38
698.933	1.62
698.962	9.62
698.991	8.62
699.019	11.62
699.048	-8.38
699.076	-9.38
699.105	-12.38
699.133	13.62
699.162	-4.38
699.19	20.62
699.219	11.62
699.248	-10.38
699.276	-8.38
699.305	-5.38
699.333	-2.38
699.362	-3.38
699.39	-4.38
699.419	-14.38
699.447	-5.38
699.476	-1.38
699.504	-4.38
699.533	-3.38
699.561	-16.38
699.59	5.62
699.618	-12.38
699.647	-5.38
699.675	-11.38
699.704	4.62
699.732	-7.38
699.761	1.62
699.789	1.62
699.818	-3.38
699.846	5.62
699.874	7.62
699.903	-6.38
699.931	4.62
699.96	-1.38
699.988	0.62
700.017	-3.38
700.045	-14.38
700.074	-3.38
700.102	-8.38
700.13	-21.38
700.159	-4.38
700.187	-1.38
700.216	-5.38
700.244	-19.38
700.273	-19.38
700.301	-10.38
700.329	5.62
700.358	12.62
700.386	-26.38
700.415	-11.38
700.443	-5.38
700.472	-17.38
700.5	-7.38
700.528	-0.38
700.557	-10.38
700.585	-13.38
700.614	4.62
700.642	6.62
700.67	9.62
700.699	9.62
700.727	-10.38
700.755	-4.38
700.784	-12.38
700.812	-10.38
700.841	-3.38
700.869	-6.38
700.897	-22.38
700.926	-2.38
700.954	5.62
700.982	4.62
701.011	-6.38
701.039	-1.38
701.067	-10.38
701.096	-7.38
701.124	-18.38
701.152	-1.38
701.181	8.62
701.209	-16.38
701.237	-6.38
701.266	-10.38
701.294	-14.38
701.322	-5.38
701.351	-5.38
701.379	-8.38
701.407	-6.38
701.435	-2.38
701.464	-0.38
701.492	8.62
701.52	-3.38
701.549	1.62
701.577	-4.38
701.605	-18.38
701.634	-8.38
701.662	26.62
701.69	-16.38
701.718	-4.38
701.747	0.62
701.775	-16.38
701.803	-20.38
701.831	12.62
701.86	-8.38
701.888	-6.38
701.916	-11.38
701.944	-6.38
701.973	-5.38
702.001	-18.38
702.029	-14.38
702.057	-16.38
702.086	-1.38
702.114	-5.38
702.142	-7.38
702.17	-9.38
702.199	-1.38
702.227	-15.38
702.255	-10.38
702.283	-11.38
702.311	0.62
702.34	-8.38
702.368	-5.38
702.396	3.62
702.424	-14.38
702.452	-8.38
702.481	-5.38
702.509	-3.38
702.537	10.62
702.565	-1.38
702.593	-10.38
702.621	-4.38
702.65	10.62
702.678	10.62
702.706	2.62
702.734	-14.38
702.762	8.62
702.79	1.62
702.819	8.62
702.847	2.62
702.875	-2.38
702.903	10.62
702.931	-16.38
702.959	-17.38
702.988	-10.38
703.016	-17.38
703.044	-11.38
703.072	-7.38
703.1	-0.38
703.128	-7.38
703.156	4.62
703.184	-6.38
703.212	5.62
703.241	3.62
703.269	-2.38
703.297	-8.38
703.325	6.62
703.353	-9.38
703.381	-9.38
703.409	-1.38
703.437	-21.38
703.465	-3.38
703.493	-20.38
703.522	-2.38
703.55	-5.38
703.578	-8.38
703.606	-12.38
703.634	-11.38
703.662	-12.38
703.69	-24.38
703.718	-2.38
703.746	9.62
703.774	2.62
703.802	13.62
703.83	-16.38
703.858	2.62
703.886	4.62
703.914	1.62
703.942	7.62
703.97	-15.38
703.998	-10.38
704.027	5.62
704.055	6.62
704.083	-5.38
704.111	-10.38
704.139	3.62
704.167	-13.38
704.195	8.62
704.223	-9.38
704.251	-6.38
704.279	9.62
704.307	-1.38
704.335	-24.38
704.363	3.62
704.391	11.62
704.419	-16.38
704.447	-12.38
704.475	-9.38
704.503	-10.38
704.531	7.62
704.558	7.62
704.586	11.62
704.614	-14.38
704.642	-12.38
704.67	-21.38
704.698	0.62
704.726	-8.38
704.754	15.62
704.782	-2.38
704.81	12.62
704.838	17.62
704.866	4.62
704.894	-23.38
704.922	-11.38
704.95	0.62
704.978	-7.38
705.006	-8.38
705.034	4.62
705.061	-5.38
705.089	-11.38
705.117	-15.38
705.145	-13.38
705.173	-0.38
705.201	5.62
705.229	18.62
705.257	10.62
705.285	-0.38
705.313	8.62
705.34	-1.38
705.368	2.62
705.396	-2.38
705.424	-3.38
705.452	-6.38
705.48	-0.38
705.508	-0.38
705.536	-4.38
705.563	5.62
705.591	8.62
705.619	1.62
705.647	-16.38
705.675	-8.38
705.703	-10.38
705.731	-10.38
705.758	2.62
705.786	13.62
705.814	10.62
705.842	13.62
705.87	21.62
705.898	12.62
705.925	-8.38
705.953	-5.38
705.981	-19.38
706.009	1.62
706.037	1.62
706.065	-7.38
706.092	-16.38
706.12	-4.38
706.148	-13.38
706.176	-14.38
706.204	13.62
706.231	2.62
706.259	-14.38
706.287	6.62
706.315	4.62
706.342	-15.38
706.37	3.62
706.398	7.62
706.426	11.62
706.454	4.62
706.481	8.62
706.509	5.62
706.537	10.62
706.565	-8.38
706.592	-15.38
706.62	-1.38
706.648	7.62
706.676	-0.38
706.703	-20.38
706.731	-16.38
706.759	3.62
706.787	6.62
706.814	-1.38
706.842	-22.38
706.87	-9.38
706.897	-8.38
706.925	-7.38
706.953	7.62
706.981	19.62
707.008	17.62
707.036	-3.38
707.064	2.62
707.091	-24.38
707.119	3.62
707.147	-0.38
707.174	-9.38
707.202	9.62
707.23	5.62
707.258	8.62
707.285	-16.38
707.313	-6.38
707.341	1.62
707.368	-18.38
707.396	10.62
707.424	2.62
707.451	1.62
707.479	1.62
707.507	4.62
707.534	-0.38
707.562	7.62
707.59	-4.38
707.617	-25.38
707.645	-5.38
707.672	3.62
707.7	2.62
707.728	13.62
707.755	3.62
707.783	2.62
707.811	-2.38
707.838	-8.38
707.866	-1.38
707.893	2.62
707.921	-2.38
707.949	-8.38
707.976	8.62
708.004	-16.38
708.031	-20.38
708.059	-11.38
708.087	-4.38
708.114	-4.38
708.142	-9.38
708.169	-2.38
708.197	-24.38
708.225	-13.38
708.252	-3.38
708.28	25.62
708.307	-7.38
708.335	5.62
708.362	-0.38
708.39	-18.38
708.418	-6.38
708.445	-0.38
708.473	-7.38
708.5	-6.38
708.528	15.62
708.555	0.62
708.583	-8.38
708.61	-8.38
708.638	0.62
708.665	-21.38
708.693	-0.38
708.72	-7.38
708.748	-10.38
708.776	-7.38
708.803	17.62
708.831	8.62
708.858	6.62
708.886	4.62
708.913	10.62
708.941	2.62
708.968	9.62
708.996	-7.38
709.023	17.62
709.051	-19.38
709.078	-12.38
709.105	-8.38
709.133	-10.38
709.16	-15.38
709.188	0.62
709.215	-0.38
709.243	7.62
709.27	-14.38
709.298	-3.38
709.325	-12.38
709.353	5.62
709.38	16.62
709.408	6.62
709.435	-3.38
709.462	-2.38
709.49	-2.38
709.517	-15.38
709.545	3.62
709.572	-10.38
709.6	-2.38
709.627	5.62
709.655	-7.38
709.682	-14.38
709.709	0.62
709.737	-1.38
709.764	-2.38
709.792	18.62
709.819	-7.38
709.846	-13.38
709.874	8.62
709.901	12.62
709.929	12.62
709.956	0.62
709.983	-0.38
710.011	-0.38
710.038	-8.38
710.066	2.62
710.093	15.62
710.12	14.62
710.148	-7.38
710.175	-5.38
710.202	-5.38
710.23	-5.38
710.257	-3.38
710.284	18.62
710.312	0.62
710.339	-13.38
710.366	1.62
710.394	-10.38
710.421	-9.38
710.448	-1.38
710.476	-11.38
710.503	-6.38
710.53	5.62
710.558	1.62
710.585	14.62
710.612	0.62
710.64	-15.38
710.667	-19.38
710.694	-12.38
710.722	-16.38
710.749	-12.38
710.776	-5.38
710.804	10.62
710.831	-6.38
710.858	4.62
710.885	-0.38
710.913	-0.38
710.94	12.62
710.967	-5.38
710.995	-6.38
711.022	-3.38
711.049	-0.38
711.076	-2.38
711.104	5.62
711.131	-13.38
711.158	-4.38
711.185	-4.38
711.213	-22.38
711.24	-16.38
711.267	-0.38
711.294	-8.38
711.322	2.62
711.349	-5.38
711.376	-11.38
711.403	-6.38
711.431	6.62
711.458	-15.38
711.485	-14.38
711.512	-3.38
711.54	-11.38
711.567	-8.38
711.594	-5.38
711.621	-10.38
711.648	11.62
711.676	6.62
711.703	-14.38
711.73	-12.38
711.757	4.62
711.784	-0.38
711.812	6.62
711.839	-7.38
711.866	-9.38
711.893	-17.38
711.92	-12.38
711.947	-3.38
711.975	6.62
712.002	-6.38
712.029	-3.38
712.056	3.62
712.083	4.62
712.11	-16.38
712.138	-14.38
712.165	-0.38
712.192	-0.38
712.219	-12.38
712.246	-15.38
712.273	3.62
712.3	-13.38
712.328	-14.38
712.355	3.62
712.382	-15.38
712.409	4.62
712.436	-15.38
712.463	1.62
712.49	12.62
712.517	-12.38
712.544	-0.38
712.572	-11.38
712.599	-4.38
712.626	-16.38
712.653	-11.38
712.68	-9.38
712.707	15.62
712.734	8.62
712.761	2.62
712.788	3.62
712.815	4.62
712.842	10.62
712.87	-10.38
712.897	-13.38
712.924	-7.38
712.951	0.62
712.978	15.62
713.005	-0.38
713.032	8.62
713.059	6.62
713.086	-11.38
713.113	-21.38
713.14	-11.38
713.167	16.62
713.194	16.62
713.221	2.62
713.248	-10.38
713.275	-3.38
713.302	-8.38
713.329	10.62
713.356	14.62
713.383	-1.38
713.41	-2.38
713.437	-15.38
713.464	-7.38
713.491	-1.38
713.518	-8.38
713.545	-5.38
713.572	1.62
713.599	17.62
713.626	12.62
713.653	16.62
713.68	-6.38
713.707	-7.38
713.734	1.62
713.761	-11.38
713.788	0.62
713.815	4.62
713.842	-13.38
713.869	-11.38
713.896	1.62
713.923	5.62
713.95	-0.38
713.977	-20.38
714.004	5.62
714.031	-4.38
714.058	-12.38
714.085	-8.38
714.112	1.62
714.139	-11.38
714.165	-9.38
714.192	-27.38
714.219	-1.38
714.246	1.62
714.273	-17.38
714.3	5.62
714.327	10.62
714.354	20.62
714.381	-1.38
714.408	-3.38
714.435	-8.38
714.461	-13.38
714.488	20.62
714.515	-10.38
714.542	-22.38
714.569	-18.38
714.596	-15.38
714.623	-24.38
714.65	-16.38
714.677	-11.38
714.703	-7.38
714.73	11.62
714.757	-0.38
714.784	5.62
714.811	-17.38
714.838	3.62
714.865	-3.38
714.891	-5.38
714.918	-2.38
714.945	-14.38
714.972	-12.38
714.999	0.62
715.026	-12.38
715.052	-0.38
715.079	-5.38
715.106	12.62
715.133	1.62
715.16	-8.38
715.187	1.62
715.213	-2.38
715.24	-14.38
715.267	10.62
715.294	1.62
715.321	-11.38
715.347	-8.38
715.374	-14.38
715.401	-8.38
715.428	-13.38
715.455	-8.38
715.481	-15.38
715.508	10.62
715.535	-11.38
715.562	8.62
715.588	-2.38
715.615	-15.38
715.642	2.62
715.669	2.62
715.695	-15.38
715.722	-11.38
715.749	-6.38
715.776	14.62
715.802	-6.38
715.829	-7.38
715.856	-6.38
715.883	-13.38
715.909	-2.38
715.936	-0.38
715.963	-14.38
715.99	-8.38
716.016	12.62
716.043	-17.38
716.07	-7.38
716.096	-23.38
716.123	-16.38
716.15	0.62
716.177	-4.38
716.203	-23.38
716.23	20.62
716.257	5.62
716.283	15.62
716.31	-2.38
716.337	3.62
716.363	-7.38
716.39	0.62
716.417	20.62
716.443	-5.38
716.47	2.62
716.497	-6.38
716.523	-0.38
716.55	7.62
716.577	9.62
716.603	-7.38
716.63	-6.38
716.657	3.62
716.683	-10.38
716.71	-4.38
716.737	6.62
716.763	-1.38
716.79	3.62
716.817	-10.38
716.843	5.62
716.87	5.62
716.897	1.62
716.923	6.62
716.95	-16.38
716.976	-11.38
717.003	-2.38
717.03	2.62
717.056	-8.38
717.083	-8.38
717.109	1.62
717.136	4.62
717.163	-3.38
717.189	13.62
717.216	0.62
717.242	-13.38
717.269	3.62
717.296	6.62
717.322	4.62
717.349	18.62
717.375	4.62
717.402	-21.38
717.428	0.62
717.455	12.62
717.481	6.62
717.508	6.62
717.535	-3.38
717.561	-17.38
717.588	0.62
717.614	3.62
717.641	8.62
717.667	2.62
717.694	-0.38
717.72	-22.38
717.747	-15.38
717.773	-3.38
717.8	16.62
717.826	3.62
717.853	1.62
717.88	-10.38
717.906	5.62
717.933	13.62
717.959	12.62
717.986	-9.38
718.012	-10.38
718.039	-5.38
718.065	-6.38
718.092	6.62
718.118	-11.38
718.144	-18.38
718.171	9.62
718.197	19.62
718.224	-5.38
718.25	-3.38
718.277	5.62
718.303	-8.38
718.33	-9.38
718.356	-3.38
718.383	-7.38
718.409	-11.38
718.436	-7.38
718.462	-8.38
718.489	-4.38
718.515	4.62
718.541	10.62
718.568	3.62
718.594	-13.38
718.621	-1.38
718.647	2.62
718.674	1.62
718.7	15.62
718.726	-7.38
718.753	0.62
718.779	2.62
718.806	-3.38
718.832	-14.38
718.858	-16.38
718.885	-5.38
718.911	7.62
718.938	-2.38
718.964	-5.38
718.99	1.62
719.017	-10.38
719.043	-5.38
719.07	-2.38
719.096	-13.38
719.122	5.62
719.149	-6.38
719.175	-3.38
719.201	-7.38
719.228	0.62
719.254	-4.38
719.281	-18.38
719.307	-5.38
719.333	-11.38
719.36	4.62
719.386	-11.38
719.412	-0.38
719.439	-20.38
719.465	-24.38
719.491	-10.38
719.518	0.62
719.544	-3.38
719.57	-4.38
719.597	-0.38
719.623	-12.38
719.649	-4.38
719.675	-19.38
719.702	-3.38
719.728	6.62
719.754	-6.38
719.781	-17.38
719.807	-11.38
719.833	-13.38
719.86	-15.38
719.886	12.62
719.912	5.62
719.938	2.62
719.965	-1.38
719.991	3.62
720.017	-7.38
720.044	-13.38
720.07	-2.38
720.096	13.62
720.122	-6.38
720.149	5.62
720.175	5.62
720.201	10.62
720.227	-5.38
720.254	-8.38
720.28	1.62
720.306	-16.38
720.332	-8.38
720.359	-1.38
720.385	9.62
720.411	-12.38
720.437	-3.38
720.463	7.62
720.49	1.62
720.516	-14.38
720.542	-2.38
720.568	-7.38
720.595	9.62
720.621	4.62
720.647	-0.38
720.673	-0.38
720.699	5.62
720.725	6.62
720.752	8.62
720.778	5.62
720.804	-4.38
720.83	-3.38
720.856	-19.38
720.883	-20.38
720.909	-7.38
720.935	4.62
720.961	4.62
720.987	0.62
721.013	4.62
721.04	-12.38
721.066	-8.38
721.092	-5.38
721.118	-6.38
721.144	-8.38
721.17	-18.38
721.196	0.62
721.223	-23.38
721.249	-6.38
721.275	22.62
721.301	2.62
721.327	6.62
721.353	-1.38
721.379	-12.38
721.405	-4.38
721.432	5.62
721.458	13.62
721.484	-2.38
721.51	-10.38
721.536	-7.38
721.562	-14.38
721.588	-15.38
721.614	2.62
721.64	5.62
721.666	-4.38
721.693	-9.38
721.719	-19.38
721.745	-12.38
721.771	-17.38
721.797	-1.38
721.823	-10.38
721.849	3.62
721.875	5.62
721.901	0.62
721.927	-17.38
721.953	-2.38
721.979	8.62
722.005	-8.38
722.031	-22.38
722.057	-8.38
722.083	14.62
722.109	12.62
722.135	6.62
722.161	1.62
722.187	-13.38
722.214	-12.38
722.24	-10.38
722.266	-10.38
722.292	-4.38
722.318	14.62
722.344	7.62
722.37	-8.38
722.396	0.62
722.422	-9.38
722.448	-9.38
722.474	-13.38
722.5	-13.38
722.526	-3.38
722.552	-1.38
722.578	-3.38
722.603	-1.38
722.629	-13.38
722.655	6.62
722.681	-7.38
722.707	0.62
722.733	-2.38
722.759	-13.38
722.785	-4.38
722.811	-12.38
722.837	0.62
722.863	6.62
722.889	7.62
722.915	-7.38
722.941	-9.38
722.967	4.62
722.993	-8.38
723.019	-1.38
723.045	-5.38
723.071	-11.38
723.097	-0.38
723.122	-1.38
723.148	-7.38
723.174	-12.38
723.2	13.62
723.226	-5.38
723.252	1.62
723.278	-9.38
723.304	-4.38
723.33	-5.38
723.356	-1.38
723.381	-10.38
723.407	-21.38
723.433	-12.38
723.459	-14.38
723.485	-8.38
723.511	7.62
723.537	-4.38
723.563	5.62
723.588	9.62
723.614	-7.38
723.64	-11.38
723.666	-3.38
723.692	0.62
723.718	-13.38
723.744	1.62
723.769	-16.38
723.795	-20.38
723.821	3.62
723.847	-18.38
723.873	-4.38
723.899	-2.38
723.924	-7.38
723.95	-11.38
723.976	-15.38
724.002	-0.38
724.028	-10.38
724.053	-14.38
724.079	-7.38
724.105	-3.38
724.131	-8.38
724.157	1.62
724.182	-8.38
724.208	-16.38
724.234	-16.38
724.26	-3.38
724.286	-3.38
724.311	-10.38
724.337	-10.38
724.363	-3.38
724.389	-1.38
724.415	5.62
724.44	12.62
724.466	-13.38
724.492	-7.38
724.518	8.62
724.543	-2.38
724.569	4.62
724.595	3.62
724.621	-9.38
724.646	-6.38
724.672	-16.38
724.698	-12.38
724.723	-1.38
724.749	-1.38
724.775	-7.38
724.801	0.62
724.826	-5.38
724.852	1.62
724.878	-12.38
724.904	-11.38
724.929	6.62
724.955	-22.38
724.981	3.62
725.006	3.62
725.032	9.62
725.058	3.62
725.083	-9.38
725.109	2.62
725.135	9.62
725.161	5.62
725.186	-11.38
725.212	-16.38
725.238	-3.38
725.263	-3.38
725.289	-19.38
725.315	-13.38
725.34	1.62
725.366	2.62
725.392	-12.38
725.417	1.62
725.443	2.62
725.468	-2.38
725.494	5.62
725.52	-1.38
725.545	-6.38
725.571	-5.38
725.597	-5.38
725.622	-5.38
725.648	2.62
725.674	0.62
725.699	-12.38
725.725	-7.38
725.75	8.62
725.776	-12.38
725.802	4.62
725.827	3.62
725.853	-11.38
725.878	0.62
725.904	-7.38
725.93	-13.38
725.955	-18.38
725.981	-11.38
726.006	4.62
726.032	6.62
726.057	-16.38
726.083	-14.38
726.109	-19.38
726.134	-7.38
726.16	4.62
726.185	-6.38
726.211	-28.38
726.236	0.62
726.262	-2.38
726.288	4.62
726.313	24.62
726.339	11.62
726.364	-2.38
726.39	-1.38
726.415	-6.38
726.441	-19.38
726.466	-6.38
726.492	-3.38
726.517	-2.38
726.543	-2.38
726.568	-14.38
726.594	-5.38
726.619	0.62
726.645	-9.38
726.67	-2.38
726.696	4.62
726.721	-6.38
726.747	2.62
726.772	5.62
726.798	12.62
726.823	18.62
726.849	4.62
726.874	2.62
726.9	19.62
726.925	12.62
726.951	-17.38
726.976	4.62
727.002	-0.38
727.027	4.62
727.053	0.62
727.078	-14.38
727.104	1.62
727.129	-11.38
727.155	-10.38
727.18	5.62
727.205	-15.38
727.231	-16.38
727.256	-12.38
727.282	-3.38
727.307	6.62
727.333	15.62
727.358	1.62
727.383	-10.38
727.409	-13.38
727.434	10.62
727.46	-0.38
727.485	-3.38
727.511	4.62
727.536	-21.38
727.561	-8.38
727.587	-5.38
727.612	-15.38
727.637	-24.38
727.663	-29.38
727.688	3.62
727.714	-4.38
727.739	-4.38
727.764	-10.38
727.79	0.62
727.815	4.62
727.841	15.62
727.866	9.62
727.891	-6.38
727.917	-23.38
727.942	-15.38
727.967	-14.38
727.993	-18.38
728.018	-12.38
728.043	7.62
728.069	-8.38
728.094	-3.38
728.119	1.62
728.145	15.62
728.17	-9.38
728.195	-1.38
728.221	9.62
728.246	3.62
728.271	-17.38
728.297	-13.38
728.322	-4.38
728.347	-5.38
728.373	9.62
728.398	4.62
728.423	-11.38
728.448	-5.38
728.474	-15.38
728.499	7.62
728.524	-19.38
728.55	-6.38
728.575	-4.38
728.6	1.62
728.625	-24.38
728.651	-8.38
728.676	-13.38
728.701	-0.38
728.727	-1.38
728.752	-8.38
728.777	-1.38
728.802	2.62
728.828	-2.38
728.853	-4.38
728.878	-14.38
728.903	-26.38
728.929	-11.38
728.954	-8.38
728.979	1.62
729.004	-2.38
729.03	-8.38
729.055	2.62
729.08	-15.38
729.105	-27.38
729.13	13.62
729.156	5.62
729.181	-12.38
729.206	-19.38
729.231	-19.38
729.256	0.62
729.282	6.62
729.307	-24.38
729.332	-8.38
729.357	-8.38
729.382	-3.38
729.408	-3.38
729.433	3.62
729.458	2.62
729.483	12.62
729.508	19.62
729.533	0.62
729.559	3.62
729.584	-19.38
729.609	3.62
729.634	-1.38
729.659	-10.38
729.684	-9.38
729.71	11.62
729.735	0.62
729.76	-7.38
729.785	5.62
729.81	8.62
729.835	-11.38
729.86	0.62
729.886	-5.38
729.911	1.62
729.936	17.62
729.961	36.62
729.986	24.62
730.011	76.62
730.036	212.62
730.061	980.62
730.086	2663.62
730.112	3266.62
730.137	2834.62
730.162	2108.62
730.187	1659.62
730.212	1273.62
730.237	768.62
730.262	417.62
730.287	240.62
730.312	135.62
730.337	65.62
730.362	65.62
730.387	48.62
730.413	14.62
730.438	19.62
730.463	-2.38
730.488	-4.38
730.513	14.62
730.538	8.62
730.563	16.62
730.588	11.62
730.613	-3.38
730.638	-1.38
730.663	-15.38
730.688	6.62
730.713	5.62
730.738	10.62
730.763	-8.38
730.788	-8.38
730.813	11.62
730.838	1.62
730.863	1.62
730.888	-4.38
730.913	-12.38
730.938	-18.38
730.963	19.62
730.988	115.62
731.013	411.62
731.038	617.62
731.063	592.62
731.088	462.62
731.113	336.62
731.138	262.62
731.163	176.62
731.188	92.62
731.213	67.62
731.238	20.62
731.263	15.62
731.288	4.62
731.313	19.62
731.338	0.62
731.363	-3.38
731.388	-6.38
731.413	-3.38
731.438	12.62
731.463	2.62
731.487	3.62
731.512	-8.38
731.537	-2.38
731.562	3.62
731.587	5.62
731.612	-26.38
731.637	-4.38
731.662	1.62
731.687	-12.38
731.712	-8.38
731.737	5.62
731.762	13.62
731.786	5.62
731.811	7.62
731.836	-1.38
731.861	-7.38
731.886	-15.38
731.911	14.62
731.936	5.62
731.961	-16.38
731.986	-20.38
732.01	-3.38
732.035	-8.38
732.06	5.62
732.085	-6.38
732.11	-1.38
732.135	-8.38
732.16	0.62
732.184	10.62
732.209	-4.38
732.234	-5.38
732.259	-4.38
732.284	10.62
732.309	-3.38
732.334	-14.38
732.358	-5.38
732.383	-12.38
732.408	-12.38
732.433	4.62
732.458	-8.38
732.482	-6.38
732.507	2.62
732.532	-10.38
732.557	-3.38
732.582	5.62
732.607	15.62
732.631	56.62
732.656	84.62
732.681	139.62
732.706	313.62
732.73	450.62
732.755	393.62
732.78	280.62
732.805	231.62
732.83	175.62
732.854	127.62
732.879	72.62
732.904	29.62
732.929	15.62
732.953	16.62
732.978	5.62
733.003	-12.38
733.028	5.62
733.052	11.62
733.077	-0.38
733.102	11.62
733.127	-18.38
733.151	-16.38
733.176	-4.38
733.201	-14.38
733.226	1.62
733.25	-2.38
733.275	-5.38
733.3	4.62
733.324	17.62
733.349	1.62
733.374	-0.38
733.399	6.62
733.423	-3.38
733.448	-7.38
733.473	-5.38
733.497	-14.38
733.522	-1.38
733.547	12.62
733.571	12.62
733.596	8.62
733.621	9.62
733.646	-8.38
733.67	-0.38
733.695	-16.38
733.72	-0.38
733.744	-0.38
733.769	8.62
733.794	12.62
733.818	-0.38
733.843	3.62
733.867	-14.38
733.892	-14.38
733.917	-6.38
733.941	3.62
733.966	-12.38
733.991	-7.38
734.015	15.62
734.04	-6.38
734.065	-0.38
734.089	12.62
734.114	-5.38
734.138	-11.38
734.163	-11.38
734.188	-4.38
734.212	12.62
734.237	-0.38
734.261	-5.38
734.286	-3.38
734.311	-8.38
734.335	2.62
734.36	-6.38
734.384	-7.38
734.409	-0.38
734.434	-11.38
734.458	-2.38
734.483	4.62
734.507	-12.38
734.532	-15.38
734.556	9.62
734.581	-15.38
734.606	-18.38
734.63	-13.38
734.655	-2.38
734.679	-2.38
734.704	-14.38
734.728	-15.38
734.753	-19.38
734.777	-3.38
734.802	-11.38
734.826	-6.38
734.851	1.62
734.876	5.62
734.9	-2.38
734.925	-2.38
734.949	-1.38
734.974	-11.38
734.998	-3.38
735.023	-13.38
735.047	-24.38
735.072	22.62
735.096	1.62
735.121	-1.38
735.145	-16.38
735.17	-4.38
735.194	3.62
735.219	11.62
735.243	-4.38
735.268	1.62
735.292	-0.38
735.317	-4.38
735.341	-0.38
735.365	-16.38
735.39	4.62
735.414	12.62
735.439	4.62
735.463	3.62
735.488	19.62
735.512	9.62
735.537	3.62
735.561	7.62
735.586	-3.38
735.61	-7.38
735.634	-5.38
735.659	-10.38
735.683	20.62
735.708	-3.38
735.732	-1.38
735.757	11.62
735.781	1.62
735.805	-15.38
735.83	-16.38
735.854	-12.38
735.879	-2.38
735.903	3.62
735.927	-3.38
735.952	6.62
735.976	11.62
736.001	4.62
736.025	-5.38
736.049	7.62
736.074	-8.38
736.098	-8.38
736.123	-2.38
736.147	-12.38
736.171	3.62
736.196	8.62
736.22	-2.38
736.244	-4.38
736.269	-4.38
736.293	4.62
736.317	-19.38
736.342	1.62
736.366	16.62
736.39	10.62
736.415	-2.38
736.439	-0.38
736.463	3.62
736.488	-1.38
736.512	-3.38
736.536	9.62
736.561	17.62
736.585	-0.38
736.609	-6.38
736.634	-0.38
736.658	1.62
736.682	-20.38
736.707	-31.38
736.731	-5.38
736.755	-16.38
736.78	8.62
736.804	-2.38
736.828	8.62
736.852	-7.38
736.877	-3.38
736.901	11.62
736.925	-10.38
736.949	-15.38
736.974	-23.38
736.998	-5.38
737.022	2.62
737.047	3.62
737.071	-10.38
737.095	7.62
737.119	17.62
737.144	7.62
737.168	-10.38
737.192	-19.38
737.216	-6.38
737.241	-8.38
737.265	-16.38
737.289	-16.38
737.313	-5.38
737.337	-3.38
737.362	9.62
737.386	3.62
737.41	-0.38
737.434	-8.38
737.459	4.62
737.483	5.62
737.507	14.62
737.531	16.62
737.555	10.62
737.58	4.62
737.604	-4.38
737.628	-21.38
737.652	-14.38
737.676	-16.38
737.701	-2.38
737.725	-10.38
737.749	7.62
737.773	3.62
737.797	-7.38
737.821	-9.38
737.846	-5.38
737.87	19.62
737.894	2.62
737.918	12.62
737.942	-6.38
737.966	16.62
737.99	18.62
738.015	18.62
738.039	7.62
738.063	-19.38
738.087	7.62
738.111	-23.38
738.135	-1.38
738.159	-10.38
738.184	0.62
738.208	0.62
738.232	-2.38
738.256	10.62
738.28	8.62
738.304	11.62
738.328	-14.38
738.352	-5.38
738.376	-2.38
738.4	17.62
738.425	13.62
738.449	-0.38
738.473	15.62
738.497	2.62
738.521	7.62
738.545	23.62
738.569	11.62
738.593	5.62
738.617	-3.38
738.641	0.62
738.665	6.62
738.689	-8.38
738.713	-0.38
738.737	15.62
738.762	-5.38
738.786	-12.38
738.81	-6.38
738.834	3.62
738.858	-5.38
738.882	-4.38
738.906	-3.38
738.93	4.62
738.954	-7.38
738.978	0.62
739.002	-5.38
739.026	3.62
739.05	-0.38
739.074	-7.38
739.098	11.62
739.122	11.62
739.146	3.62
739.17	3.62
739.194	8.62
739.218	-18.38
739.242	0.62
739.266	-13.38
739.29	-0.38
739.314	8.62
739.338	-0.38
739.362	-20.38
739.386	0.62
739.41	-22.38
739.434	-15.38
739.458	12.62
739.482	7.62
739.506	-11.38
739.53	-11.38
739.554	5.62
739.577	-0.38
739.601	-8.38
739.625	-17.38
739.649	-0.38
739.673	-7.38
739.697	-4.38
739.721	-6.38
739.745	-3.38
739.769	7.62
739.793	5.62
739.817	12.62
739.841	5.62
739.865	1.62
739.889	-5.38
739.912	17.62
739.936	-4.38
739.96	-0.38
739.984	12.62
740.008	-5.38
740.032	-4.38
740.056	0.62
740.08	13.62
740.104	-3.38
740.127	11.62
740.151	0.62
740.175	7.62
740.199	11.62
740.223	39.62
740.247	3.62
740.271	-7.38
740.295	-6.38
740.318	-7.38
740.342	2.62
740.366	-1.38
740.39	0.62
740.414	-16.38
740.438	-20.38
740.461	4.62
740.485	-12.38
740.509	-17.38
740.533	7.62
740.557	-0.38
740.581	-2.38
740.604	-14.38
740.628	-10.38
740.652	4.62
740.676	-7.38
740.7	5.62
740.723	-3.38
740.747	-9.38
740.771	-5.38
740.795	-16.38
740.819	-4.38
740.842	8.62
740.866	8.62
740.89	7.62
740.914	-16.38
740.938	-4.38
740.961	-3.38
740.985	-0.38
741.009	-11.38
741.033	-5.38
741.056	-7.38
741.08	-3.38
741.104	-11.38
741.128	-10.38
741.151	3.62
741.175	-1.38
741.199	-7.38
741.223	-9.38
741.246	-10.38
741.27	2.62
741.294	-0.38
741.318	-5.38
741.341	-17.38
741.365	3.62
741.389	-15.38
741.413	-1.38
741.436	-1.38
741.46	0.62
741.484	15.62
741.507	-4.38
741.531	11.62
741.555	0.62
741.579	4.62
741.602	-4.38
741.626	3.62
741.65	-4.38
741.673	-9.38
741.697	-10.38
741.721	-24.38
741.744	-27.38
741.768	-12.38
741.792	-7.38
741.815	-10.38
741.839	6.62
741.863	16.62
741.886	-7.38
741.91	-5.38
741.934	-14.38
741.957	-23.38
741.981	13.62
742.005	-6.38
742.028	-22.38
742.052	-10.38
742.075	3.62
742.099	-6.38
742.123	-10.38
742.146	-7.38
742.17	-1.38
742.194	-20.38
742.217	-13.38
742.241	-10.38
742.264	3.62
742.288	17.62
742.312	2.62
742.335	2.62
742.359	0.62
742.382	14.62
742.406	24.62
742.43	-11.38
742.453	-6.38
742.477	-20.38
742.5	-1.38
742.524	-14.38
742.548	-18.38
742.571	-7.38
742.595	-9.38
742.618	-18.38
742.642	-8.38
742.665	1.62
742.689	-16.38
742.712	8.62
742.736	-2.38
742.76	-5.38
742.783	15.62
742.807	2.62
742.83	11.62
742.854	-23.38
742.877	-17.38
742.901	-5.38
742.924	-18.38
742.948	0.62
742.971	3.62
742.995	-4.38
743.018	-10.38
743.042	-11.38
743.065	-8.38
743.089	-5.38
743.112	-4.38
743.136	-14.38
743.159	-16.38
743.183	-7.38
743.206	-0.38
743.23	-16.38
743.253	2.62
743.277	-2.38
743.3	-11.38
743.324	-6.38
743.347	-10.38
743.371	16.62
743.394	7.62
743.418	16.62
743.441	-2.38
743.465	-0.38
743.488	20.62
743.512	-1.38
743.535	4.62
743.558	-2.38
743.582	-11.38
743.605	-7.38
743.629	-2.38
743.652	-3.38
743.676	-0.38
743.699	18.62
743.723	8.62
743.746	0.62
743.769	-11.38
743.793	-3.38
743.816	-15.38
743.84	2.62
743.863	-4.38
743.886	-14.38
743.91	-4.38
743.933	1.62
743.957	13.62
743.98	-4.38
744.003	3.62
744.027	-0.38
744.05	-1.38
744.074	8.62
744.097	-8.38
744.12	-3.38
744.144	-7.38
744.167	13.62
744.19	-3.38
744.214	-9.38
744.237	-8.38
744.26	25.62
744.284	-4.38
744.307	-16.38
744.331	7.62
744.354	-6.38
744.377	-1.38
744.401	-1.38
744.424	-4.38
744.447	-15.38
744.471	-4.38
