Data from HighRes_mercury_15_13_11_07_2024_HR4C61891__45__15-14-27-686.txt Node

Date: Thu Nov 07 15:14:27 EST 2024
User: crc00042
Spectrometer: HR4C6189
Trigger mode: 4
Integration Time (sec): 1.000000E-1
Scans to average: 1
Electric dark correction enabled: true
Nonlinearity correction enabled: false
Boxcar width: 0
XAxis mode: Wavelengths
Number of Pixels in Spectrum: 3648
>>>>>Begin Spectral Data<<<<<
639.567	-72.77
639.602	-72.77
639.636	-72.77
639.67	-54.77
639.704	2.23
639.738	-2.77
639.773	5.23
639.807	-5.77
639.841	-3.77
639.875	17.23
639.909	1.23
639.943	-8.77
639.978	-3.77
640.012	11.23
640.046	-11.77
640.08	7.23
640.114	10.23
640.148	-15.77
640.182	-12.77
640.217	1.23
640.251	13.23
640.285	8.23
640.319	-19.77
640.353	-3.77
640.387	-9.77
640.421	-0.77
640.455	10.23
640.49	-7.77
640.524	-3.77
640.558	1.23
640.592	11.23
640.626	-5.77
640.66	15.23
640.694	-0.77
640.728	5.23
640.762	15.23
640.796	0.23
640.83	24.23
640.865	-11.77
640.899	6.23
640.933	-7.77
640.967	4.23
641.001	-0.77
641.035	-3.77
641.069	3.23
641.103	2.23
641.137	-1.77
641.171	-6.77
641.205	10.23
641.239	14.23
641.273	0.23
641.307	4.23
641.341	5.23
641.375	7.23
641.409	-4.77
641.443	-6.77
641.477	6.23
641.511	6.23
641.545	6.23
641.579	8.23
641.614	10.23
641.648	13.23
641.682	1.23
641.716	-0.77
641.75	22.23
641.784	-6.77
641.818	-4.77
641.852	14.23
641.886	-4.77
641.919	26.23
641.953	-0.77
641.987	-22.77
642.021	-2.77
642.055	-2.77
642.089	3.23
642.123	-13.77
642.157	1.23
642.191	-0.77
642.225	-4.77
642.259	-17.77
642.293	-0.77
642.327	0.23
642.361	-8.77
642.395	2.23
642.429	11.23
642.463	10.23
642.497	16.23
642.531	2.23
642.565	-6.77
642.599	2.23
642.633	-2.77
642.666	4.23
642.7	10.23
642.734	10.23
642.768	-6.77
642.802	2.23
642.836	9.23
642.87	0.23
642.904	9.23
642.938	32.23
642.972	1.23
643.005	9.23
643.039	7.23
643.073	-0.77
643.107	8.23
643.141	11.23
643.175	-10.77
643.209	0.23
643.243	-4.77
643.276	13.23
643.31	-0.77
643.344	-9.77
643.378	3.23
643.412	17.23
643.446	9.23
643.48	-14.77
643.513	-2.77
643.547	1.23
643.581	-3.77
643.615	1.23
643.649	1.23
643.683	10.23
643.716	0.23
643.75	11.23
643.784	2.23
643.818	9.23
643.852	-4.77
643.886	-7.77
643.919	14.23
643.953	7.23
643.987	-7.77
644.021	18.23
644.055	11.23
644.088	-5.77
644.122	-0.77
644.156	-10.77
644.19	10.23
644.224	-3.77
644.257	-9.77
644.291	7.23
644.325	-0.77
644.359	-4.77
644.392	28.23
644.426	11.23
644.46	-1.77
644.494	11.23
644.527	0.23
644.561	-0.77
644.595	-0.77
644.629	-3.77
644.662	-24.77
644.696	8.23
644.73	29.23
644.764	3.23
644.797	-4.77
644.831	-0.77
644.865	8.23
644.899	12.23
644.932	21.23
644.966	12.23
645	-1.77
645.033	6.23
645.067	12.23
645.101	16.23
645.135	-11.77
645.168	0.23
645.202	-9.77
645.236	1.23
645.269	7.23
645.303	-10.77
645.337	-2.77
645.37	-14.77
645.404	5.23
645.438	5.23
645.471	-9.77
645.505	5.23
645.539	0.23
645.572	-0.77
645.606	-8.77
645.64	10.23
645.673	25.23
645.707	18.23
645.741	-8.77
645.774	-12.77
645.808	-8.77
645.842	-11.77
645.875	7.23
645.909	-2.77
645.943	0.23
645.976	16.23
646.01	7.23
646.043	-1.77
646.077	3.23
646.111	-3.77
646.144	21.23
646.178	3.23
646.212	-17.77
646.245	-5.77
646.279	8.23
646.312	-10.77
646.346	19.23
646.38	0.23
646.413	4.23
646.447	-11.77
646.48	-4.77
646.514	11.23
646.547	-1.77
646.581	-2.77
646.615	4.23
646.648	-4.77
646.682	-11.77
646.715	1.23
646.749	-7.77
646.782	-11.77
646.816	-3.77
646.85	10.23
646.883	-6.77
646.917	-4.77
646.95	-1.77
646.984	-1.77
647.017	-1.77
647.051	9.23
647.084	1.23
647.118	-0.77
647.151	2.23
647.185	12.23
647.218	4.23
647.252	3.23
647.285	-9.77
647.319	-14.77
647.353	-13.77
647.386	17.23
647.42	-1.77
647.453	5.23
647.487	-18.77
647.52	-0.77
647.553	5.23
647.587	-2.77
647.62	-4.77
647.654	2.23
647.687	2.23
647.721	17.23
647.754	9.23
647.788	13.23
647.821	-2.77
647.855	10.23
647.888	5.23
647.922	-2.77
647.955	-2.77
647.989	5.23
648.022	-0.77
648.055	16.23
648.089	-18.77
648.122	20.23
648.156	-2.77
648.189	1.23
648.223	5.23
648.256	16.23
648.29	8.23
648.323	-0.77
648.356	13.23
648.39	-0.77
648.423	-5.77
648.457	-5.77
648.49	16.23
648.523	2.23
648.557	-8.77
648.59	-13.77
648.624	-7.77
648.657	6.23
648.69	12.23
648.724	16.23
648.757	16.23
648.791	3.23
648.824	-10.77
648.857	16.23
648.891	5.23
648.924	6.23
648.957	29.23
648.991	13.23
649.024	7.23
649.057	-14.77
649.091	0.23
649.124	-11.77
649.158	-4.77
649.191	27.23
649.224	3.23
649.258	9.23
649.291	15.23
649.324	3.23
649.358	9.23
649.391	-16.77
649.424	1.23
649.458	4.23
649.491	-7.77
649.524	1.23
649.557	-15.77
649.591	-23.77
649.624	20.23
649.657	-7.77
649.691	-3.77
649.724	-1.77
649.757	4.23
649.791	-16.77
649.824	12.23
649.857	6.23
649.89	14.23
649.924	-0.77
649.957	-0.77
649.99	-2.77
650.023	9.23
650.057	5.23
650.09	21.23
650.123	6.23
650.157	6.23
650.19	12.23
650.223	-1.77
650.256	-10.77
650.29	2.23
650.323	9.23
650.356	11.23
650.389	-7.77
650.423	-24.77
650.456	-0.77
650.489	4.23
650.522	7.23
650.555	6.23
650.589	0.23
650.622	13.23
650.655	-13.77
650.688	-4.77
650.721	-14.77
650.755	-9.77
650.788	1.23
650.821	1.23
650.854	-9.77
650.887	7.23
650.921	-1.77
650.954	4.23
650.987	-13.77
651.02	-13.77
651.053	-16.77
651.087	3.23
651.12	9.23
651.153	6.23
651.186	9.23
651.219	-12.77
651.252	4.23
651.286	-7.77
651.319	-17.77
651.352	-10.77
651.385	-10.77
651.418	7.23
651.451	17.23
651.484	11.23
651.518	-11.77
651.551	8.23
651.584	-14.77
651.617	13.23
651.65	-2.77
651.683	18.23
651.716	7.23
651.749	-2.77
651.783	-8.77
651.816	-9.77
651.849	7.23
651.882	3.23
651.915	5.23
651.948	4.23
651.981	0.23
652.014	-14.77
652.047	-11.77
652.08	-12.77
652.114	8.23
652.147	0.23
652.18	8.23
652.213	30.23
652.246	-0.77
652.279	-16.77
652.312	18.23
652.345	4.23
652.378	1.23
652.411	-1.77
652.444	-6.77
652.477	4.23
652.51	6.23
652.543	-22.77
652.576	-17.77
652.609	-23.77
652.642	-1.77
652.675	22.23
652.709	2.23
652.742	-0.77
652.775	-0.77
652.808	-3.77
652.841	4.23
652.874	-9.77
652.907	15.23
652.94	8.23
652.973	-7.77
653.006	8.23
653.039	4.23
653.072	16.23
653.105	21.23
653.138	-15.77
653.171	-14.77
653.204	-11.77
653.237	3.23
653.27	-5.77
653.303	-1.77
653.336	9.23
653.368	6.23
653.401	-2.77
653.434	-7.77
653.467	-11.77
653.5	-21.77
653.533	-16.77
653.566	20.23
653.599	17.23
653.632	-4.77
653.665	-1.77
653.698	-17.77
653.731	-15.77
653.764	19.23
653.797	-0.77
653.83	-11.77
653.863	3.23
653.896	12.23
653.929	-9.77
653.961	-1.77
653.994	-10.77
654.027	-10.77
654.06	-10.77
654.093	1.23
654.126	5.23
654.159	-6.77
654.192	18.23
654.225	-7.77
654.258	-5.77
654.29	7.23
654.323	8.23
654.356	-1.77
654.389	1.23
654.422	-5.77
654.455	0.23
654.488	-7.77
654.521	-13.77
654.553	-3.77
654.586	6.23
654.619	-10.77
654.652	10.23
654.685	15.23
654.718	8.23
654.751	13.23
654.783	5.23
654.816	16.23
654.849	6.23
654.882	-0.77
654.915	-19.77
654.948	-8.77
654.98	7.23
655.013	-9.77
655.046	-4.77
655.079	-17.77
655.112	-4.77
655.144	0.23
655.177	8.23
655.21	4.23
655.243	0.23
655.276	-10.77
655.308	-17.77
655.341	-10.77
655.374	9.23
655.407	2.23
655.44	-8.77
655.472	0.23
655.505	1.23
655.538	-10.77
655.571	0.23
655.603	-8.77
655.636	2.23
655.669	6.23
655.702	-2.77
655.734	-8.77
655.767	-9.77
655.8	-3.77
655.833	-18.77
655.865	7.23
655.898	-3.77
655.931	-15.77
655.964	8.23
655.996	-1.77
656.029	0.23
656.062	12.23
656.095	4.23
656.127	-20.77
656.16	-10.77
656.193	10.23
656.225	4.23
656.258	23.23
656.291	7.23
656.324	-0.77
656.356	-9.77
656.389	-6.77
656.422	18.23
656.454	-14.77
656.487	0.23
656.52	13.23
656.552	-6.77
656.585	0.23
656.618	18.23
656.65	3.23
656.683	-7.77
656.716	0.23
656.748	7.23
656.781	0.23
656.814	-9.77
656.846	9.23
656.879	10.23
656.912	-12.77
656.944	-32.77
656.977	-8.77
657.01	-6.77
657.042	10.23
657.075	-0.77
657.108	-11.77
657.14	10.23
657.173	14.23
657.205	22.23
657.238	4.23
657.271	-10.77
657.303	-9.77
657.336	17.23
657.369	-3.77
657.401	4.23
657.434	10.23
657.466	14.23
657.499	-10.77
657.532	-2.77
657.564	24.23
657.597	-10.77
657.629	-3.77
657.662	14.23
657.694	5.23
657.727	-5.77
657.76	4.23
657.792	5.23
657.825	-2.77
657.857	-2.77
657.89	-8.77
657.922	9.23
657.955	-18.77
657.987	-15.77
658.02	-0.77
658.053	-6.77
658.085	5.23
658.118	1.23
658.15	17.23
658.183	9.23
658.215	0.23
658.248	3.23
658.28	-9.77
658.313	9.23
658.345	8.23
658.378	1.23
658.41	-7.77
658.443	10.23
658.475	-4.77
658.508	-15.77
658.54	5.23
658.573	-6.77
658.605	-0.77
658.638	2.23
658.67	7.23
658.703	-1.77
658.735	-16.77
658.768	12.23
658.8	-0.77
658.833	1.23
658.865	-12.77
658.898	-7.77
658.93	-6.77
658.963	-6.77
658.995	-21.77
659.028	-8.77
659.06	-5.77
659.092	-7.77
659.125	-1.77
659.157	5.23
659.19	4.23
659.222	3.23
659.255	-0.77
659.287	-6.77
659.32	4.23
659.352	-7.77
659.384	2.23
659.417	1.23
659.449	14.23
659.482	2.23
659.514	-6.77
659.546	-3.77
659.579	-9.77
659.611	-10.77
659.644	-16.77
659.676	-13.77
659.708	-22.77
659.741	-6.77
659.773	0.23
659.806	-3.77
659.838	4.23
659.87	-1.77
659.903	-17.77
659.935	11.23
659.967	18.23
660	13.23
660.032	3.23
660.065	18.23
660.097	0.23
660.129	-17.77
660.162	-14.77
660.194	4.23
660.226	9.23
660.259	6.23
660.291	-7.77
660.323	-6.77
660.356	8.23
660.388	-11.77
660.42	0.23
660.453	9.23
660.485	0.23
660.517	6.23
660.55	27.23
660.582	7.23
660.614	9.23
660.647	6.23
660.679	-18.77
660.711	13.23
660.743	-5.77
660.776	-5.77
660.808	1.23
660.84	-15.77
660.873	3.23
660.905	-4.77
660.937	-10.77
660.969	-3.77
661.002	2.23
661.034	7.23
661.066	-3.77
661.099	-0.77
661.131	10.23
661.163	5.23
661.195	-4.77
661.228	4.23
661.26	-10.77
661.292	-4.77
661.324	1.23
661.357	-4.77
661.389	-2.77
661.421	-4.77
661.453	-10.77
661.485	7.23
661.518	5.23
661.55	-13.77
661.582	-19.77
661.614	7.23
661.647	6.23
661.679	-4.77
661.711	-6.77
661.743	-9.77
661.775	-0.77
661.808	8.23
661.84	-20.77
661.872	2.23
661.904	-7.77
661.936	-19.77
661.969	-2.77
662.001	1.23
662.033	1.23
662.065	4.23
662.097	14.23
662.129	10.23
662.162	-11.77
662.194	-4.77
662.226	6.23
662.258	4.23
662.29	0.23
662.322	-1.77
662.355	-8.77
662.387	16.23
662.419	3.23
662.451	19.23
662.483	15.23
662.515	-12.77
662.547	-2.77
662.58	-10.77
662.612	-7.77
662.644	-19.77
662.676	-18.77
662.708	21.23
662.74	-2.77
662.772	-4.77
662.804	-0.77
662.836	15.23
662.869	-9.77
662.901	2.23
662.933	-1.77
662.965	7.23
662.997	13.23
663.029	-7.77
663.061	-9.77
663.093	-6.77
663.125	7.23
663.157	17.23
663.189	-3.77
663.221	16.23
663.254	0.23
663.286	2.23
663.318	9.23
663.35	5.23
663.382	8.23
663.414	22.23
663.446	1.23
663.478	-10.77
663.51	20.23
663.542	1.23
663.574	-0.77
663.606	-0.77
663.638	-10.77
663.67	-5.77
663.702	9.23
663.734	15.23
663.766	-2.77
663.798	-9.77
663.83	-11.77
663.862	-4.77
663.894	9.23
663.926	-0.77
663.958	11.23
663.99	4.23
664.022	-10.77
664.054	-10.77
664.086	-12.77
664.118	-11.77
664.15	-3.77
664.182	3.23
664.214	-10.77
664.246	9.23
664.278	17.23
664.31	26.23
664.342	12.23
664.374	-3.77
664.406	-12.77
664.438	-2.77
664.47	7.23
664.502	-10.77
664.534	-12.77
664.566	-2.77
664.598	-5.77
664.63	-10.77
664.662	7.23
664.693	3.23
664.725	2.23
664.757	-3.77
664.789	-2.77
664.821	-8.77
664.853	7.23
664.885	4.23
664.917	-2.77
664.949	-7.77
664.981	15.23
665.013	10.23
665.045	-2.77
665.076	-2.77
665.108	-0.77
665.14	-10.77
665.172	-3.77
665.204	-1.77
665.236	-5.77
665.268	9.23
665.3	-6.77
665.331	-8.77
665.363	-3.77
665.395	6.23
665.427	3.23
665.459	5.23
665.491	-2.77
665.523	1.23
665.555	-8.77
665.586	1.23
665.618	2.23
665.65	-8.77
665.682	8.23
665.714	6.23
665.746	-7.77
665.777	-14.77
665.809	-14.77
665.841	-4.77
665.873	2.23
665.905	9.23
665.937	26.23
665.968	-1.77
666	-11.77
666.032	-1.77
666.064	6.23
666.096	-0.77
666.127	5.23
666.159	1.23
666.191	9.23
666.223	1.23
666.255	-4.77
666.286	0.23
666.318	1.23
666.35	9.23
666.382	6.23
666.413	-14.77
666.445	-6.77
666.477	-13.77
666.509	12.23
666.54	-4.77
666.572	-3.77
666.604	2.23
666.636	2.23
666.667	14.23
666.699	10.23
666.731	-7.77
666.763	-27.77
666.794	-8.77
666.826	-1.77
666.858	-16.77
666.89	6.23
666.921	-1.77
666.953	1.23
666.985	15.23
667.017	16.23
667.048	-4.77
667.08	-0.77
667.112	-23.77
667.143	-3.77
667.175	-3.77
667.207	-2.77
667.238	-3.77
667.27	4.23
667.302	5.23
667.334	4.23
667.365	14.23
667.397	15.23
667.429	-8.77
667.46	7.23
667.492	3.23
667.524	-1.77
667.555	-7.77
667.587	14.23
667.619	8.23
667.65	-1.77
667.682	27.23
667.714	8.23
667.745	1.23
667.777	12.23
667.808	18.23
667.84	8.23
667.872	-0.77
667.903	-1.77
667.935	5.23
667.967	-0.77
667.998	0.23
668.03	9.23
668.061	2.23
668.093	0.23
668.125	4.23
668.156	5.23
668.188	-4.77
668.22	4.23
668.251	-7.77
668.283	-2.77
668.314	21.23
668.346	5.23
668.377	23.23
668.409	-13.77
668.441	9.23
668.472	3.23
668.504	20.23
668.535	-2.77
668.567	1.23
668.599	2.23
668.63	-0.77
668.662	5.23
668.693	11.23
668.725	6.23
668.756	1.23
668.788	-10.77
668.819	13.23
668.851	-9.77
668.882	4.23
668.914	-8.77
668.946	-25.77
668.977	-15.77
669.009	5.23
669.04	-6.77
669.072	8.23
669.103	-15.77
669.135	-7.77
669.166	-4.77
669.198	2.23
669.229	2.23
669.261	7.23
669.292	4.23
669.324	-5.77
669.355	10.23
669.387	-17.77
669.418	-6.77
669.45	-9.77
669.481	-0.77
669.513	2.23
669.544	-5.77
669.576	-7.77
669.607	16.23
669.639	11.23
669.67	-8.77
669.701	12.23
669.733	-11.77
669.764	-23.77
669.796	-15.77
669.827	-0.77
669.859	-11.77
669.89	7.23
669.922	5.23
669.953	-7.77
669.985	6.23
670.016	-1.77
670.047	6.23
670.079	3.23
670.11	-3.77
670.142	9.23
670.173	0.23
670.204	-12.77
670.236	4.23
670.267	-13.77
670.299	-5.77
670.33	3.23
670.362	3.23
670.393	-13.77
670.424	4.23
670.456	-6.77
670.487	-13.77
670.518	4.23
670.55	-12.77
670.581	-15.77
670.613	-0.77
670.644	-7.77
670.675	-10.77
670.707	-6.77
670.738	9.23
670.769	-7.77
670.801	0.23
670.832	4.23
670.864	-13.77
670.895	1.23
670.926	-1.77
670.958	-9.77
670.989	4.23
671.02	-12.77
671.052	-8.77
671.083	-2.77
671.114	3.23
671.146	8.23
671.177	16.23
671.208	-15.77
671.24	-17.77
671.271	-1.77
671.302	9.23
671.333	-3.77
671.365	0.23
671.396	-11.77
671.427	-1.77
671.459	1.23
671.49	-5.77
671.521	14.23
671.553	-4.77
671.584	7.23
671.615	-9.77
671.646	1.23
671.678	4.23
671.709	-15.77
671.74	-21.77
671.771	-0.77
671.803	-9.77
671.834	-0.77
671.865	-6.77
671.896	9.23
671.928	3.23
671.959	0.23
671.99	-11.77
672.021	-2.77
672.053	-3.77
672.084	-3.77
672.115	-2.77
672.146	-8.77
672.178	-10.77
672.209	-18.77
672.24	-8.77
672.271	6.23
672.303	-12.77
672.334	-7.77
672.365	-15.77
672.396	-3.77
672.427	6.23
672.459	10.23
672.49	14.23
672.521	1.23
672.552	28.23
672.583	1.23
672.615	-3.77
672.646	14.23
672.677	-6.77
672.708	-19.77
672.739	-3.77
672.77	5.23
672.802	1.23
672.833	7.23
672.864	0.23
672.895	4.23
672.926	-7.77
672.957	-5.77
672.989	7.23
673.02	-11.77
673.051	-1.77
673.082	18.23
673.113	-18.77
673.144	4.23
673.175	10.23
673.206	-2.77
673.238	-7.77
673.269	1.23
673.3	-3.77
673.331	6.23
673.362	-7.77
673.393	4.23
673.424	4.23
673.455	18.23
673.487	-2.77
673.518	18.23
673.549	13.23
673.58	-0.77
673.611	-7.77
673.642	-3.77
673.673	-16.77
673.704	1.23
673.735	0.23
673.766	-11.77
673.797	2.23
673.828	13.23
673.86	-5.77
673.891	-4.77
673.922	-22.77
673.953	-17.77
673.984	1.23
674.015	-6.77
674.046	7.23
674.077	3.23
674.108	-14.77
674.139	-17.77
674.17	-2.77
674.201	-5.77
674.232	-5.77
674.263	3.23
674.294	-9.77
674.325	-22.77
674.356	-12.77
674.387	-3.77
674.418	16.23
674.449	0.23
674.48	-9.77
674.511	-2.77
674.542	-1.77
674.573	-16.77
674.604	13.23
674.635	-11.77
674.666	-3.77
674.697	6.23
674.728	0.23
674.759	2.23
674.79	-5.77
674.821	-7.77
674.852	4.23
674.883	-14.77
674.914	2.23
674.945	-10.77
674.976	-2.77
675.007	-5.77
675.038	-15.77
675.069	-10.77
675.1	4.23
675.131	-5.77
675.162	-6.77
675.193	-12.77
675.224	2.23
675.254	12.23
675.285	-1.77
675.316	22.23
675.347	11.23
675.378	-3.77
675.409	-10.77
675.44	-2.77
675.471	0.23
675.502	-6.77
675.533	-8.77
675.564	0.23
675.595	0.23
675.625	14.23
675.656	20.23
675.687	-0.77
675.718	-5.77
675.749	17.23
675.78	7.23
675.811	-7.77
675.842	1.23
675.873	-10.77
675.903	-5.77
675.934	-9.77
675.965	-3.77
675.996	-11.77
676.027	9.23
676.058	-3.77
676.089	-10.77
676.119	-10.77
676.15	-11.77
676.181	-9.77
676.212	0.23
676.243	1.23
676.274	-4.77
676.304	8.23
676.335	-0.77
676.366	-0.77
676.397	-12.77
676.428	-5.77
676.459	17.23
676.489	10.23
676.52	20.23
676.551	4.23
676.582	-9.77
676.613	-3.77
676.643	-14.77
676.674	22.23
676.705	-1.77
676.736	5.23
676.767	14.23
676.797	2.23
676.828	21.23
676.859	-3.77
676.89	-11.77
676.92	-1.77
676.951	5.23
676.982	-3.77
677.013	-3.77
677.044	3.23
677.074	7.23
677.105	-15.77
677.136	-0.77
677.167	0.23
677.197	12.23
677.228	-0.77
677.259	-1.77
677.289	-10.77
677.32	-27.77
677.351	-5.77
677.382	-2.77
677.412	1.23
677.443	-2.77
677.474	-5.77
677.505	-20.77
677.535	-3.77
677.566	0.23
677.597	-6.77
677.627	-21.77
677.658	-13.77
677.689	-1.77
677.72	5.23
677.75	15.23
677.781	-0.77
677.812	-7.77
677.842	16.23
677.873	5.23
677.904	1.23
677.934	-5.77
677.965	-14.77
677.996	-13.77
678.026	-18.77
678.057	-2.77
678.088	-22.77
678.118	1.23
678.149	-13.77
678.18	-4.77
678.21	-6.77
678.241	1.23
678.272	0.23
678.302	4.23
678.333	5.23
678.363	5.23
678.394	-2.77
678.425	5.23
678.455	1.23
678.486	20.23
678.517	-8.77
678.547	7.23
678.578	-7.77
678.608	-19.77
678.639	-0.77
678.67	15.23
678.7	18.23
678.731	8.23
678.761	9.23
678.792	5.23
678.823	21.23
678.853	-4.77
678.884	-23.77
678.914	4.23
678.945	3.23
678.975	1.23
679.006	-13.77
679.037	-1.77
679.067	22.23
679.098	12.23
679.128	-4.77
679.159	-2.77
679.189	6.23
679.22	-12.77
679.25	-6.77
679.281	-4.77
679.312	5.23
679.342	-3.77
679.373	12.23
679.403	0.23
679.434	1.23
679.464	1.23
679.495	-3.77
679.525	6.23
679.556	9.23
679.586	3.23
679.617	2.23
679.647	-0.77
679.678	-10.77
679.708	-14.77
679.739	3.23
679.769	-9.77
679.8	-7.77
679.83	5.23
679.861	5.23
679.891	1.23
679.922	-0.77
679.952	9.23
679.983	15.23
680.013	7.23
680.044	-16.77
680.074	4.23
680.105	-2.77
680.135	4.23
680.165	7.23
680.196	5.23
680.226	0.23
680.257	12.23
680.287	10.23
680.318	0.23
680.348	-10.77
680.379	3.23
680.409	-3.77
680.439	-9.77
680.47	1.23
680.5	-7.77
680.531	-11.77
680.561	5.23
680.592	-7.77
680.622	1.23
680.652	10.23
680.683	3.23
680.713	-10.77
680.744	4.23
680.774	1.23
680.804	14.23
680.835	1.23
680.865	-6.77
680.896	28.23
680.926	22.23
680.956	1.23
680.987	0.23
681.017	-3.77
681.047	-0.77
681.078	-10.77
681.108	-5.77
681.139	10.23
681.169	-15.77
681.199	-13.77
681.23	-2.77
681.26	-4.77
681.29	-1.77
681.321	-19.77
681.351	-3.77
681.381	-13.77
681.412	0.23
681.442	-0.77
681.472	8.23
681.503	1.23
681.533	11.23
681.563	0.23
681.594	-0.77
681.624	6.23
681.654	-5.77
681.685	-7.77
681.715	-2.77
681.745	-16.77
681.775	-10.77
681.806	13.23
681.836	12.23
681.866	-8.77
681.897	-2.77
681.927	-15.77
681.957	-4.77
681.987	23.23
682.018	10.23
682.048	22.23
682.078	4.23
682.109	10.23
682.139	33.23
682.169	-11.77
682.199	-8.77
682.23	-12.77
682.26	-5.77
682.29	-14.77
682.32	-10.77
682.351	-13.77
682.381	-0.77
682.411	-3.77
682.441	-0.77
682.472	1.23
682.502	-7.77
682.532	-12.77
682.562	9.23
682.592	11.23
682.623	5.23
682.653	9.23
682.683	-1.77
682.713	-3.77
682.743	2.23
682.774	-3.77
682.804	-12.77
682.834	7.23
682.864	-18.77
682.894	-11.77
682.925	-0.77
682.955	5.23
682.985	-3.77
683.015	13.23
683.045	-3.77
683.076	-0.77
683.106	-2.77
683.136	-3.77
683.166	-4.77
683.196	-17.77
683.226	3.23
683.257	-3.77
683.287	-6.77
683.317	-15.77
683.347	-1.77
683.377	1.23
683.407	3.23
683.437	18.23
683.468	8.23
683.498	2.23
683.528	2.23
683.558	-17.77
683.588	-2.77
683.618	-7.77
683.648	-1.77
683.678	10.23
683.708	18.23
683.739	7.23
683.769	-1.77
683.799	0.23
683.829	2.23
683.859	0.23
683.889	11.23
683.919	-2.77
683.949	-3.77
683.979	-14.77
684.009	-4.77
684.039	7.23
684.07	-10.77
684.1	23.23
684.13	-5.77
684.16	1.23
684.19	-9.77
684.22	2.23
684.25	-6.77
684.28	-31.77
684.31	4.23
684.34	10.23
684.37	1.23
684.4	4.23
684.43	1.23
684.46	3.23
684.49	-0.77
684.52	13.23
684.55	18.23
684.58	9.23
684.61	19.23
684.64	1.23
684.67	4.23
684.7	-0.77
684.73	2.23
684.76	3.23
684.79	35.23
684.82	-4.77
684.85	6.23
684.88	-8.77
684.91	-8.77
684.94	-6.77
684.97	1.23
685	3.23
685.03	-13.77
685.06	-4.77
685.09	1.23
685.12	18.23
685.15	1.23
685.18	8.23
685.21	1.23
685.24	14.23
685.27	0.23
685.3	1.23
685.33	-4.77
685.36	-15.77
685.39	-5.77
685.42	-8.77
685.45	-9.77
685.48	-1.77
685.51	-4.77
685.54	17.23
685.569	8.23
685.599	-7.77
685.629	6.23
685.659	-10.77
685.689	-6.77
685.719	-8.77
685.749	6.23
685.779	14.23
685.809	7.23
685.839	12.23
685.869	12.23
685.898	19.23
685.928	12.23
685.958	-8.77
685.988	1.23
686.018	2.23
686.048	20.23
686.078	-1.77
686.108	13.23
686.137	10.23
686.167	8.23
686.197	-3.77
686.227	7.23
686.257	23.23
686.287	-3.77
686.317	7.23
686.346	7.23
686.376	3.23
686.406	-25.77
686.436	1.23
686.466	5.23
686.496	10.23
686.525	9.23
686.555	-0.77
686.585	18.23
686.615	25.23
686.645	20.23
686.675	1.23
686.704	19.23
686.734	5.23
686.764	-6.77
686.794	2.23
686.824	9.23
686.853	0.23
686.883	11.23
686.913	7.23
686.943	-2.77
686.973	-6.77
687.002	13.23
687.032	-5.77
687.062	-6.77
687.092	30.23
687.121	3.23
687.151	12.23
687.181	0.23
687.211	14.23
687.24	2.23
687.27	-3.77
687.3	2.23
687.33	-1.77
687.359	-28.77
687.389	5.23
687.419	16.23
687.449	7.23
687.478	-1.77
687.508	-6.77
687.538	5.23
687.568	22.23
687.597	-7.77
687.627	-4.77
687.657	6.23
687.686	16.23
687.716	17.23
687.746	0.23
687.776	1.23
687.805	-4.77
687.835	8.23
687.865	1.23
687.894	9.23
687.924	-10.77
687.954	-6.77
687.983	-3.77
688.013	1.23
688.043	0.23
688.072	-1.77
688.102	4.23
688.132	7.23
688.161	1.23
688.191	-7.77
688.221	16.23
688.25	0.23
688.28	6.23
688.31	3.23
688.339	0.23
688.369	-7.77
688.399	-0.77
688.428	-7.77
688.458	-1.77
688.488	4.23
688.517	7.23
688.547	1.23
688.576	27.23
688.606	14.23
688.636	-2.77
688.665	-3.77
688.695	8.23
688.725	0.23
688.754	-3.77
688.784	2.23
688.813	12.23
688.843	3.23
688.873	-8.77
688.902	-2.77
688.932	-2.77
688.961	-16.77
688.991	22.23
689.02	15.23
689.05	-13.77
689.08	-1.77
689.109	4.23
689.139	-11.77
689.168	8.23
689.198	9.23
689.227	-11.77
689.257	-3.77
689.287	-0.77
689.316	-4.77
689.346	-13.77
689.375	-21.77
689.405	-1.77
689.434	-2.77
689.464	0.23
689.493	8.23
689.523	-1.77
689.552	5.23
689.582	-2.77
689.611	3.23
689.641	19.23
689.67	-4.77
689.7	6.23
689.73	4.23
689.759	-3.77
689.789	9.23
689.818	5.23
689.848	-4.77
689.877	8.23
689.906	7.23
689.936	7.23
689.965	0.23
689.995	-1.77
690.024	7.23
690.054	2.23
690.083	-5.77
690.113	2.23
690.142	-14.77
690.172	-2.77
690.201	-8.77
690.231	0.23
690.26	15.23
690.29	0.23
690.319	-0.77
690.348	6.23
690.378	4.23
690.407	10.23
690.437	8.23
690.466	4.23
690.496	1.23
690.525	4.23
690.555	-14.77
690.584	-8.77
690.613	0.23
690.643	24.23
690.672	22.23
690.702	9.23
690.731	14.23
690.76	40.23
690.79	55.23
690.819	28.23
690.849	30.23
690.878	30.23
690.907	33.23
690.937	24.23
690.966	16.23
690.996	5.23
691.025	-8.77
691.054	-3.77
691.084	-9.77
691.113	6.23
691.142	-0.77
691.172	14.23
691.201	6.23
691.23	-2.77
691.26	8.23
691.289	8.23
691.319	7.23
691.348	7.23
691.377	24.23
691.407	-0.77
691.436	8.23
691.465	9.23
691.495	5.23
691.524	4.23
691.553	-14.77
691.583	-10.77
691.612	9.23
691.641	-9.77
691.67	0.23
691.7	15.23
691.729	1.23
691.758	6.23
691.788	3.23
691.817	-7.77
691.846	-7.77
691.876	-6.77
691.905	4.23
691.934	-5.77
691.963	9.23
691.993	11.23
692.022	1.23
692.051	1.23
692.081	14.23
692.11	16.23
692.139	10.23
692.168	-6.77
692.198	15.23
692.227	-3.77
692.256	13.23
692.285	-0.77
692.315	-0.77
692.344	10.23
692.373	-0.77
692.402	-19.77
692.432	-4.77
692.461	-0.77
692.49	10.23
692.519	1.23
692.548	4.23
692.578	9.23
692.607	-1.77
692.636	-17.77
692.665	20.23
692.694	-9.77
692.724	4.23
692.753	15.23
692.782	18.23
692.811	-7.77
692.84	-8.77
692.87	2.23
692.899	-11.77
692.928	-10.77
692.957	9.23
692.986	7.23
693.016	5.23
693.045	12.23
693.074	9.23
693.103	-3.77
693.132	0.23
693.161	0.23
693.191	-5.77
693.22	-16.77
693.249	-4.77
693.278	-7.77
693.307	7.23
693.336	-7.77
693.365	-6.77
693.395	-2.77
693.424	-2.77
693.453	24.23
693.482	4.23
693.511	16.23
693.54	3.23
693.569	16.23
693.598	-2.77
693.628	14.23
693.657	16.23
693.686	22.23
693.715	7.23
693.744	12.23
693.773	17.23
693.802	-3.77
693.831	1.23
693.86	15.23
693.889	-2.77
693.919	23.23
693.948	-3.77
693.977	-2.77
694.006	-8.77
694.035	-13.77
694.064	-5.77
694.093	-14.77
694.122	-9.77
694.151	4.23
694.18	5.23
694.209	26.23
694.238	8.23
694.267	20.23
694.296	16.23
694.325	-1.77
694.354	14.23
694.383	16.23
694.412	8.23
694.441	-3.77
694.471	-1.77
694.5	-8.77
694.529	-11.77
694.558	24.23
694.587	20.23
694.616	12.23
694.645	2.23
694.674	18.23
694.703	13.23
694.732	7.23
694.761	4.23
694.79	5.23
694.819	-9.77
694.848	1.23
694.877	21.23
694.906	16.23
694.935	-0.77
694.963	21.23
694.992	6.23
695.021	-1.77
695.05	5.23
695.079	-0.77
695.108	-10.77
695.137	21.23
695.166	1.23
695.195	-10.77
695.224	4.23
695.253	0.23
695.282	4.23
695.311	7.23
695.34	0.23
695.369	15.23
695.398	10.23
695.427	8.23
695.456	-2.77
695.485	7.23
695.513	6.23
695.542	0.23
695.571	-0.77
695.6	8.23
695.629	3.23
695.658	5.23
695.687	-9.77
695.716	-7.77
695.745	22.23
695.774	-3.77
695.802	-8.77
695.831	2.23
695.86	15.23
695.889	25.23
695.918	8.23
695.947	-2.77
695.976	4.23
696.005	13.23
696.033	0.23
696.062	20.23
696.091	6.23
696.12	8.23
696.149	14.23
696.178	8.23
696.207	13.23
696.235	-7.77
696.264	22.23
696.293	2.23
696.322	4.23
696.351	15.23
696.38	-7.77
696.408	8.23
696.437	5.23
696.466	2.23
696.495	24.23
696.524	-1.77
696.553	9.23
696.581	16.23
696.61	13.23
696.639	-0.77
696.668	9.23
696.697	-7.77
696.725	6.23
696.754	-0.77
696.783	-4.77
696.812	-5.77
696.84	0.23
696.869	15.23
696.898	-0.77
696.927	-2.77
696.956	26.23
696.984	18.23
697.013	-2.77
697.042	-0.77
697.071	0.23
697.099	12.23
697.128	2.23
697.157	-0.77
697.186	1.23
697.214	-2.77
697.243	5.23
697.272	1.23
697.301	6.23
697.329	9.23
697.358	-11.77
697.387	18.23
697.415	12.23
697.444	10.23
697.473	5.23
697.502	9.23
697.53	8.23
697.559	9.23
697.588	13.23
697.616	6.23
697.645	-5.77
697.674	12.23
697.703	6.23
697.731	23.23
697.76	27.23
697.789	6.23
697.817	-7.77
697.846	14.23
697.875	-3.77
697.903	25.23
697.932	20.23
697.961	10.23
697.989	9.23
698.018	0.23
698.047	-9.77
698.075	1.23
698.104	-14.77
698.133	4.23
698.161	-4.77
698.19	6.23
698.218	4.23
698.247	2.23
698.276	-8.77
698.304	-5.77
698.333	14.23
698.362	-4.77
698.39	4.23
698.419	1.23
698.447	-4.77
698.476	4.23
698.505	15.23
698.533	1.23
698.562	14.23
698.591	-9.77
698.619	-8.77
698.648	-7.77
698.676	-7.77
698.705	3.23
698.733	-12.77
698.762	-9.77
698.791	-6.77
698.819	6.23
698.848	1.23
698.876	3.23
698.905	-7.77
698.933	-0.77
698.962	-0.77
698.991	7.23
699.019	27.23
699.048	19.23
699.076	3.23
699.105	-12.77
699.133	-7.77
699.162	5.23
699.19	23.23
699.219	8.23
699.248	9.23
699.276	5.23
699.305	-5.77
699.333	-2.77
699.362	12.23
699.39	22.23
699.419	-2.77
699.447	13.23
699.476	-3.77
699.504	-19.77
699.533	-4.77
699.561	3.23
699.59	-13.77
699.618	-10.77
699.647	2.23
699.675	3.23
699.704	3.23
699.732	2.23
699.761	2.23
699.789	-0.77
699.818	7.23
699.846	-0.77
699.874	-7.77
699.903	-7.77
699.931	-7.77
699.96	-1.77
699.988	-6.77
700.017	3.23
700.045	4.23
700.074	3.23
700.102	6.23
700.13	-24.77
700.159	4.23
700.187	0.23
700.216	-6.77
700.244	-6.77
700.273	-0.77
700.301	-7.77
700.329	9.23
700.358	8.23
700.386	-7.77
700.415	0.23
700.443	-1.77
700.472	-19.77
700.5	-3.77
700.528	7.23
700.557	-2.77
700.585	-14.77
700.614	-13.77
700.642	-2.77
700.67	5.23
700.699	1.23
700.727	-2.77
700.755	8.23
700.784	9.23
700.812	0.23
700.841	-11.77
700.869	-8.77
700.897	-14.77
700.926	0.23
700.954	-7.77
700.982	15.23
701.011	-0.77
701.039	-7.77
701.067	-8.77
701.096	28.23
701.124	-8.77
701.152	8.23
701.181	-22.77
701.209	-18.77
701.237	3.23
701.266	-6.77
701.294	15.23
701.322	13.23
701.351	11.23
701.379	-10.77
701.407	6.23
701.435	0.23
701.464	8.23
701.492	24.23
701.52	10.23
701.549	12.23
701.577	-6.77
701.605	2.23
701.634	9.23
701.662	19.23
701.69	-11.77
701.718	-16.77
701.747	9.23
701.775	12.23
701.803	-5.77
701.831	18.23
701.86	-8.77
701.888	0.23
701.916	-4.77
701.944	-14.77
701.973	-10.77
702.001	-18.77
702.029	-18.77
702.057	1.23
702.086	-12.77
702.114	-9.77
702.142	16.23
702.17	-7.77
702.199	-4.77
702.227	9.23
702.255	-8.77
702.283	-26.77
702.311	0.23
702.34	2.23
702.368	-10.77
702.396	-10.77
702.424	-8.77
702.452	5.23
702.481	-5.77
702.509	-13.77
702.537	12.23
702.565	12.23
702.593	-14.77
702.621	-0.77
702.65	22.23
702.678	25.23
702.706	13.23
702.734	0.23
702.762	6.23
702.79	-8.77
702.819	-12.77
702.847	3.23
702.875	7.23
702.903	3.23
702.931	-4.77
702.959	-4.77
702.988	-8.77
703.016	-11.77
703.044	-0.77
703.072	-6.77
703.1	-3.77
703.128	6.23
703.156	-4.77
703.184	-8.77
703.212	7.23
703.241	9.23
703.269	-2.77
703.297	9.23
703.325	-2.77
703.353	-10.77
703.381	-3.77
703.409	1.23
703.437	-11.77
703.465	-1.77
703.493	-8.77
703.522	-16.77
703.55	-8.77
703.578	12.23
703.606	-6.77
703.634	-0.77
703.662	-14.77
703.69	-3.77
703.718	-4.77
703.746	13.23
703.774	-2.77
703.802	29.23
703.83	0.23
703.858	18.23
703.886	-12.77
703.914	-5.77
703.942	22.23
703.97	-8.77
703.998	-10.77
704.027	10.23
704.055	8.23
704.083	-11.77
704.111	12.23
704.139	-11.77
704.167	-9.77
704.195	8.23
704.223	4.23
704.251	6.23
704.279	11.23
704.307	-4.77
704.335	-13.77
704.363	4.23
704.391	0.23
704.419	-3.77
704.447	-7.77
704.475	-2.77
704.503	-12.77
704.531	19.23
704.558	-5.77
704.586	-2.77
704.614	4.23
704.642	-9.77
704.67	-15.77
704.698	-3.77
704.726	11.23
704.754	-9.77
704.782	5.23
704.81	-9.77
704.838	20.23
704.866	-2.77
704.894	-28.77
704.922	-11.77
704.95	11.23
704.978	14.23
705.006	-2.77
705.034	11.23
705.061	-7.77
705.089	-13.77
705.117	-19.77
705.145	-3.77
705.173	-4.77
705.201	0.23
705.229	9.23
705.257	-1.77
705.285	3.23
705.313	14.23
705.34	7.23
705.368	0.23
705.396	0.23
705.424	9.23
705.452	1.23
705.48	-2.77
705.508	-22.77
705.536	-8.77
705.563	0.23
705.591	-1.77
705.619	6.23
705.647	4.23
705.675	8.23
705.703	8.23
705.731	-12.77
705.758	9.23
705.786	7.23
705.814	23.23
705.842	4.23
705.87	22.23
705.898	17.23
705.925	-7.77
705.953	-4.77
705.981	-10.77
706.009	2.23
706.037	1.23
706.065	1.23
706.092	-0.77
706.12	5.23
706.148	10.23
706.176	3.23
706.204	3.23
706.231	-3.77
706.259	-9.77
706.287	-24.77
706.315	-3.77
706.342	-4.77
706.37	9.23
706.398	8.23
706.426	6.23
706.454	4.23
706.481	-2.77
706.509	-6.77
706.537	-4.77
706.565	-0.77
706.592	24.23
706.62	12.23
706.648	-3.77
706.676	-2.77
706.703	-2.77
706.731	6.23
706.759	-3.77
706.787	0.23
706.814	4.23
706.842	10.23
706.87	-4.77
706.897	6.23
706.925	-11.77
706.953	11.23
706.981	7.23
707.008	10.23
707.036	3.23
707.064	-5.77
707.091	-3.77
707.119	22.23
707.147	5.23
707.174	-4.77
707.202	-10.77
707.23	-8.77
707.258	13.23
707.285	-7.77
707.313	-5.77
707.341	-26.77
707.368	-10.77
707.396	-6.77
707.424	13.23
707.451	3.23
707.479	18.23
707.507	6.23
707.534	-4.77
707.562	-2.77
707.59	-13.77
707.617	-0.77
707.645	-7.77
707.672	1.23
707.7	9.23
707.728	13.23
707.755	-14.77
707.783	-7.77
707.811	-5.77
707.838	-4.77
707.866	-6.77
707.893	5.23
707.921	-1.77
707.949	-9.77
707.976	4.23
708.004	6.23
708.031	-9.77
708.059	-16.77
708.087	-4.77
708.114	-2.77
708.142	0.23
708.169	-1.77
708.197	1.23
708.225	2.23
708.252	-0.77
708.28	7.23
708.307	2.23
708.335	18.23
708.362	-1.77
708.39	2.23
708.418	5.23
708.445	-26.77
708.473	-10.77
708.5	-9.77
708.528	2.23
708.555	-4.77
708.583	-15.77
708.61	-8.77
708.638	5.23
708.665	-5.77
708.693	2.23
708.72	-1.77
708.748	-12.77
708.776	-9.77
708.803	13.23
708.831	3.23
708.858	19.23
708.886	15.23
708.913	7.23
708.941	-8.77
708.968	7.23
708.996	5.23
709.023	23.23
709.051	-11.77
709.078	0.23
709.105	-8.77
709.133	1.23
709.16	-8.77
709.188	1.23
709.215	13.23
709.243	3.23
709.27	-6.77
709.298	2.23
709.325	-10.77
709.353	-1.77
709.38	2.23
709.408	13.23
709.435	8.23
709.462	1.23
709.49	-1.77
709.517	6.23
709.545	1.23
709.572	-0.77
709.6	-3.77
709.627	-8.77
709.655	-12.77
709.682	-9.77
709.709	1.23
709.737	3.23
709.764	-8.77
709.792	5.23
709.819	-1.77
709.846	5.23
709.874	16.23
709.901	-0.77
709.929	23.23
709.956	16.23
709.983	-3.77
710.011	-3.77
710.038	5.23
710.066	13.23
710.093	8.23
710.12	2.23
710.148	-5.77
710.175	-18.77
710.202	-4.77
710.23	2.23
710.257	-11.77
710.284	2.23
710.312	-7.77
710.339	3.23
710.366	-1.77
710.394	-14.77
710.421	-10.77
710.448	15.23
710.476	-9.77
710.503	7.23
710.53	8.23
710.558	-3.77
710.585	11.23
710.612	-10.77
710.64	1.23
710.667	9.23
710.694	-3.77
710.722	4.23
710.749	-13.77
710.776	-0.77
710.804	18.23
710.831	10.23
710.858	-1.77
710.885	4.23
710.913	0.23
710.94	17.23
710.967	3.23
710.995	7.23
711.022	5.23
711.049	2.23
711.076	7.23
711.104	12.23
711.131	-15.77
711.158	-7.77
711.185	2.23
711.213	-11.77
711.24	-16.77
711.267	5.23
711.294	9.23
711.322	10.23
711.349	-7.77
711.376	-14.77
711.403	1.23
711.431	-13.77
711.458	-3.77
711.485	3.23
711.512	-7.77
711.54	0.23
711.567	8.23
711.594	-7.77
711.621	-15.77
711.648	1.23
711.676	0.23
711.703	-8.77
711.73	-5.77
711.757	-0.77
711.784	14.23
711.812	3.23
711.839	-2.77
711.866	-11.77
711.893	-17.77
711.92	-0.77
711.947	-3.77
711.975	9.23
712.002	-3.77
712.029	-3.77
712.056	3.23
712.083	5.23
712.11	-9.77
712.138	-9.77
712.165	2.23
712.192	-5.77
712.219	-2.77
712.246	-9.77
712.273	-16.77
712.3	-10.77
712.328	4.23
712.355	0.23
712.382	-11.77
712.409	12.23
712.436	-1.77
712.463	6.23
712.49	7.23
712.517	14.23
712.544	13.23
712.572	-5.77
712.599	-5.77
712.626	5.23
712.653	-9.77
712.68	-4.77
712.707	8.23
712.734	2.23
712.761	11.23
712.788	3.23
712.815	-0.77
712.842	-0.77
712.87	-3.77
712.897	-14.77
712.924	-16.77
712.951	-0.77
712.978	1.23
713.005	12.23
713.032	10.23
713.059	-0.77
713.086	-8.77
713.113	-13.77
713.14	-5.77
713.167	4.23
713.194	18.23
713.221	0.23
713.248	15.23
713.275	-0.77
713.302	-1.77
713.329	2.23
713.356	1.23
713.383	1.23
713.41	7.23
713.437	-0.77
713.464	4.23
713.491	15.23
713.518	-4.77
713.545	-3.77
713.572	-3.77
713.599	8.23
713.626	-7.77
713.653	8.23
713.68	-5.77
713.707	5.23
713.734	4.23
713.761	-5.77
713.788	0.23
713.815	2.23
713.842	-13.77
713.869	0.23
713.896	3.23
713.923	-13.77
713.95	-4.77
713.977	4.23
714.004	1.23
714.031	-9.77
714.058	-0.77
714.085	3.23
714.112	24.23
714.139	15.23
714.165	-15.77
714.192	-1.77
714.219	5.23
714.246	-0.77
714.273	11.23
714.3	-6.77
714.327	8.23
714.354	5.23
714.381	-3.77
714.408	-0.77
714.435	0.23
714.461	3.23
714.488	12.23
714.515	5.23
714.542	-1.77
714.569	-0.77
714.596	-17.77
714.623	-19.77
714.65	-13.77
714.677	6.23
714.703	-5.77
714.73	14.23
714.757	6.23
714.784	-3.77
714.811	-7.77
714.838	5.23
714.865	-9.77
714.891	9.23
714.918	1.23
714.945	-6.77
714.972	15.23
714.999	15.23
715.026	-6.77
715.052	4.23
715.079	6.23
715.106	2.23
715.133	-7.77
715.16	-7.77
715.187	-8.77
715.213	11.23
715.24	-0.77
715.267	6.23
715.294	-0.77
715.321	3.23
715.347	-13.77
715.374	-15.77
715.401	-2.77
715.428	-0.77
715.455	4.23
715.481	-17.77
715.508	-9.77
715.535	-17.77
715.562	23.23
715.588	1.23
715.615	-6.77
715.642	-4.77
715.669	12.23
715.695	11.23
715.722	-2.77
715.749	-2.77
715.776	6.23
715.802	6.23
715.829	12.23
715.856	-4.77
715.883	-3.77
715.909	-9.77
715.936	4.23
715.963	4.23
715.99	-5.77
716.016	8.23
716.043	-3.77
716.07	-7.77
716.096	-9.77
716.123	3.23
716.15	-0.77
716.177	4.23
716.203	22.23
716.23	5.23
716.257	-3.77
716.283	5.23
716.31	10.23
716.337	6.23
716.363	-19.77
716.39	-2.77
716.417	-0.77
716.443	-6.77
716.47	12.23
716.497	-4.77
716.523	14.23
716.55	3.23
716.577	5.23
716.603	5.23
716.63	5.23
716.657	7.23
716.683	-6.77
716.71	-14.77
716.737	2.23
716.763	8.23
716.79	0.23
716.817	5.23
716.843	12.23
716.87	1.23
716.897	-10.77
716.923	-1.77
716.95	-11.77
716.976	-13.77
717.003	0.23
717.03	20.23
717.056	4.23
717.083	-4.77
717.109	9.23
717.136	3.23
717.163	-10.77
717.189	8.23
717.216	-0.77
717.242	-4.77
717.269	-10.77
717.296	0.23
717.322	15.23
717.349	7.23
717.375	13.23
717.402	-0.77
717.428	-15.77
717.455	5.23
717.481	5.23
717.508	12.23
717.535	1.23
717.561	-16.77
717.588	-25.77
717.614	-12.77
717.641	-3.77
717.667	2.23
717.694	8.23
717.72	6.23
717.747	15.23
717.773	-10.77
717.8	3.23
717.826	1.23
717.853	-0.77
717.88	5.23
717.906	5.23
717.933	-0.77
717.959	10.23
717.986	5.23
718.012	-0.77
718.039	19.23
718.065	12.23
718.092	-8.77
718.118	-6.77
718.144	8.23
718.171	15.23
718.197	16.23
718.224	4.23
718.25	-6.77
718.277	6.23
718.303	7.23
718.33	-2.77
718.356	-20.77
718.383	-11.77
718.409	-0.77
718.436	7.23
718.462	-2.77
718.489	-3.77
718.515	19.23
718.541	7.23
718.568	5.23
718.594	-11.77
718.621	3.23
718.647	-3.77
718.674	11.23
718.7	6.23
718.726	1.23
718.753	-1.77
718.779	19.23
718.806	9.23
718.832	0.23
718.858	-3.77
718.885	-7.77
718.911	0.23
718.938	13.23
718.964	-21.77
718.99	-3.77
719.017	-2.77
719.043	-8.77
719.07	7.23
719.096	-11.77
719.122	9.23
719.149	16.23
719.175	2.23
719.201	2.23
719.228	3.23
719.254	7.23
719.281	-8.77
719.307	-6.77
719.333	-0.77
719.36	19.23
719.386	-7.77
719.412	1.23
719.439	-18.77
719.465	-10.77
719.491	-7.77
719.518	-3.77
719.544	-3.77
719.57	1.23
719.597	9.23
719.623	-0.77
719.649	-6.77
719.675	1.23
719.702	4.23
719.728	22.23
719.754	6.23
719.781	0.23
719.807	-3.77
719.833	-8.77
719.86	2.23
719.886	-4.77
719.912	0.23
719.938	-3.77
719.965	2.23
719.991	11.23
720.017	-4.77
720.044	1.23
720.07	7.23
720.096	0.23
720.122	-3.77
720.149	21.23
720.175	18.23
720.201	-3.77
720.227	-8.77
720.254	-3.77
720.28	-7.77
720.306	0.23
720.332	13.23
720.359	1.23
720.385	11.23
720.411	15.23
720.437	1.23
720.463	-11.77
720.49	12.23
720.516	-8.77
720.542	-18.77
720.568	-1.77
720.595	10.23
720.621	6.23
720.647	-0.77
720.673	2.23
720.699	-2.77
720.725	-0.77
720.752	19.23
720.778	16.23
720.804	-1.77
720.83	-1.77
720.856	-9.77
720.883	-7.77
720.909	2.23
720.935	15.23
720.961	11.23
720.987	1.23
721.013	4.23
721.04	-3.77
721.066	-4.77
721.092	-10.77
721.118	3.23
721.144	0.23
721.17	3.23
721.196	3.23
721.223	-3.77
721.249	5.23
721.275	10.23
721.301	8.23
721.327	10.23
721.353	-8.77
721.379	-0.77
721.405	-2.77
721.432	9.23
721.458	-7.77
721.484	8.23
721.51	-5.77
721.536	20.23
721.562	8.23
721.588	1.23
721.614	1.23
721.64	-10.77
721.666	7.23
721.693	-13.77
721.719	4.23
721.745	-14.77
721.771	-0.77
721.797	1.23
721.823	-10.77
721.849	6.23
721.875	0.23
721.901	-7.77
721.927	3.23
721.953	-7.77
721.979	-6.77
722.005	-6.77
722.031	10.23
722.057	4.23
722.083	-3.77
722.109	7.23
722.135	-1.77
722.161	-6.77
722.187	-10.77
722.214	-4.77
722.24	-2.77
722.266	-8.77
722.292	-4.77
722.318	-0.77
722.344	-12.77
722.37	1.23
722.396	12.23
722.422	3.23
722.448	2.23
722.474	-6.77
722.5	-0.77
722.526	-6.77
722.552	-8.77
722.578	7.23
722.603	10.23
722.629	-1.77
722.655	-0.77
722.681	-3.77
722.707	-3.77
722.733	-14.77
722.759	-3.77
722.785	13.23
722.811	-1.77
722.837	0.23
722.863	4.23
722.889	9.23
722.915	4.23
722.941	3.23
722.967	-2.77
722.993	1.23
723.019	3.23
723.045	1.23
723.071	-4.77
723.097	2.23
723.122	4.23
723.148	9.23
723.174	-4.77
723.2	17.23
723.226	-7.77
723.252	0.23
723.278	6.23
723.304	-20.77
723.33	0.23
723.356	-16.77
723.381	-12.77
723.407	-28.77
723.433	1.23
723.459	2.23
723.485	-0.77
723.511	4.23
723.537	7.23
723.563	-0.77
723.588	4.23
723.614	7.23
723.64	-7.77
723.666	-2.77
723.692	9.23
723.718	-1.77
723.744	-6.77
723.769	-4.77
723.795	-4.77
723.821	12.23
723.847	-2.77
723.873	-2.77
723.899	4.23
723.924	-9.77
723.95	-4.77
723.976	-11.77
724.002	17.23
724.028	-2.77
724.053	-33.77
724.079	-8.77
724.105	3.23
724.131	-2.77
724.157	11.23
724.182	12.23
724.208	-3.77
724.234	13.23
724.26	8.23
724.286	13.23
724.311	0.23
724.337	6.23
724.363	-4.77
724.389	12.23
724.415	4.23
724.44	13.23
724.466	1.23
724.492	7.23
724.518	-2.77
724.543	-10.77
724.569	-7.77
724.595	-11.77
724.621	-10.77
724.646	-7.77
724.672	-2.77
724.698	2.23
724.723	-4.77
724.749	-5.77
724.775	4.23
724.801	11.23
724.826	0.23
724.852	-3.77
724.878	-19.77
724.904	-15.77
724.929	11.23
724.955	-20.77
724.981	0.23
725.006	-3.77
725.032	-1.77
725.058	2.23
725.083	-2.77
725.109	-6.77
725.135	10.23
725.161	7.23
725.186	-2.77
725.212	-0.77
725.238	16.23
725.263	11.23
725.289	-20.77
725.315	-12.77
725.34	-3.77
725.366	6.23
725.392	-7.77
725.417	-4.77
725.443	0.23
725.468	17.23
725.494	1.23
725.52	5.23
725.545	-12.77
725.571	-9.77
725.597	12.23
725.622	7.23
725.648	6.23
725.674	17.23
725.699	13.23
725.725	1.23
725.75	14.23
725.776	-16.77
725.802	-9.77
725.827	2.23
725.853	-12.77
725.878	-1.77
725.904	-8.77
725.93	8.23
725.955	-6.77
725.981	-12.77
726.006	-4.77
726.032	21.23
726.057	-0.77
726.083	-9.77
726.109	11.23
726.134	-10.77
726.16	-8.77
726.185	-2.77
726.211	1.23
726.236	7.23
726.262	4.23
726.288	1.23
726.313	-5.77
726.339	8.23
726.364	12.23
726.39	8.23
726.415	9.23
726.441	-13.77
726.466	-0.77
726.492	-10.77
726.517	11.23
726.543	4.23
726.568	-6.77
726.594	6.23
726.619	3.23
726.645	-2.77
726.67	-0.77
726.696	-2.77
726.721	-18.77
726.747	-11.77
726.772	-7.77
726.798	-3.77
726.823	-3.77
726.849	-11.77
726.874	5.23
726.9	-2.77
726.925	7.23
726.951	4.23
726.976	4.23
727.002	-0.77
727.027	-3.77
727.053	-1.77
727.078	-12.77
727.104	10.23
727.129	-11.77
727.155	1.23
727.18	-0.77
727.205	-12.77
727.231	-1.77
727.256	-4.77
727.282	0.23
727.307	13.23
727.333	-4.77
727.358	6.23
727.383	-8.77
727.409	-16.77
727.434	16.23
727.46	-7.77
727.485	7.23
727.511	7.23
727.536	-11.77
727.561	-8.77
727.587	-4.77
727.612	-0.77
727.637	-3.77
727.663	-0.77
727.688	12.23
727.714	-7.77
727.739	-6.77
727.764	-12.77
727.79	-3.77
727.815	8.23
727.841	14.23
727.866	2.23
727.891	-0.77
727.917	-9.77
727.942	-10.77
727.967	-4.77
727.993	-8.77
728.018	-3.77
728.043	-6.77
728.069	1.23
728.094	4.23
728.119	9.23
728.145	-3.77
728.17	9.23
728.195	21.23
728.221	20.23
728.246	-10.77
728.271	-32.77
728.297	2.23
728.322	-0.77
728.347	13.23
728.373	16.23
728.398	14.23
728.423	-7.77
728.448	9.23
728.474	10.23
728.499	7.23
728.524	-14.77
728.55	-7.77
728.575	-7.77
728.6	-4.77
728.625	-13.77
728.651	2.23
728.676	10.23
728.701	-0.77
728.727	3.23
728.752	-2.77
728.777	0.23
728.802	1.23
728.828	-2.77
728.853	-23.77
728.878	3.23
728.903	-10.77
728.929	-10.77
728.954	-10.77
728.979	20.23
729.004	-0.77
729.03	-0.77
729.055	24.23
729.08	-6.77
729.105	-11.77
729.13	6.23
729.156	10.23
729.181	-3.77
729.206	-9.77
729.231	-8.77
729.256	20.23
729.282	3.23
729.307	-6.77
729.332	-4.77
729.357	-1.77
729.382	4.23
729.408	5.23
729.433	8.23
729.458	10.23
729.483	12.23
729.508	16.23
729.533	5.23
729.559	11.23
729.584	0.23
729.609	1.23
729.634	2.23
729.659	1.23
729.684	-8.77
729.71	12.23
729.735	-4.77
729.76	1.23
729.785	-6.77
729.81	-0.77
729.835	17.23
729.86	5.23
729.886	12.23
729.911	10.23
729.936	15.23
729.961	21.23
729.986	16.23
730.011	55.23
730.036	216.23
730.061	992.23
730.086	2701.23
730.112	3411.23
730.137	2803.23
730.162	2087.23
730.187	1664.23
730.212	1275.23
730.237	790.23
730.262	440.23
730.287	231.23
730.312	148.23
730.337	74.23
730.362	62.23
730.387	32.23
730.413	8.23
730.438	-0.77
730.463	22.23
730.488	17.23
730.513	12.23
730.538	22.23
730.563	35.23
730.588	30.23
730.613	20.23
730.638	-10.77
730.663	-2.77
730.688	18.23
730.713	12.23
730.738	-0.77
730.763	-3.77
730.788	-7.77
730.813	12.23
730.838	-7.77
730.863	-4.77
730.888	-4.77
730.913	-8.77
730.938	-8.77
730.963	32.23
730.988	136.23
731.013	405.23
731.038	645.23
731.063	614.23
731.088	482.23
731.113	349.23
731.138	268.23
731.163	199.23
731.188	107.23
731.213	60.23
731.238	43.23
731.263	10.23
731.288	7.23
731.313	2.23
731.338	16.23
731.363	-0.77
731.388	10.23
731.413	-15.77
731.438	2.23
731.463	16.23
731.487	-2.77
731.512	-5.77
731.537	-5.77
731.562	-9.77
731.587	-1.77
731.612	3.23
731.637	-8.77
731.662	6.23
731.687	-1.77
731.712	-13.77
731.737	-3.77
731.762	2.23
731.786	7.23
731.811	2.23
731.836	-8.77
731.861	-8.77
731.886	-3.77
731.911	5.23
731.936	-3.77
731.961	-4.77
731.986	-9.77
732.01	7.23
732.035	14.23
732.06	15.23
732.085	-7.77
732.11	10.23
732.135	-9.77
732.16	3.23
732.184	-14.77
732.209	-1.77
732.234	4.23
732.259	6.23
732.284	15.23
732.309	4.23
732.334	3.23
732.358	-7.77
732.383	-16.77
732.408	-6.77
732.433	9.23
732.458	13.23
732.482	14.23
732.507	-1.77
732.532	9.23
732.557	1.23
732.582	7.23
732.607	19.23
732.631	35.23
732.656	84.23
732.681	151.23
732.706	341.23
732.73	453.23
732.755	376.23
732.78	288.23
732.805	251.23
732.83	174.23
732.854	120.23
732.879	68.23
732.904	17.23
732.929	15.23
732.953	23.23
732.978	22.23
733.003	-3.77
733.028	-11.77
733.052	12.23
733.077	19.23
733.102	20.23
733.127	-7.77
733.151	-11.77
733.176	14.23
733.201	-10.77
733.226	-1.77
733.25	4.23
733.275	-2.77
733.3	0.23
733.324	4.23
733.349	-2.77
733.374	13.23
733.399	-3.77
733.423	-3.77
733.448	0.23
733.473	-7.77
733.497	-19.77
733.522	-7.77
733.547	3.23
733.571	20.23
733.596	-3.77
733.621	1.23
733.646	-4.77
733.67	1.23
733.695	-13.77
733.72	6.23
733.744	-8.77
733.769	0.23
733.794	15.23
733.818	12.23
733.843	-11.77
733.867	-6.77
733.892	5.23
733.917	-6.77
733.941	-3.77
733.966	-7.77
733.991	-11.77
734.015	16.23
734.04	-4.77
734.065	7.23
734.089	16.23
734.114	4.23
734.138	9.23
734.163	4.23
734.188	8.23
734.212	4.23
734.237	23.23
734.261	1.23
734.286	-3.77
734.311	3.23
734.335	3.23
734.36	-3.77
734.384	13.23
734.409	8.23
734.434	-11.77
734.458	-8.77
734.483	-12.77
734.507	-14.77
734.532	-3.77
734.556	1.23
734.581	-1.77
734.606	-8.77
734.63	-10.77
734.655	-3.77
734.679	-10.77
734.704	-10.77
734.728	-0.77
734.753	-2.77
734.777	0.23
734.802	12.23
734.826	-1.77
734.851	8.23
734.876	18.23
734.9	0.23
734.925	17.23
734.949	-0.77
734.974	-3.77
734.998	-4.77
735.023	-21.77
735.047	-21.77
735.072	24.23
735.096	-0.77
735.121	8.23
735.145	4.23
735.17	0.23
735.194	0.23
735.219	-8.77
735.243	-14.77
735.268	23.23
735.292	6.23
735.317	6.23
735.341	-6.77
735.365	-20.77
735.39	24.23
735.414	13.23
735.439	3.23
735.463	-1.77
735.488	15.23
735.512	0.23
735.537	6.23
735.561	-0.77
735.586	-0.77
735.61	6.23
735.634	-3.77
735.659	12.23
735.683	24.23
735.708	-3.77
735.732	-10.77
735.757	-1.77
735.781	-6.77
735.805	9.23
735.83	-10.77
735.854	2.23
735.879	-13.77
735.903	9.23
735.927	-6.77
735.952	0.23
735.976	-9.77
736.001	-3.77
736.025	1.23
736.049	-14.77
736.074	-2.77
736.098	-2.77
736.123	2.23
736.147	5.23
736.171	1.23
736.196	8.23
736.22	-7.77
736.244	0.23
736.269	-6.77
736.293	-12.77
736.317	-7.77
736.342	5.23
736.366	1.23
736.39	8.23
736.415	-0.77
736.439	1.23
736.463	4.23
736.488	7.23
736.512	-7.77
736.536	8.23
736.561	5.23
736.585	4.23
736.609	5.23
736.634	-11.77
736.658	-4.77
736.682	-8.77
736.707	-15.77
736.731	-16.77
736.755	0.23
736.78	17.23
736.804	6.23
736.828	8.23
736.852	-10.77
736.877	-0.77
736.901	11.23
736.925	11.23
736.949	14.23
736.974	-1.77
736.998	-6.77
737.022	1.23
737.047	3.23
737.071	-13.77
737.095	10.23
737.119	30.23
737.144	4.23
737.168	-10.77
737.192	-4.77
737.216	19.23
737.241	10.23
737.265	20.23
737.289	2.23
737.313	1.23
737.337	14.23
737.362	2.23
737.386	-7.77
737.41	-8.77
737.434	-9.77
737.459	9.23
737.483	17.23
737.507	17.23
737.531	-8.77
737.555	2.23
737.58	4.23
737.604	10.23
737.628	-9.77
737.652	-8.77
737.676	4.23
737.701	15.23
737.725	-7.77
737.749	7.23
737.773	12.23
737.797	-3.77
737.821	-3.77
737.846	-2.77
737.87	23.23
737.894	-13.77
737.918	3.23
737.942	-10.77
737.966	14.23
737.99	-8.77
738.015	12.23
738.039	8.23
738.063	-15.77
738.087	4.23
738.111	7.23
738.135	24.23
738.159	2.23
738.184	-2.77
738.208	10.23
738.232	-5.77
738.256	11.23
738.28	15.23
738.304	5.23
738.328	-10.77
738.352	-4.77
738.376	-6.77
738.4	0.23
738.425	3.23
738.449	-5.77
738.473	25.23
738.497	13.23
738.521	10.23
738.545	8.23
738.569	11.23
738.593	14.23
738.617	9.23
738.641	-0.77
738.665	15.23
738.689	10.23
738.713	12.23
738.737	9.23
738.762	24.23
738.786	3.23
738.81	-8.77
738.834	3.23
738.858	-1.77
738.882	0.23
738.906	3.23
738.93	7.23
738.954	-2.77
738.978	6.23
739.002	-6.77
739.026	8.23
739.05	-9.77
739.074	-14.77
739.098	27.23
739.122	17.23
739.146	11.23
739.17	25.23
739.194	7.23
739.218	-9.77
739.242	-3.77
739.266	-7.77
739.29	4.23
739.314	11.23
739.338	-5.77
739.362	7.23
739.386	0.23
739.41	-4.77
739.434	-1.77
739.458	13.23
739.482	5.23
739.506	19.23
739.53	-7.77
739.554	16.23
739.577	5.23
739.601	20.23
739.625	1.23
739.649	-4.77
739.673	-8.77
739.697	12.23
739.721	-2.77
739.745	-11.77
739.769	7.23
739.793	20.23
739.817	8.23
739.841	-19.77
739.865	-4.77
739.889	-7.77
739.912	2.23
739.936	-8.77
739.96	-1.77
739.984	19.23
740.008	17.23
740.032	-7.77
740.056	-3.77
740.08	6.23
740.104	-9.77
740.127	8.23
740.151	13.23
740.175	19.23
740.199	-2.77
740.223	56.23
740.247	2.23
740.271	7.23
740.295	-7.77
740.318	-23.77
740.342	-10.77
740.366	-0.77
740.39	-4.77
740.414	-1.77
740.438	3.23
740.461	20.23
740.485	7.23
740.509	4.23
740.533	12.23
740.557	2.23
740.581	3.23
740.604	-8.77
740.628	-2.77
740.652	5.23
740.676	5.23
740.7	13.23
740.723	6.23
740.747	-12.77
740.771	7.23
740.795	-15.77
740.819	-6.77
740.842	4.23
740.866	13.23
740.89	-2.77
740.914	0.23
740.938	-8.77
740.961	2.23
740.985	-3.77
741.009	-7.77
741.033	18.23
741.056	1.23
741.08	4.23
741.104	7.23
741.128	-3.77
741.151	16.23
741.175	-10.77
741.199	5.23
741.223	-3.77
741.246	-8.77
741.27	1.23
741.294	0.23
741.318	-2.77
741.341	-18.77
741.365	7.23
741.389	-1.77
741.413	9.23
741.436	19.23
741.46	16.23
741.484	26.23
741.507	6.23
741.531	21.23
741.555	21.23
741.579	-1.77
741.602	-5.77
741.626	3.23
741.65	-11.77
741.673	8.23
741.697	8.23
741.721	11.23
741.744	-10.77
741.768	-8.77
741.792	1.23
741.815	-2.77
741.839	17.23
741.863	17.23
741.886	5.23
741.91	1.23
741.934	-12.77
741.957	-28.77
741.981	3.23
742.005	2.23
742.028	-7.77
742.052	-6.77
742.075	20.23
742.099	15.23
742.123	2.23
742.146	-0.77
742.17	9.23
742.194	-8.77
742.217	-3.77
742.241	-9.77
742.264	11.23
742.288	19.23
742.312	11.23
742.335	-2.77
742.359	-11.77
742.382	20.23
742.406	20.23
742.43	-6.77
742.453	10.23
742.477	-16.77
742.5	-14.77
742.524	-6.77
742.548	11.23
742.571	-8.77
742.595	6.23
742.618	-0.77
742.642	-23.77
742.665	11.23
742.689	-1.77
742.712	5.23
742.736	-19.77
742.76	5.23
742.783	-1.77
742.807	7.23
742.83	0.23
742.854	-22.77
742.877	-3.77
742.901	-3.77
742.924	-6.77
742.948	5.23
742.971	1.23
742.995	-1.77
743.018	-15.77
743.042	-14.77
743.065	-0.77
743.089	-11.77
743.112	-12.77
743.136	-10.77
743.159	-15.77
743.183	0.23
743.206	5.23
743.23	6.23
743.253	11.23
743.277	-1.77
743.3	-1.77
743.324	-7.77
743.347	-1.77
743.371	29.23
743.394	-6.77
743.418	23.23
743.441	12.23
743.465	14.23
743.488	-3.77
743.512	-11.77
743.535	-3.77
743.558	13.23
743.582	8.23
743.605	-3.77
743.629	2.23
743.652	13.23
743.676	1.23
743.699	1.23
743.723	6.23
743.746	20.23
743.769	-7.77
743.793	-8.77
743.816	-9.77
743.84	-2.77
743.863	11.23
743.886	10.23
743.91	13.23
743.933	13.23
743.957	-1.77
743.98	-3.77
744.003	2.23
744.027	-4.77
744.05	-2.77
744.074	7.23
744.097	1.23
744.12	3.23
744.144	-11.77
744.167	12.23
744.19	-15.77
744.214	-0.77
744.237	-8.77
744.26	1.23
744.284	-0.77
744.307	-11.77
744.331	-7.77
744.354	-15.77
744.377	0.23
744.401	-3.77
744.424	-9.77
744.447	-7.77
744.471	-8.77
