Data from HighRes_mercury_15_13_11_07_2024_HR4C61891__68__15-14-29-985.txt Node

Date: Thu Nov 07 15:14:29 EST 2024
User: crc00042
Spectrometer: HR4C6189
Trigger mode: 4
Integration Time (sec): 1.000000E-1
Scans to average: 1
Electric dark correction enabled: true
Nonlinearity correction enabled: false
Boxcar width: 0
XAxis mode: Wavelengths
Number of Pixels in Spectrum: 3648
>>>>>Begin Spectral Data<<<<<
639.567	-46.85
639.602	-46.85
639.636	-46.85
639.67	-33.85
639.704	-20.85
639.738	4.15
639.773	18.15
639.807	-3.85
639.841	4.15
639.875	1.15
639.909	-6.85
639.943	-15.85
639.978	-13.85
640.012	-1.85
640.046	7.15
640.08	15.15
640.114	3.15
640.148	-10.85
640.182	-20.85
640.217	2.15
640.251	19.15
640.285	1.15
640.319	-17.85
640.353	9.15
640.387	14.15
640.421	7.15
640.455	-0.85
640.49	0.15
640.524	-9.85
640.558	-2.85
640.592	-1.85
640.626	0.15
640.66	0.15
640.694	-5.85
640.728	-5.85
640.762	2.15
640.796	16.15
640.83	17.15
640.865	-4.85
640.899	-4.85
640.933	9.15
640.967	4.15
641.001	14.15
641.035	8.15
641.069	-5.85
641.103	-15.85
641.137	5.15
641.171	-6.85
641.205	10.15
641.239	-0.85
641.273	12.15
641.307	5.15
641.341	-2.85
641.375	-7.85
641.409	-9.85
641.443	12.15
641.477	15.15
641.511	10.15
641.545	-4.85
641.579	-1.85
641.614	2.15
641.648	1.15
641.682	5.15
641.716	16.15
641.75	16.15
641.784	1.15
641.818	3.15
641.852	-1.85
641.886	-12.85
641.919	26.15
641.953	-6.85
641.987	-6.85
642.021	-1.85
642.055	0.15
642.089	1.15
642.123	-13.85
642.157	3.15
642.191	-8.85
642.225	10.15
642.259	-0.85
642.293	3.15
642.327	-3.85
642.361	-1.85
642.395	24.15
642.429	-0.85
642.463	-4.85
642.497	23.15
642.531	3.15
642.565	5.15
642.599	3.15
642.633	-10.85
642.666	5.15
642.7	10.15
642.734	2.15
642.768	-11.85
642.802	-8.85
642.836	18.15
642.87	11.15
642.904	12.15
642.938	24.15
642.972	10.15
643.005	8.15
643.039	21.15
643.073	-7.85
643.107	4.15
643.141	1.15
643.175	1.15
643.209	4.15
643.243	4.15
643.276	7.15
643.31	-4.85
643.344	-3.85
643.378	1.15
643.412	10.15
643.446	4.15
643.48	0.15
643.513	22.15
643.547	-2.85
643.581	-6.85
643.615	-4.85
643.649	-6.85
643.683	5.15
643.716	-1.85
643.75	4.15
643.784	1.15
643.818	20.15
643.852	12.15
643.886	16.15
643.919	10.15
643.953	15.15
643.987	6.15
644.021	7.15
644.055	26.15
644.088	-4.85
644.122	-15.85
644.156	-4.85
644.19	7.15
644.224	4.15
644.257	10.15
644.291	6.15
644.325	2.15
644.359	7.15
644.392	16.15
644.426	9.15
644.46	8.15
644.494	6.15
644.527	16.15
644.561	11.15
644.595	9.15
644.629	3.15
644.662	16.15
644.696	20.15
644.73	2.15
644.764	-15.85
644.797	-5.85
644.831	5.15
644.865	9.15
644.899	5.15
644.932	26.15
644.966	-5.85
645	-1.85
645.033	8.15
645.067	-1.85
645.101	6.15
645.135	1.15
645.168	14.15
645.202	-13.85
645.236	-12.85
645.269	3.15
645.303	-3.85
645.337	-2.85
645.37	2.15
645.404	5.15
645.438	6.15
645.471	1.15
645.505	17.15
645.539	11.15
645.572	-12.85
645.606	4.15
645.64	9.15
645.673	-5.85
645.707	20.15
645.741	3.15
645.774	-2.85
645.808	21.15
645.842	2.15
645.875	7.15
645.909	-4.85
645.943	2.15
645.976	-10.85
646.01	7.15
646.043	12.15
646.077	21.15
646.111	2.15
646.144	-4.85
646.178	7.15
646.212	-20.85
646.245	8.15
646.279	-4.85
646.312	9.15
646.346	7.15
646.38	3.15
646.413	18.15
646.447	12.15
646.48	-1.85
646.514	8.15
646.547	-5.85
646.581	-16.85
646.615	3.15
646.648	-12.85
646.682	-11.85
646.715	5.15
646.749	18.15
646.782	-6.85
646.816	2.15
646.85	9.15
646.883	-6.85
646.917	3.15
646.95	5.15
646.984	-5.85
647.017	3.15
647.051	6.15
647.084	3.15
647.118	1.15
647.151	-7.85
647.185	15.15
647.218	1.15
647.252	-11.85
647.285	-13.85
647.319	-16.85
647.353	1.15
647.386	17.15
647.42	4.15
647.453	0.15
647.487	2.15
647.52	2.15
647.553	-5.85
647.587	-0.85
647.62	8.15
647.654	6.15
647.687	9.15
647.721	-0.85
647.754	10.15
647.788	6.15
647.821	-3.85
647.855	10.15
647.888	15.15
647.922	12.15
647.955	10.15
647.989	11.15
648.022	1.15
648.055	14.15
648.089	9.15
648.122	46.15
648.156	-5.85
648.189	-6.85
648.223	4.15
648.256	7.15
648.29	8.15
648.323	5.15
648.356	14.15
648.39	3.15
648.423	3.15
648.457	-5.85
648.49	7.15
648.523	4.15
648.557	-0.85
648.59	-22.85
648.624	3.15
648.657	11.15
648.69	34.15
648.724	4.15
648.757	21.15
648.791	18.15
648.824	29.15
648.857	8.15
648.891	5.15
648.924	-2.85
648.957	10.15
648.991	-5.85
649.024	2.15
649.057	2.15
649.091	-13.85
649.124	0.15
649.158	15.15
649.191	20.15
649.224	1.15
649.258	-4.85
649.291	11.15
649.324	-1.85
649.358	3.15
649.391	4.15
649.424	11.15
649.458	-5.85
649.491	-0.85
649.524	-2.85
649.557	5.15
649.591	-10.85
649.624	5.15
649.657	-1.85
649.691	0.15
649.724	0.15
649.757	10.15
649.791	3.15
649.824	4.15
649.857	19.15
649.89	11.15
649.924	-9.85
649.957	1.15
649.99	15.15
650.023	-1.85
650.057	-5.85
650.09	-0.85
650.123	9.15
650.157	15.15
650.19	11.15
650.223	6.15
650.256	-8.85
650.29	-5.85
650.323	2.15
650.356	12.15
650.389	1.15
650.423	-5.85
650.456	5.15
650.489	0.15
650.522	6.15
650.555	26.15
650.589	17.15
650.622	1.15
650.655	17.15
650.688	3.15
650.721	-8.85
650.755	-2.85
650.788	10.15
650.821	-13.85
650.854	-1.85
650.887	13.15
650.921	-6.85
650.954	-16.85
650.987	-4.85
651.02	0.15
651.053	-2.85
651.087	-0.85
651.12	6.15
651.153	13.15
651.186	-8.85
651.219	-9.85
651.252	6.15
651.286	23.15
651.319	4.15
651.352	-0.85
651.385	6.15
651.418	-0.85
651.451	8.15
651.484	5.15
651.518	-1.85
651.551	11.15
651.584	-5.85
651.617	11.15
651.65	1.15
651.683	10.15
651.716	-7.85
651.749	-13.85
651.783	3.15
651.816	7.15
651.849	-0.85
651.882	2.15
651.915	-7.85
651.948	11.15
651.981	-1.85
652.014	-23.85
652.047	-14.85
652.08	-0.85
652.114	1.15
652.147	2.15
652.18	19.15
652.213	35.15
652.246	4.15
652.279	-5.85
652.312	9.15
652.345	3.15
652.378	-0.85
652.411	13.15
652.444	12.15
652.477	-8.85
652.51	-4.85
652.543	-12.85
652.576	-4.85
652.609	-16.85
652.642	6.15
652.675	9.15
652.709	10.15
652.742	9.15
652.775	4.15
652.808	9.15
652.841	-11.85
652.874	7.15
652.907	-2.85
652.94	7.15
652.973	-26.85
653.006	0.15
653.039	-1.85
653.072	15.15
653.105	7.15
653.138	0.15
653.171	-12.85
653.204	-6.85
653.237	16.15
653.27	-4.85
653.303	6.15
653.336	5.15
653.368	-13.85
653.401	9.15
653.434	-15.85
653.467	-0.85
653.5	-7.85
653.533	-0.85
653.566	11.15
653.599	14.15
653.632	0.15
653.665	-8.85
653.698	6.15
653.731	-7.85
653.764	9.15
653.797	-5.85
653.83	-4.85
653.863	1.15
653.896	-2.85
653.929	-13.85
653.961	4.15
653.994	-8.85
654.027	-4.85
654.06	5.15
654.093	7.15
654.126	18.15
654.159	-10.85
654.192	13.15
654.225	-4.85
654.258	0.15
654.29	9.15
654.323	7.15
654.356	-3.85
654.389	8.15
654.422	3.15
654.455	-0.85
654.488	9.15
654.521	0.15
654.553	-9.85
654.586	9.15
654.619	5.15
654.652	-3.85
654.685	5.15
654.718	19.15
654.751	8.15
654.783	1.15
654.816	6.15
654.849	-12.85
654.882	0.15
654.915	-4.85
654.948	6.15
654.98	-12.85
655.013	-12.85
655.046	-4.85
655.079	-0.85
655.112	11.15
655.144	-7.85
655.177	9.15
655.21	9.15
655.243	2.15
655.276	-11.85
655.308	-1.85
655.341	-11.85
655.374	8.15
655.407	-13.85
655.44	-6.85
655.472	17.15
655.505	-3.85
655.538	5.15
655.571	4.15
655.603	5.15
655.636	-11.85
655.669	5.15
655.702	10.15
655.734	8.15
655.767	-4.85
655.8	-8.85
655.833	10.15
655.865	2.15
655.898	7.15
655.931	-2.85
655.964	-3.85
655.996	6.15
656.029	11.15
656.062	0.15
656.095	9.15
656.127	-14.85
656.16	7.15
656.193	2.15
656.225	7.15
656.258	-7.85
656.291	-5.85
656.324	3.15
656.356	11.15
656.389	13.15
656.422	6.15
656.454	-11.85
656.487	6.15
656.52	7.15
656.552	3.15
656.585	4.15
656.618	18.15
656.65	19.15
656.683	-5.85
656.716	9.15
656.748	1.15
656.781	-12.85
656.814	-10.85
656.846	-3.85
656.879	-7.85
656.912	-8.85
656.944	-0.85
656.977	-12.85
657.01	0.15
657.042	1.15
657.075	18.15
657.108	5.15
657.14	17.15
657.173	9.15
657.205	31.15
657.238	10.15
657.271	15.15
657.303	-3.85
657.336	2.15
657.369	2.15
657.401	-5.85
657.434	-9.85
657.466	-5.85
657.499	-6.85
657.532	6.15
657.564	12.15
657.597	-3.85
657.629	-9.85
657.662	-17.85
657.694	2.15
657.727	-3.85
657.76	21.15
657.792	-8.85
657.825	1.15
657.857	3.15
657.89	-4.85
657.922	9.15
657.955	-5.85
657.987	4.15
658.02	21.15
658.053	16.15
658.085	3.15
658.118	18.15
658.15	9.15
658.183	23.15
658.215	10.15
658.248	5.15
658.28	-7.85
658.313	7.15
658.345	5.15
658.378	10.15
658.41	16.15
658.443	9.15
658.475	11.15
658.508	12.15
658.54	3.15
658.573	-6.85
658.605	2.15
658.638	7.15
658.67	4.15
658.703	0.15
658.735	2.15
658.768	-0.85
658.8	-7.85
658.833	32.15
658.865	3.15
658.898	-3.85
658.93	-4.85
658.963	4.15
658.995	-7.85
659.028	3.15
659.06	-4.85
659.092	7.15
659.125	0.15
659.157	28.15
659.19	-0.85
659.222	0.15
659.255	-6.85
659.287	4.15
659.32	0.15
659.352	-1.85
659.384	-2.85
659.417	-7.85
659.449	0.15
659.482	17.15
659.514	-8.85
659.546	7.15
659.579	-8.85
659.611	-6.85
659.644	2.15
659.676	-12.85
659.708	-11.85
659.741	-12.85
659.773	-2.85
659.806	6.15
659.838	-2.85
659.87	8.15
659.903	10.15
659.935	5.15
659.967	5.15
660	0.15
660.032	-11.85
660.065	1.15
660.097	-1.85
660.129	11.15
660.162	-10.85
660.194	6.15
660.226	-1.85
660.259	12.15
660.291	-1.85
660.323	-5.85
660.356	-1.85
660.388	-1.85
660.42	-23.85
660.453	5.15
660.485	7.15
660.517	22.15
660.55	14.15
660.582	5.15
660.614	7.15
660.647	-0.85
660.679	-25.85
660.711	4.15
660.743	-4.85
660.776	-6.85
660.808	-4.85
660.84	-2.85
660.873	6.15
660.905	4.15
660.937	-4.85
660.969	-2.85
661.002	7.15
661.034	15.15
661.066	7.15
661.099	1.15
661.131	34.15
661.163	0.15
661.195	-4.85
661.228	-9.85
661.26	-3.85
661.292	4.15
661.324	18.15
661.357	6.15
661.389	12.15
661.421	2.15
661.453	3.15
661.485	12.15
661.518	8.15
661.55	10.15
661.582	-24.85
661.614	4.15
661.647	7.15
661.679	-4.85
661.711	5.15
661.743	-3.85
661.775	0.15
661.808	19.15
661.84	-7.85
661.872	15.15
661.904	0.15
661.936	-0.85
661.969	-8.85
662.001	-2.85
662.033	-0.85
662.065	-20.85
662.097	6.15
662.129	6.15
662.162	-4.85
662.194	13.15
662.226	2.15
662.258	2.15
662.29	5.15
662.322	5.15
662.355	0.15
662.387	40.15
662.419	25.15
662.451	27.15
662.483	5.15
662.515	2.15
662.547	-9.85
662.58	0.15
662.612	6.15
662.644	1.15
662.676	4.15
662.708	11.15
662.74	-0.85
662.772	-11.85
662.804	-3.85
662.836	15.15
662.869	10.15
662.901	23.15
662.933	3.15
662.965	12.15
662.997	2.15
663.029	-4.85
663.061	4.15
663.093	-3.85
663.125	17.15
663.157	-8.85
663.189	1.15
663.221	18.15
663.254	-5.85
663.286	8.15
663.318	-19.85
663.35	-9.85
663.382	-1.85
663.414	16.15
663.446	-6.85
663.478	-9.85
663.51	34.15
663.542	-16.85
663.574	-10.85
663.606	-7.85
663.638	-5.85
663.67	-6.85
663.702	8.15
663.734	-4.85
663.766	0.15
663.798	-7.85
663.83	-4.85
663.862	14.15
663.894	12.15
663.926	-2.85
663.958	-1.85
663.99	-5.85
664.022	-1.85
664.054	19.15
664.086	9.15
664.118	-9.85
664.15	-9.85
664.182	15.15
664.214	1.15
664.246	16.15
664.278	3.15
664.31	17.15
664.342	6.15
664.374	5.15
664.406	5.15
664.438	-1.85
664.47	11.15
664.502	-4.85
664.534	2.15
664.566	2.15
664.598	7.15
664.63	-3.85
664.662	11.15
664.693	-12.85
664.725	-5.85
664.757	-8.85
664.789	0.15
664.821	6.15
664.853	14.15
664.885	-7.85
664.917	-9.85
664.949	22.15
664.981	21.15
665.013	8.15
665.045	-6.85
665.076	0.15
665.108	0.15
665.14	4.15
665.172	0.15
665.204	-4.85
665.236	2.15
665.268	20.15
665.3	0.15
665.331	-12.85
665.363	1.15
665.395	-16.85
665.427	-5.85
665.459	-2.85
665.491	2.15
665.523	-23.85
665.555	-14.85
665.586	-9.85
665.618	-13.85
665.65	-2.85
665.682	16.15
665.714	17.15
665.746	3.15
665.777	-10.85
665.809	-1.85
665.841	-2.85
665.873	-7.85
665.905	6.15
665.937	15.15
665.968	11.15
666	-10.85
666.032	0.15
666.064	-8.85
666.096	-3.85
666.127	-4.85
666.159	19.15
666.191	26.15
666.223	-5.85
666.255	11.15
666.286	0.15
666.318	3.15
666.35	12.15
666.382	1.15
666.413	-13.85
666.445	-4.85
666.477	-12.85
666.509	9.15
666.54	6.15
666.572	-6.85
666.604	-4.85
666.636	6.15
666.667	20.15
666.699	23.15
666.731	7.15
666.763	-5.85
666.794	-11.85
666.826	2.15
666.858	-19.85
666.89	17.15
666.921	12.15
666.953	3.15
666.985	11.15
667.017	13.15
667.048	9.15
667.08	-6.85
667.112	-5.85
667.143	-24.85
667.175	2.15
667.207	1.15
667.238	3.15
667.27	2.15
667.302	5.15
667.334	-7.85
667.365	13.15
667.397	-4.85
667.429	-5.85
667.46	3.15
667.492	12.15
667.524	-6.85
667.555	6.15
667.587	0.15
667.619	8.15
667.65	7.15
667.682	14.15
667.714	1.15
667.745	7.15
667.777	11.15
667.808	6.15
667.84	15.15
667.872	16.15
667.903	7.15
667.935	-1.85
667.967	-3.85
667.998	18.15
668.03	5.15
668.061	5.15
668.093	3.15
668.125	4.15
668.156	3.15
668.188	1.15
668.22	-26.85
668.251	6.15
668.283	14.15
668.314	26.15
668.346	20.15
668.377	20.15
668.409	11.15
668.441	26.15
668.472	25.15
668.504	12.15
668.535	16.15
668.567	8.15
668.599	3.15
668.63	4.15
668.662	-4.85
668.693	25.15
668.725	9.15
668.756	7.15
668.788	4.15
668.819	-1.85
668.851	-1.85
668.882	5.15
668.914	6.15
668.946	-12.85
668.977	-7.85
669.009	2.15
669.04	3.15
669.072	-14.85
669.103	10.15
669.135	3.15
669.166	11.15
669.198	6.15
669.229	3.15
669.261	0.15
669.292	-4.85
669.324	24.15
669.355	5.15
669.387	-10.85
669.418	9.15
669.45	2.15
669.481	17.15
669.513	-3.85
669.544	3.15
669.576	3.15
669.607	8.15
669.639	3.15
669.67	-6.85
669.701	23.15
669.733	3.15
669.764	2.15
669.796	-6.85
669.827	-12.85
669.859	1.15
669.89	12.15
669.922	14.15
669.953	6.15
669.985	19.15
670.016	6.15
670.047	10.15
670.079	-5.85
670.11	-2.85
670.142	-3.85
670.173	-3.85
670.204	-8.85
670.236	-11.85
670.267	-13.85
670.299	-7.85
670.33	5.15
670.362	14.15
670.393	-4.85
670.424	11.15
670.456	-11.85
670.487	5.15
670.518	-3.85
670.55	4.15
670.581	-8.85
670.613	6.15
670.644	-10.85
670.675	-9.85
670.707	6.15
670.738	-0.85
670.769	11.15
670.801	-7.85
670.832	9.15
670.864	1.15
670.895	3.15
670.926	13.15
670.958	11.15
670.989	2.15
671.02	-10.85
671.052	8.15
671.083	9.15
671.114	-5.85
671.146	8.15
671.177	1.15
671.208	-12.85
671.24	-19.85
671.271	-0.85
671.302	13.15
671.333	-4.85
671.365	-6.85
671.396	-3.85
671.427	6.15
671.459	-3.85
671.49	0.15
671.521	15.15
671.553	7.15
671.584	21.15
671.615	-15.85
671.646	11.15
671.678	-0.85
671.709	-9.85
671.74	-21.85
671.771	-22.85
671.803	-10.85
671.834	-5.85
671.865	-9.85
671.896	6.15
671.928	5.15
671.959	-9.85
671.99	5.15
672.021	0.15
672.053	-2.85
672.084	5.15
672.115	-10.85
672.146	-8.85
672.178	-6.85
672.209	-11.85
672.24	11.15
672.271	26.15
672.303	3.15
672.334	-15.85
672.365	-4.85
672.396	-6.85
672.427	2.15
672.459	0.15
672.49	25.15
672.521	-0.85
672.552	14.15
672.583	14.15
672.615	15.15
672.646	15.15
672.677	5.15
672.708	-0.85
672.739	-10.85
672.77	17.15
672.802	5.15
672.833	-8.85
672.864	-1.85
672.895	-13.85
672.926	3.15
672.957	3.15
672.989	-2.85
673.02	-0.85
673.051	-4.85
673.082	10.15
673.113	6.15
673.144	3.15
673.175	-6.85
673.206	0.15
673.238	-14.85
673.269	-4.85
673.3	-12.85
673.331	5.15
673.362	-0.85
673.393	2.15
673.424	12.15
673.455	17.15
673.487	9.15
673.518	1.15
673.549	1.15
673.58	-11.85
673.611	-0.85
673.642	5.15
673.673	-20.85
673.704	4.15
673.735	9.15
673.766	8.15
673.797	0.15
673.828	-0.85
673.86	-0.85
673.891	-18.85
673.922	3.15
673.953	0.15
673.984	-2.85
674.015	-1.85
674.046	15.15
674.077	0.15
674.108	-1.85
674.139	-2.85
674.17	-10.85
674.201	-18.85
674.232	-9.85
674.263	-7.85
674.294	10.15
674.325	-11.85
674.356	5.15
674.387	16.15
674.418	11.15
674.449	-16.85
674.48	-13.85
674.511	-4.85
674.542	-0.85
674.573	6.15
674.604	8.15
674.635	-13.85
674.666	5.15
674.697	2.15
674.728	-10.85
674.759	4.15
674.79	-12.85
674.821	-10.85
674.852	-7.85
674.883	-17.85
674.914	-6.85
674.945	4.15
674.976	9.15
675.007	-10.85
675.038	-5.85
675.069	-11.85
675.1	-8.85
675.131	2.15
675.162	-19.85
675.193	-6.85
675.224	-4.85
675.254	1.15
675.285	3.15
675.316	1.15
675.347	3.15
675.378	7.15
675.409	0.15
675.44	18.15
675.471	15.15
675.502	6.15
675.533	-0.85
675.564	-0.85
675.595	5.15
675.625	12.15
675.656	6.15
675.687	9.15
675.718	-11.85
675.749	-1.85
675.78	7.15
675.811	-15.85
675.842	4.15
675.873	0.15
675.903	-8.85
675.934	8.15
675.965	1.15
675.996	-5.85
676.027	11.15
676.058	4.15
676.089	-3.85
676.119	-1.85
676.15	-3.85
676.181	-13.85
676.212	-13.85
676.243	1.15
676.274	6.15
676.304	16.15
676.335	7.15
676.366	-1.85
676.397	-4.85
676.428	7.15
676.459	15.15
676.489	4.15
676.52	7.15
676.551	1.15
676.582	-6.85
676.613	2.15
676.643	-9.85
676.674	13.15
676.705	4.15
676.736	12.15
676.767	1.15
676.797	-1.85
676.828	2.15
676.859	5.15
676.89	4.15
676.92	7.15
676.951	0.15
676.982	-4.85
677.013	-9.85
677.044	10.15
677.074	7.15
677.105	-1.85
677.136	-5.85
677.167	8.15
677.197	22.15
677.228	-8.85
677.259	-13.85
677.289	3.15
677.32	-4.85
677.351	-1.85
677.382	-4.85
677.412	9.15
677.443	23.15
677.474	-0.85
677.505	1.15
677.535	-3.85
677.566	0.15
677.597	-19.85
677.627	-4.85
677.658	7.15
677.689	-0.85
677.72	-4.85
677.75	-1.85
677.781	11.15
677.812	1.15
677.842	4.15
677.873	5.15
677.904	2.15
677.934	-12.85
677.965	-12.85
677.996	-10.85
678.026	-9.85
678.057	18.15
678.088	4.15
678.118	11.15
678.149	-6.85
678.18	4.15
678.21	-7.85
678.241	-10.85
678.272	-8.85
678.302	-9.85
678.333	1.15
678.363	19.15
678.394	-2.85
678.425	-8.85
678.455	-3.85
678.486	-12.85
678.517	6.15
678.547	-0.85
678.578	12.15
678.608	-10.85
678.639	6.15
678.67	8.15
678.7	1.15
678.731	-8.85
678.761	-8.85
678.792	10.15
678.823	11.15
678.853	-9.85
678.884	-4.85
678.914	18.15
678.945	-2.85
678.975	0.15
679.006	11.15
679.037	-5.85
679.067	18.15
679.098	-14.85
679.128	-4.85
679.159	-3.85
679.189	2.15
679.22	-10.85
679.25	5.15
679.281	1.15
679.312	12.15
679.342	1.15
679.373	19.15
679.403	-13.85
679.434	-6.85
679.464	4.15
679.495	15.15
679.525	-3.85
679.556	-8.85
679.586	9.15
679.617	15.15
679.647	8.15
679.678	3.15
679.708	0.15
679.739	11.15
679.769	-2.85
679.8	-4.85
679.83	3.15
679.861	13.15
679.891	-2.85
679.922	-17.85
679.952	-5.85
679.983	9.15
680.013	9.15
680.044	-24.85
680.074	6.15
680.105	16.15
680.135	1.15
680.165	2.15
680.196	15.15
680.226	2.15
680.257	6.15
680.287	11.15
680.318	-9.85
680.348	-17.85
680.379	20.15
680.409	10.15
680.439	1.15
680.47	3.15
680.5	9.15
680.531	5.15
680.561	11.15
680.592	2.15
680.622	21.15
680.652	16.15
680.683	22.15
680.713	11.15
680.744	2.15
680.774	-2.85
680.804	16.15
680.835	2.15
680.865	-5.85
680.896	23.15
680.926	22.15
680.956	-10.85
680.987	10.15
681.017	-9.85
681.047	-2.85
681.078	-1.85
681.108	1.15
681.139	-7.85
681.169	-5.85
681.199	14.15
681.23	9.15
681.26	4.15
681.29	18.15
681.321	-7.85
681.351	5.15
681.381	10.15
681.412	1.15
681.442	-3.85
681.472	12.15
681.503	6.15
681.533	6.15
681.563	-4.85
681.594	-8.85
681.624	3.15
681.654	-23.85
681.685	-11.85
681.715	-4.85
681.745	6.15
681.775	-9.85
681.806	-1.85
681.836	11.15
681.866	9.15
681.897	15.15
681.927	-5.85
681.957	8.15
681.987	16.15
682.018	1.15
682.048	-2.85
682.078	6.15
682.109	27.15
682.139	18.15
682.169	9.15
682.199	1.15
682.23	5.15
682.26	14.15
682.29	-8.85
682.32	5.15
682.351	2.15
682.381	-6.85
682.411	-6.85
682.441	-8.85
682.472	6.15
682.502	-3.85
682.532	-4.85
682.562	-0.85
682.592	5.15
682.623	6.15
682.653	11.15
682.683	4.15
682.713	-4.85
682.743	-0.85
682.774	0.15
682.804	12.15
682.834	10.15
682.864	-14.85
682.894	4.15
682.925	-1.85
682.955	0.15
682.985	1.15
683.015	1.15
683.045	14.15
683.076	-10.85
683.106	-10.85
683.136	-3.85
683.166	11.15
683.196	-9.85
683.226	11.15
683.257	1.15
683.287	-15.85
683.317	-17.85
683.347	-14.85
683.377	-0.85
683.407	6.15
683.437	7.15
683.468	7.15
683.498	-5.85
683.528	3.15
683.558	-1.85
683.588	-9.85
683.618	3.15
683.648	-0.85
683.678	14.15
683.708	7.15
683.739	2.15
683.769	-2.85
683.799	-5.85
683.829	1.15
683.859	3.15
683.889	1.15
683.919	-4.85
683.949	-12.85
683.979	-6.85
684.009	-21.85
684.039	-2.85
684.07	-7.85
684.1	17.15
684.13	-4.85
684.16	5.15
684.19	3.15
684.22	-9.85
684.25	17.15
684.28	-0.85
684.31	15.15
684.34	9.15
684.37	9.15
684.4	1.15
684.43	4.15
684.46	-3.85
684.49	-5.85
684.52	2.15
684.55	0.15
684.58	0.15
684.61	2.15
684.64	5.15
684.67	7.15
684.7	-2.85
684.73	8.15
684.76	9.15
684.79	21.15
684.82	4.15
684.85	-10.85
684.88	9.15
684.91	5.15
684.94	-7.85
684.97	-0.85
685	7.15
685.03	2.15
685.06	-10.85
685.09	0.15
685.12	26.15
685.15	-2.85
685.18	10.15
685.21	-13.85
685.24	4.15
685.27	10.15
685.3	-2.85
685.33	15.15
685.36	-15.85
685.39	-0.85
685.42	-5.85
685.45	-1.85
685.48	11.15
685.51	-15.85
685.54	9.15
685.569	-7.85
685.599	3.15
685.629	3.15
685.659	15.15
685.689	-14.85
685.719	-0.85
685.749	-1.85
685.779	10.15
685.809	10.15
685.839	0.15
685.869	2.15
685.898	10.15
685.928	-2.85
685.958	-4.85
685.988	20.15
686.018	-1.85
686.048	17.15
686.078	22.15
686.108	26.15
686.137	15.15
686.167	26.15
686.197	4.15
686.227	-16.85
686.257	15.15
686.287	13.15
686.317	1.15
686.346	-6.85
686.376	-15.85
686.406	-1.85
686.436	1.15
686.466	-10.85
686.496	16.15
686.525	1.15
686.555	10.15
686.585	15.15
686.615	22.15
686.645	12.15
686.675	11.15
686.704	15.15
686.734	3.15
686.764	-0.85
686.794	-2.85
686.824	-14.85
686.853	12.15
686.883	3.15
686.913	25.15
686.943	-3.85
686.973	1.15
687.002	0.15
687.032	13.15
687.062	-1.85
687.092	11.15
687.121	3.15
687.151	2.15
687.181	-1.85
687.211	26.15
687.24	-5.85
687.27	-0.85
687.3	-7.85
687.33	14.15
687.359	-1.85
687.389	-1.85
687.419	0.15
687.449	2.15
687.478	7.15
687.508	13.15
687.538	22.15
687.568	10.15
687.597	-12.85
687.627	-1.85
687.657	12.15
687.686	1.15
687.716	43.15
687.746	2.15
687.776	-5.85
687.805	-5.85
687.835	-13.85
687.865	22.15
687.894	11.15
687.924	5.15
687.954	1.15
687.983	4.15
688.013	6.15
688.043	10.15
688.072	1.15
688.102	10.15
688.132	-16.85
688.161	5.15
688.191	10.15
688.221	15.15
688.25	-9.85
688.28	-2.85
688.31	-4.85
688.339	8.15
688.369	-8.85
688.399	-1.85
688.428	-14.85
688.458	7.15
688.488	-9.85
688.517	8.15
688.547	-7.85
688.576	38.15
688.606	17.15
688.636	0.15
688.665	6.15
688.695	1.15
688.725	1.15
688.754	3.15
688.784	2.15
688.813	10.15
688.843	2.15
688.873	-10.85
688.902	-4.85
688.932	-0.85
688.961	1.15
688.991	14.15
689.02	10.15
689.05	-0.85
689.08	1.15
689.109	16.15
689.139	2.15
689.168	8.15
689.198	-6.85
689.227	0.15
689.257	6.15
689.287	10.15
689.316	-12.85
689.346	-12.85
689.375	-8.85
689.405	9.15
689.434	-12.85
689.464	15.15
689.493	-6.85
689.523	-6.85
689.552	-4.85
689.582	0.15
689.611	0.15
689.641	-3.85
689.67	10.15
689.7	6.15
689.73	7.15
689.759	10.15
689.789	17.15
689.818	2.15
689.848	0.15
689.877	27.15
689.906	-5.85
689.936	-8.85
689.965	-8.85
689.995	18.15
690.024	21.15
690.054	6.15
690.083	-3.85
690.113	-6.85
690.142	-8.85
690.172	11.15
690.201	11.15
690.231	2.15
690.26	2.15
690.29	-6.85
690.319	12.15
690.348	5.15
690.378	6.15
690.407	1.15
690.437	0.15
690.466	-16.85
690.496	-16.85
690.525	8.15
690.555	8.15
690.584	-1.85
690.613	7.15
690.643	-6.85
690.672	21.15
690.702	11.15
690.731	29.15
690.76	26.15
690.79	36.15
690.819	48.15
690.849	37.15
690.878	26.15
690.907	19.15
690.937	25.15
690.966	5.15
690.996	18.15
691.025	15.15
691.054	22.15
691.084	11.15
691.113	5.15
691.142	22.15
691.172	22.15
691.201	14.15
691.23	7.15
691.26	7.15
691.289	-0.85
691.319	-1.85
691.348	-2.85
691.377	8.15
691.407	5.15
691.436	14.15
691.465	4.15
691.495	18.15
691.524	-1.85
691.553	-4.85
691.583	-7.85
691.612	9.15
691.641	-5.85
691.67	3.15
691.7	14.15
691.729	-13.85
691.758	-7.85
691.788	7.15
691.817	17.15
691.846	1.15
691.876	-7.85
691.905	2.15
691.934	0.15
691.963	11.15
691.993	-9.85
692.022	8.15
692.051	-10.85
692.081	17.15
692.11	34.15
692.139	7.15
692.168	6.15
692.198	8.15
692.227	4.15
692.256	8.15
692.285	-7.85
692.315	-16.85
692.344	9.15
692.373	-0.85
692.402	-13.85
692.432	-12.85
692.461	0.15
692.49	5.15
692.519	5.15
692.548	18.15
692.578	21.15
692.607	-19.85
692.636	5.15
692.665	10.15
692.694	2.15
692.724	-1.85
692.753	19.15
692.782	24.15
692.811	0.15
692.84	17.15
692.87	14.15
692.899	4.15
692.928	7.15
692.957	12.15
692.986	13.15
693.016	12.15
693.045	10.15
693.074	17.15
693.103	14.15
693.132	-4.85
693.161	14.15
693.191	-2.85
693.22	8.15
693.249	15.15
693.278	4.15
693.307	13.15
693.336	-1.85
693.365	-11.85
693.395	2.15
693.424	-0.85
693.453	23.15
693.482	6.15
693.511	5.15
693.54	-12.85
693.569	8.15
693.598	-0.85
693.628	14.15
693.657	18.15
693.686	0.15
693.715	9.15
693.744	9.15
693.773	20.15
693.802	10.15
693.831	-8.85
693.86	8.15
693.889	-1.85
693.919	23.15
693.948	16.15
693.977	-0.85
694.006	2.15
694.035	15.15
694.064	-9.85
694.093	-1.85
694.122	-4.85
694.151	-0.85
694.18	16.15
694.209	24.15
694.238	5.15
694.267	8.15
694.296	11.15
694.325	-6.85
694.354	22.15
694.383	3.15
694.412	-13.85
694.441	-2.85
694.471	-5.85
694.5	0.15
694.529	6.15
694.558	18.15
694.587	17.15
694.616	2.15
694.645	6.15
694.674	20.15
694.703	11.15
694.732	6.15
694.761	10.15
694.79	25.15
694.819	-17.85
694.848	-5.85
694.877	7.15
694.906	17.15
694.935	1.15
694.963	23.15
694.992	9.15
695.021	18.15
695.05	17.15
695.079	20.15
695.108	-0.85
695.137	9.15
695.166	-0.85
695.195	-11.85
695.224	-4.85
695.253	-1.85
695.282	0.15
695.311	10.15
695.34	8.15
695.369	12.15
695.398	0.15
695.427	14.15
695.456	3.15
695.485	9.15
695.513	-1.85
695.542	-1.85
695.571	9.15
695.6	7.15
695.629	5.15
695.658	2.15
695.687	-1.85
695.716	5.15
695.745	29.15
695.774	8.15
695.802	1.15
695.831	14.15
695.86	11.15
695.889	16.15
695.918	11.15
695.947	-0.85
695.976	8.15
696.005	17.15
696.033	22.15
696.062	6.15
696.091	-4.85
696.12	-5.85
696.149	14.15
696.178	11.15
696.207	5.15
696.235	-7.85
696.264	4.15
696.293	18.15
696.322	18.15
696.351	9.15
696.38	-1.85
696.408	4.15
696.437	-15.85
696.466	9.15
696.495	7.15
696.524	32.15
696.553	0.15
696.581	2.15
696.61	6.15
696.639	6.15
696.668	14.15
696.697	7.15
696.725	12.15
696.754	7.15
696.783	5.15
696.812	9.15
696.84	23.15
696.869	16.15
696.898	4.15
696.927	9.15
696.956	22.15
696.984	-4.85
697.013	0.15
697.042	4.15
697.071	13.15
697.099	23.15
697.128	11.15
697.157	0.15
697.186	-3.85
697.214	-2.85
697.243	4.15
697.272	-6.85
697.301	-5.85
697.329	6.15
697.358	8.15
697.387	21.15
697.415	10.15
697.444	1.15
697.473	-2.85
697.502	-3.85
697.53	24.15
697.559	10.15
697.588	4.15
697.616	9.15
697.645	-3.85
697.674	29.15
697.703	23.15
697.731	23.15
697.76	17.15
697.789	2.15
697.817	-2.85
697.846	13.15
697.875	-9.85
697.903	20.15
697.932	14.15
697.961	-6.85
697.989	13.15
698.018	5.15
698.047	5.15
698.075	3.15
698.104	-4.85
698.133	-10.85
698.161	-3.85
698.19	19.15
698.218	12.15
698.247	13.15
698.276	2.15
698.304	1.15
698.333	13.15
698.362	-5.85
698.39	6.15
698.419	15.15
698.447	-2.85
698.476	3.15
698.505	5.15
698.533	10.15
698.562	13.15
698.591	13.15
698.619	-4.85
698.648	-7.85
698.676	-6.85
698.705	11.15
698.733	-3.85
698.762	17.15
698.791	8.15
698.819	-1.85
698.848	13.15
698.876	27.15
698.905	9.15
698.933	2.15
698.962	7.15
698.991	4.15
699.019	20.15
699.048	3.15
699.076	23.15
699.105	-0.85
699.133	-4.85
699.162	8.15
699.19	30.15
699.219	-0.85
699.248	-4.85
699.276	-5.85
699.305	-14.85
699.333	5.15
699.362	-5.85
699.39	14.15
699.419	-2.85
699.447	9.15
699.476	13.15
699.504	2.15
699.533	22.15
699.561	3.15
699.59	11.15
699.618	-8.85
699.647	4.15
699.675	0.15
699.704	-0.85
699.732	2.15
699.761	2.15
699.789	3.15
699.818	9.15
699.846	-16.85
699.874	0.15
699.903	-2.85
699.931	-4.85
699.96	10.15
699.988	13.15
700.017	3.15
700.045	-4.85
700.074	-5.85
700.102	-7.85
700.13	0.15
700.159	21.15
700.187	13.15
700.216	2.15
700.244	-2.85
700.273	2.15
700.301	9.15
700.329	3.15
700.358	4.15
700.386	3.15
700.415	-0.85
700.443	-11.85
700.472	5.15
700.5	-0.85
700.528	-2.85
700.557	-0.85
700.585	1.15
700.614	5.15
700.642	27.15
700.67	20.15
700.699	15.15
700.727	0.15
700.755	9.15
700.784	10.15
700.812	5.15
700.841	11.15
700.869	0.15
700.897	-19.85
700.926	-14.85
700.954	-2.85
700.982	16.15
701.011	20.15
701.039	19.15
701.067	18.15
701.096	7.15
701.124	-9.85
701.152	6.15
701.181	2.15
701.209	-25.85
701.237	0.15
701.266	7.15
701.294	-0.85
701.322	10.15
701.351	6.15
701.379	9.15
701.407	-5.85
701.435	7.15
701.464	21.15
701.492	15.15
701.52	-0.85
701.549	1.15
701.577	-7.85
701.605	-4.85
701.634	-3.85
701.662	17.15
701.69	-9.85
701.718	-12.85
701.747	10.15
701.775	8.15
701.803	-4.85
701.831	6.15
701.86	6.15
701.888	5.15
701.916	2.15
701.944	-2.85
701.973	-4.85
702.001	-11.85
702.029	1.15
702.057	-0.85
702.086	-2.85
702.114	-5.85
702.142	-5.85
702.17	-7.85
702.199	2.15
702.227	-7.85
702.255	-0.85
702.283	-5.85
702.311	9.15
702.34	2.15
702.368	-8.85
702.396	5.15
702.424	2.15
702.452	4.15
702.481	-0.85
702.509	10.15
702.537	2.15
702.565	-2.85
702.593	-4.85
702.621	14.15
702.65	17.15
702.678	6.15
702.706	9.15
702.734	-10.85
702.762	10.15
702.79	5.15
702.819	9.15
702.847	9.15
702.875	17.15
702.903	3.15
702.931	-10.85
702.959	3.15
702.988	8.15
703.016	-21.85
703.044	-1.85
703.072	-8.85
703.1	-7.85
703.128	3.15
703.156	19.15
703.184	-9.85
703.212	0.15
703.241	1.15
703.269	-16.85
703.297	-5.85
703.325	-1.85
703.353	-24.85
703.381	-10.85
703.409	10.15
703.437	-5.85
703.465	-2.85
703.493	-1.85
703.522	8.15
703.55	13.15
703.578	12.15
703.606	7.15
703.634	-0.85
703.662	-16.85
703.69	19.15
703.718	12.15
703.746	13.15
703.774	10.15
703.802	16.15
703.83	-4.85
703.858	-5.85
703.886	-1.85
703.914	-11.85
703.942	11.15
703.97	-2.85
703.998	-6.85
704.027	14.15
704.055	16.15
704.083	5.15
704.111	-16.85
704.139	3.15
704.167	8.15
704.195	-0.85
704.223	-8.85
704.251	-2.85
704.279	14.15
704.307	-6.85
704.335	-6.85
704.363	2.15
704.391	5.15
704.419	-15.85
704.447	-22.85
704.475	-7.85
704.503	-10.85
704.531	13.15
704.558	8.15
704.586	6.15
704.614	-1.85
704.642	15.15
704.67	0.15
704.698	1.15
704.726	-6.85
704.754	5.15
704.782	5.15
704.81	9.15
704.838	15.15
704.866	6.15
704.894	1.15
704.922	1.15
704.95	7.15
704.978	12.15
705.006	0.15
705.034	17.15
705.061	-6.85
705.089	-10.85
705.117	-12.85
705.145	-8.85
705.173	9.15
705.201	-3.85
705.229	-1.85
705.257	1.15
705.285	-15.85
705.313	-6.85
705.34	-3.85
705.368	-4.85
705.396	-1.85
705.424	10.15
705.452	20.15
705.48	7.15
705.508	-5.85
705.536	-1.85
705.563	7.15
705.591	-0.85
705.619	-6.85
705.647	0.15
705.675	-16.85
705.703	-5.85
705.731	-9.85
705.758	1.15
705.786	-9.85
705.814	14.15
705.842	19.15
705.87	11.15
705.898	8.15
705.925	1.15
705.953	-2.85
705.981	-10.85
706.009	0.15
706.037	8.15
706.065	14.15
706.092	-5.85
706.12	15.15
706.148	-7.85
706.176	12.15
706.204	11.15
706.231	-10.85
706.259	-6.85
706.287	-5.85
706.315	9.15
706.342	-5.85
706.37	12.15
706.398	7.15
706.426	4.15
706.454	-3.85
706.481	10.15
706.509	-2.85
706.537	-4.85
706.565	-15.85
706.592	-1.85
706.62	-0.85
706.648	8.15
706.676	-6.85
706.703	-7.85
706.731	-6.85
706.759	0.15
706.787	2.15
706.814	-1.85
706.842	3.15
706.87	-3.85
706.897	-20.85
706.925	-7.85
706.953	1.15
706.981	5.15
707.008	8.15
707.036	-1.85
707.064	5.15
707.091	-9.85
707.119	12.15
707.147	4.15
707.174	-0.85
707.202	9.15
707.23	2.15
707.258	10.15
707.285	-7.85
707.313	-5.85
707.341	-3.85
707.368	5.15
707.396	-6.85
707.424	8.15
707.451	8.15
707.479	2.15
707.507	3.15
707.534	-13.85
707.562	-1.85
707.59	-5.85
707.617	-6.85
707.645	17.15
707.672	3.15
707.7	4.15
707.728	11.15
707.755	0.15
707.783	-2.85
707.811	3.15
707.838	-13.85
707.866	11.15
707.893	1.15
707.921	3.15
707.949	2.15
707.976	22.15
708.004	12.15
708.031	0.15
708.059	-7.85
708.087	7.15
708.114	-11.85
708.142	0.15
708.169	-2.85
708.197	-0.85
708.225	9.15
708.252	0.15
708.28	9.15
708.307	-5.85
708.335	5.15
708.362	6.15
708.39	-2.85
708.418	1.15
708.445	4.15
708.473	-2.85
708.5	-16.85
708.528	12.15
708.555	7.15
708.583	5.15
708.61	-14.85
708.638	6.15
708.665	-2.85
708.693	7.15
708.72	-0.85
708.748	-4.85
708.776	-2.85
708.803	25.15
708.831	18.15
708.858	7.15
708.886	10.15
708.913	8.15
708.941	-3.85
708.968	2.15
708.996	4.15
709.023	33.15
709.051	-13.85
709.078	-6.85
709.105	6.15
709.133	1.15
709.16	0.15
709.188	1.15
709.215	7.15
709.243	9.15
709.27	-9.85
709.298	2.15
709.325	-9.85
709.353	3.15
709.38	5.15
709.408	8.15
709.435	4.15
709.462	9.15
709.49	7.15
709.517	-0.85
709.545	-2.85
709.572	-8.85
709.6	7.15
709.627	10.15
709.655	-8.85
709.682	-7.85
709.709	6.15
709.737	10.15
709.764	-2.85
709.792	5.15
709.819	-20.85
709.846	-4.85
709.874	2.15
709.901	14.15
709.929	17.15
709.956	30.15
709.983	4.15
710.011	0.15
710.038	2.15
710.066	6.15
710.093	24.15
710.12	1.15
710.148	6.15
710.175	-8.85
710.202	-0.85
710.23	12.15
710.257	-2.85
710.284	7.15
710.312	-4.85
710.339	1.15
710.366	-1.85
710.394	-8.85
710.421	17.15
710.448	3.15
710.476	-5.85
710.503	-5.85
710.53	18.15
710.558	11.15
710.585	18.15
710.612	-3.85
710.64	-4.85
710.667	-1.85
710.694	-10.85
710.722	-10.85
710.749	6.15
710.776	-11.85
710.804	13.15
710.831	3.15
710.858	14.15
710.885	4.15
710.913	-5.85
710.94	12.15
710.967	-0.85
710.995	1.15
711.022	6.15
711.049	-1.85
711.076	-10.85
711.104	-3.85
711.131	-7.85
711.158	1.15
711.185	14.15
711.213	-16.85
711.24	-18.85
711.267	-1.85
711.294	-0.85
711.322	1.15
711.349	-8.85
711.376	-10.85
711.403	-0.85
711.431	-0.85
711.458	-14.85
711.485	-7.85
711.512	10.15
711.54	30.15
711.567	3.15
711.594	-5.85
711.621	-0.85
711.648	10.15
711.676	6.15
711.703	-1.85
711.73	-13.85
711.757	-4.85
711.784	9.15
711.812	1.15
711.839	4.15
711.866	-12.85
711.893	-7.85
711.92	5.15
711.947	5.15
711.975	22.15
712.002	-1.85
712.029	1.15
712.056	1.15
712.083	22.15
712.11	-8.85
712.138	5.15
712.165	-2.85
712.192	17.15
712.219	12.15
712.246	-4.85
712.273	-12.85
712.3	5.15
712.328	9.15
712.355	16.15
712.382	2.15
712.409	25.15
712.436	-12.85
712.463	11.15
712.49	3.15
712.517	3.15
712.544	16.15
712.572	7.15
712.599	-8.85
712.626	10.15
712.653	10.15
712.68	-7.85
712.707	8.15
712.734	12.15
712.761	0.15
712.788	1.15
712.815	4.15
712.842	16.15
712.87	-0.85
712.897	-13.85
712.924	-6.85
712.951	-1.85
712.978	19.15
713.005	13.15
713.032	9.15
713.059	-9.85
713.086	5.15
713.113	-1.85
713.14	-2.85
713.167	2.15
713.194	6.15
713.221	-1.85
713.248	16.15
713.275	-8.85
713.302	-6.85
713.329	3.15
713.356	5.15
713.383	2.15
713.41	-5.85
713.437	1.15
713.464	5.15
713.491	15.15
713.518	6.15
713.545	0.15
713.572	-2.85
713.599	16.15
713.626	9.15
713.653	17.15
713.68	-0.85
713.707	10.15
713.734	10.15
713.761	3.15
713.788	10.15
713.815	20.15
713.842	5.15
713.869	9.15
713.896	7.15
713.923	-14.85
713.95	2.15
713.977	2.15
714.004	-4.85
714.031	-13.85
714.058	1.15
714.085	-4.85
714.112	18.15
714.139	1.15
714.165	6.15
714.192	-0.85
714.219	-0.85
714.246	18.15
714.273	-0.85
714.3	-2.85
714.327	-13.85
714.354	11.15
714.381	10.15
714.408	5.15
714.435	-8.85
714.461	-2.85
714.488	1.15
714.515	-6.85
714.542	-4.85
714.569	-2.85
714.596	-9.85
714.623	-2.85
714.65	-3.85
714.677	8.15
714.703	1.15
714.73	12.15
714.757	19.15
714.784	17.15
714.811	-8.85
714.838	2.15
714.865	0.15
714.891	15.15
714.918	9.15
714.945	-14.85
714.972	22.15
714.999	22.15
715.026	-9.85
715.052	15.15
715.079	10.15
715.106	0.15
715.133	15.15
715.16	-0.85
715.187	12.15
715.213	12.15
715.24	-9.85
715.267	15.15
715.294	9.15
715.321	-3.85
715.347	3.15
715.374	-5.85
715.401	-1.85
715.428	-0.85
715.455	-2.85
715.481	-0.85
715.508	9.15
715.535	-1.85
715.562	22.15
715.588	-2.85
715.615	-11.85
715.642	-6.85
715.669	12.15
715.695	-5.85
715.722	1.15
715.749	13.15
715.776	7.15
715.802	7.15
715.829	7.15
715.856	-8.85
715.883	9.15
715.909	-8.85
715.936	-1.85
715.963	6.15
715.99	-6.85
716.016	6.15
716.043	-1.85
716.07	-3.85
716.096	-9.85
716.123	-5.85
716.15	1.15
716.177	-1.85
716.203	11.15
716.23	13.15
716.257	6.15
716.283	21.15
716.31	7.15
716.337	-11.85
716.363	-1.85
716.39	-1.85
716.417	18.15
716.443	2.15
716.47	19.15
716.497	9.15
716.523	14.15
716.55	15.15
716.577	-1.85
716.603	-1.85
716.63	5.15
716.657	5.15
716.683	-3.85
716.71	8.15
716.737	-2.85
716.763	1.15
716.79	-0.85
716.817	12.15
716.843	-4.85
716.87	-5.85
716.897	2.15
716.923	18.15
716.95	-7.85
716.976	2.15
717.003	1.15
717.03	6.15
717.056	-8.85
717.083	-5.85
717.109	2.15
717.136	19.15
717.163	-5.85
717.189	6.15
717.216	-4.85
717.242	7.15
717.269	-2.85
717.296	5.15
717.322	5.15
717.349	10.15
717.375	7.15
717.402	-4.85
717.428	-11.85
717.455	2.15
717.481	-7.85
717.508	-9.85
717.535	-4.85
717.561	-2.85
717.588	-8.85
717.614	6.15
717.641	6.15
717.667	-1.85
717.694	8.15
717.72	-0.85
717.747	3.15
717.773	2.15
717.8	5.15
717.826	-0.85
717.853	-2.85
717.88	-6.85
717.906	-0.85
717.933	6.15
717.959	8.15
717.986	8.15
718.012	-0.85
718.039	14.15
718.065	17.15
718.092	7.15
718.118	-9.85
718.144	8.15
718.171	17.15
718.197	4.15
718.224	1.15
718.25	1.15
718.277	15.15
718.303	-4.85
718.33	-3.85
718.356	1.15
718.383	-13.85
718.409	5.15
718.436	4.15
718.462	-4.85
718.489	-7.85
718.515	2.15
718.541	7.15
718.568	-4.85
718.594	-5.85
718.621	1.15
718.647	-1.85
718.674	9.15
718.7	9.15
718.726	-2.85
718.753	10.15
718.779	3.15
718.806	-0.85
718.832	-4.85
718.858	-2.85
718.885	-11.85
718.911	15.15
718.938	10.15
718.964	-16.85
718.99	1.15
719.017	9.15
719.043	10.15
719.07	15.15
719.096	-15.85
719.122	9.15
719.149	-5.85
719.175	-0.85
719.201	4.15
719.228	9.15
719.254	10.15
719.281	-3.85
719.307	9.15
719.333	-4.85
719.36	17.15
719.386	8.15
719.412	14.15
719.439	5.15
719.465	-1.85
719.491	-4.85
719.518	26.15
719.544	8.15
719.57	8.15
719.597	18.15
719.623	9.15
719.649	9.15
719.675	6.15
719.702	-5.85
719.728	3.15
719.754	-0.85
719.781	4.15
719.807	9.15
719.833	10.15
719.86	5.15
719.886	2.15
719.912	10.15
719.938	-7.85
719.965	10.15
719.991	10.15
720.017	7.15
720.044	-2.85
720.07	9.15
720.096	2.15
720.122	5.15
720.149	19.15
720.175	25.15
720.201	3.15
720.227	13.15
720.254	6.15
720.28	4.15
720.306	-8.85
720.332	5.15
720.359	11.15
720.385	7.15
720.411	-8.85
720.437	11.15
720.463	9.15
720.49	4.15
720.516	-11.85
720.542	-4.85
720.568	-7.85
720.595	16.15
720.621	2.15
720.647	1.15
720.673	7.15
720.699	-8.85
720.725	0.15
720.752	5.15
720.778	27.15
720.804	4.15
720.83	11.15
720.856	-0.85
720.883	-9.85
720.909	0.15
720.935	-4.85
720.961	18.15
720.987	7.15
721.013	8.15
721.04	-2.85
721.066	3.15
721.092	7.15
721.118	14.15
721.144	-0.85
721.17	-3.85
721.196	5.15
721.223	2.15
721.249	-4.85
721.275	22.15
721.301	-1.85
721.327	-1.85
721.353	14.15
721.379	2.15
721.405	19.15
721.432	7.15
721.458	-2.85
721.484	-6.85
721.51	-5.85
721.536	1.15
721.562	-0.85
721.588	-0.85
721.614	-8.85
721.64	-9.85
721.666	3.15
721.693	7.15
721.719	6.15
721.745	-2.85
721.771	11.15
721.797	0.15
721.823	0.15
721.849	14.15
721.875	6.15
721.901	11.15
721.927	3.15
721.953	7.15
721.979	15.15
722.005	12.15
722.031	-4.85
722.057	9.15
722.083	-5.85
722.109	-1.85
722.135	9.15
722.161	2.15
722.187	-4.85
722.214	-18.85
722.24	-5.85
722.266	-2.85
722.292	8.15
722.318	14.15
722.344	-1.85
722.37	-0.85
722.396	22.15
722.422	4.15
722.448	-5.85
722.474	-9.85
722.5	18.15
722.526	21.15
722.552	10.15
722.578	-8.85
722.603	-5.85
722.629	-14.85
722.655	10.15
722.681	0.15
722.707	-1.85
722.733	-8.85
722.759	-12.85
722.785	7.15
722.811	9.15
722.837	-2.85
722.863	2.15
722.889	9.15
722.915	2.15
722.941	2.15
722.967	-8.85
722.993	3.15
723.019	-0.85
723.045	9.15
723.071	-1.85
723.097	-5.85
723.122	0.15
723.148	0.15
723.174	-0.85
723.2	-5.85
723.226	6.15
723.252	3.15
723.278	-5.85
723.304	-9.85
723.33	-3.85
723.356	-4.85
723.381	-2.85
723.407	-2.85
723.433	9.15
723.459	0.15
723.485	-5.85
723.511	5.15
723.537	-5.85
723.563	-6.85
723.588	19.15
723.614	9.15
723.64	-1.85
723.666	7.15
723.692	14.15
723.718	7.15
723.744	4.15
723.769	-11.85
723.795	-13.85
723.821	-4.85
723.847	5.15
723.873	7.15
723.899	23.15
723.924	-13.85
723.95	-1.85
723.976	-8.85
724.002	-7.85
724.028	4.15
724.053	-7.85
724.079	-17.85
724.105	-2.85
724.131	-6.85
724.157	-1.85
724.182	9.15
724.208	-3.85
724.234	1.15
724.26	-2.85
724.286	16.15
724.311	-4.85
724.337	-14.85
724.363	-10.85
724.389	10.15
724.415	-5.85
724.44	13.15
724.466	-10.85
724.492	5.15
724.518	15.15
724.543	1.15
724.569	-0.85
724.595	13.15
724.621	1.15
724.646	7.15
724.672	-11.85
724.698	-1.85
724.723	-3.85
724.749	5.15
724.775	18.15
724.801	9.15
724.826	3.15
724.852	-6.85
724.878	-8.85
724.904	-13.85
724.929	7.15
724.955	2.15
724.981	2.15
725.006	10.15
725.032	-5.85
725.058	9.15
725.083	-11.85
725.109	1.15
725.135	-3.85
725.161	4.15
725.186	0.15
725.212	-9.85
725.238	14.15
725.263	3.15
725.289	-1.85
725.315	-8.85
725.34	-6.85
725.366	-4.85
725.392	-6.85
725.417	9.15
725.443	7.15
725.468	6.15
725.494	11.15
725.52	14.15
725.545	-7.85
725.571	15.15
725.597	25.15
725.622	2.15
725.648	-4.85
725.674	8.15
725.699	6.15
725.725	-9.85
725.75	22.15
725.776	-9.85
725.802	-2.85
725.827	-1.85
725.853	11.15
725.878	1.15
725.904	2.15
725.93	11.15
725.955	-1.85
725.981	-9.85
726.006	-5.85
726.032	5.15
726.057	-5.85
726.083	8.15
726.109	-1.85
726.134	5.15
726.16	-5.85
726.185	-2.85
726.211	1.15
726.236	9.15
726.262	22.15
726.288	10.15
726.313	4.15
726.339	11.15
726.364	-2.85
726.39	11.15
726.415	-8.85
726.441	-12.85
726.466	-1.85
726.492	-10.85
726.517	-10.85
726.543	2.15
726.568	-15.85
726.594	-26.85
726.619	14.15
726.645	15.15
726.67	-0.85
726.696	14.15
726.721	-4.85
726.747	-12.85
726.772	-1.85
726.798	7.15
726.823	14.15
726.849	11.15
726.874	15.15
726.9	13.15
726.925	19.15
726.951	-6.85
726.976	7.15
727.002	-0.85
727.027	4.15
727.053	12.15
727.078	-20.85
727.104	-1.85
727.129	-9.85
727.155	2.15
727.18	-3.85
727.205	3.15
727.231	-2.85
727.256	9.15
727.282	3.15
727.307	25.15
727.333	1.15
727.358	-2.85
727.383	-13.85
727.409	0.15
727.434	-0.85
727.46	6.15
727.485	1.15
727.511	10.15
727.536	-6.85
727.561	-9.85
727.587	-2.85
727.612	-13.85
727.637	-6.85
727.663	-2.85
727.688	14.15
727.714	-12.85
727.739	-10.85
727.764	3.15
727.79	0.15
727.815	2.15
727.841	14.15
727.866	0.15
727.891	13.15
727.917	-9.85
727.942	-15.85
727.967	8.15
727.993	-10.85
728.018	-2.85
728.043	-8.85
728.069	4.15
728.094	11.15
728.119	6.15
728.145	5.15
728.17	-4.85
728.195	4.15
728.221	9.15
728.246	1.15
728.271	-17.85
728.297	6.15
728.322	20.15
728.347	6.15
728.373	5.15
728.398	7.15
728.423	-6.85
728.448	-4.85
728.474	15.15
728.499	14.15
728.524	-12.85
728.55	-12.85
728.575	-7.85
728.6	8.15
728.625	0.15
728.651	2.15
728.676	-12.85
728.701	-7.85
728.727	11.15
728.752	-8.85
728.777	-8.85
728.802	8.15
728.828	13.15
728.853	8.15
728.878	-5.85
728.903	-6.85
728.929	0.15
728.954	-2.85
728.979	5.15
729.004	-15.85
729.03	11.15
729.055	2.15
729.08	-18.85
729.105	-10.85
729.13	1.15
729.156	10.15
729.181	5.15
729.206	-8.85
729.231	2.15
729.256	11.15
729.282	5.15
729.307	-6.85
729.332	4.15
729.357	-5.85
729.382	-0.85
729.408	5.15
729.433	-0.85
729.458	2.15
729.483	7.15
729.508	23.15
729.533	-8.85
729.559	7.15
729.584	-3.85
729.609	11.15
729.634	1.15
729.659	4.15
729.684	-5.85
729.71	-0.85
729.735	-5.85
729.76	1.15
729.785	4.15
729.81	17.15
729.835	-2.85
729.86	-11.85
729.886	-9.85
729.911	13.15
729.936	10.15
729.961	22.15
729.986	15.15
730.011	69.15
730.036	213.15
730.061	1030.15
730.086	2740.15
730.112	3446.15
730.137	2878.15
730.162	2154.15
730.187	1670.15
730.212	1279.15
730.237	805.15
730.262	458.15
730.287	249.15
730.312	167.15
730.337	67.15
730.362	66.15
730.387	29.15
730.413	13.15
730.438	20.15
730.463	9.15
730.488	15.15
730.513	8.15
730.538	10.15
730.563	23.15
730.588	14.15
730.613	42.15
730.638	10.15
730.663	12.15
730.688	16.15
730.713	7.15
730.738	12.15
730.763	8.15
730.788	-7.85
730.813	2.15
730.838	3.15
730.863	-3.85
730.888	6.15
730.913	7.15
730.938	-5.85
730.963	41.15
730.988	103.15
731.013	406.15
731.038	630.15
731.063	617.15
731.088	464.15
731.113	360.15
731.138	279.15
731.163	185.15
731.188	106.15
731.213	55.15
731.238	45.15
731.263	19.15
731.288	7.15
731.313	14.15
731.338	5.15
731.363	-2.85
731.388	0.15
731.413	14.15
731.438	3.15
731.463	8.15
731.487	0.15
731.512	1.15
731.537	2.15
731.562	2.15
731.587	-4.85
731.612	-13.85
731.637	-4.85
731.662	-15.85
731.687	-0.85
731.712	-7.85
731.737	-6.85
731.762	-3.85
731.786	3.15
731.811	8.15
731.836	-3.85
731.861	7.15
731.886	4.15
731.911	7.15
731.936	19.15
731.961	6.15
731.986	-6.85
732.01	6.15
732.035	-0.85
732.06	27.15
732.085	17.15
732.11	12.15
732.135	-1.85
732.16	-0.85
732.184	-7.85
732.209	-1.85
732.234	1.15
732.259	1.15
732.284	39.15
732.309	6.15
732.334	-0.85
732.358	-14.85
732.383	-5.85
732.408	-2.85
732.433	9.15
732.458	4.15
732.482	5.15
732.507	0.15
732.532	1.15
732.557	34.15
732.582	23.15
732.607	26.15
732.631	73.15
732.656	95.15
732.681	157.15
732.706	345.15
732.73	463.15
732.755	401.15
732.78	326.15
732.805	239.15
732.83	178.15
732.854	138.15
732.879	84.15
732.904	31.15
732.929	29.15
732.953	18.15
732.978	18.15
733.003	3.15
733.028	0.15
733.052	-0.85
733.077	-0.85
733.102	12.15
733.127	-5.85
733.151	7.15
733.176	11.15
733.201	-1.85
733.226	3.15
733.25	5.15
733.275	9.15
733.3	0.15
733.324	17.15
733.349	-3.85
733.374	14.15
733.399	3.15
733.423	-16.85
733.448	-9.85
733.473	-12.85
733.497	-14.85
733.522	-8.85
733.547	10.15
733.571	35.15
733.596	5.15
733.621	3.15
733.646	9.15
733.67	8.15
733.695	-3.85
733.72	21.15
733.744	4.15
733.769	8.15
733.794	26.15
733.818	6.15
733.843	-5.85
733.867	6.15
733.892	9.15
733.917	5.15
733.941	3.15
733.966	-16.85
733.991	-6.85
734.015	19.15
734.04	3.15
734.065	16.15
734.089	4.15
734.114	5.15
734.138	16.15
734.163	4.15
734.188	11.15
734.212	11.15
734.237	15.15
734.261	1.15
734.286	3.15
734.311	-7.85
734.335	-2.85
734.36	10.15
734.384	17.15
734.409	1.15
734.434	-7.85
734.458	5.15
734.483	6.15
734.507	-7.85
734.532	-5.85
734.556	-7.85
734.581	-13.85
734.606	-14.85
734.63	-11.85
734.655	-4.85
734.679	-1.85
734.704	-5.85
734.728	-5.85
734.753	2.15
734.777	9.15
734.802	7.15
734.826	19.15
734.851	13.15
734.876	21.15
734.9	19.15
734.925	9.15
734.949	2.15
734.974	-8.85
734.998	14.15
735.023	8.15
735.047	-3.85
735.072	20.15
735.096	1.15
735.121	11.15
735.145	9.15
735.17	3.15
735.194	3.15
735.219	-3.85
735.243	7.15
735.268	-0.85
735.292	19.15
735.317	8.15
735.341	-2.85
735.365	-13.85
735.39	8.15
735.414	10.15
735.439	15.15
735.463	6.15
735.488	-7.85
735.512	-2.85
735.537	-0.85
735.561	8.15
735.586	3.15
735.61	1.15
735.634	-4.85
735.659	3.15
735.683	16.15
735.708	3.15
735.732	6.15
735.757	6.15
735.781	6.15
735.805	-2.85
735.83	-2.85
735.854	-7.85
735.879	10.15
735.903	21.15
735.927	1.15
735.952	11.15
735.976	-6.85
736.001	-0.85
736.025	-5.85
736.049	8.15
736.074	1.15
736.098	-6.85
736.123	1.15
736.147	8.15
736.171	6.15
736.196	12.15
736.22	-8.85
736.244	10.15
736.269	-4.85
736.293	3.15
736.317	6.15
736.342	12.15
736.366	13.15
736.39	24.15
736.415	7.15
736.439	-7.85
736.463	0.15
736.488	-4.85
736.512	7.15
736.536	8.15
736.561	27.15
736.585	5.15
736.609	9.15
736.634	-9.85
736.658	2.15
736.682	-2.85
736.707	-8.85
736.731	-9.85
736.755	8.15
736.78	23.15
736.804	14.15
736.828	4.15
736.852	10.15
736.877	5.15
736.901	5.15
736.925	-0.85
736.949	-0.85
736.974	-2.85
736.998	-1.85
737.022	-6.85
737.047	-18.85
737.071	-6.85
737.095	13.15
737.119	15.15
737.144	14.15
737.168	-4.85
737.192	3.15
737.216	3.15
737.241	-7.85
737.265	4.15
737.289	-13.85
737.313	-13.85
737.337	3.15
737.362	8.15
737.386	-1.85
737.41	-4.85
737.434	-2.85
737.459	-14.85
737.483	20.15
737.507	21.15
737.531	5.15
737.555	2.15
737.58	7.15
737.604	-1.85
737.628	-5.85
737.652	-2.85
737.676	-9.85
737.701	14.15
737.725	8.15
737.749	1.15
737.773	-5.85
737.797	-10.85
737.821	8.15
737.846	-2.85
737.87	16.15
737.894	-0.85
737.918	2.15
737.942	7.15
737.966	16.15
737.99	6.15
738.015	16.15
738.039	-2.85
738.063	-23.85
738.087	9.15
738.111	2.15
738.135	-2.85
738.159	2.15
738.184	4.15
738.208	-0.85
738.232	9.15
738.256	6.15
738.28	19.15
738.304	1.15
738.328	-2.85
738.352	-0.85
738.376	-2.85
738.4	17.15
738.425	2.15
738.449	-0.85
738.473	27.15
738.497	13.15
738.521	16.15
738.545	16.15
738.569	10.15
738.593	18.15
738.617	15.15
738.641	6.15
738.665	-0.85
738.689	2.15
738.713	-6.85
738.737	-8.85
738.762	18.15
738.786	10.15
738.81	-0.85
738.834	26.15
738.858	7.15
738.882	-2.85
738.906	11.15
738.93	12.15
738.954	-7.85
738.978	11.15
739.002	-6.85
739.026	20.15
739.05	5.15
739.074	-3.85
739.098	16.15
739.122	11.15
739.146	18.15
739.17	24.15
739.194	11.15
739.218	5.15
739.242	-1.85
739.266	-0.85
739.29	19.15
739.314	17.15
739.338	14.15
739.362	5.15
739.386	-2.85
739.41	-3.85
739.434	0.15
739.458	-1.85
739.482	17.15
739.506	10.15
739.53	-9.85
739.554	15.15
739.577	0.15
739.601	12.15
739.625	-1.85
739.649	-2.85
739.673	0.15
739.697	6.15
739.721	-14.85
739.745	2.15
739.769	4.15
739.793	5.15
739.817	9.15
739.841	-3.85
739.865	6.15
739.889	-9.85
739.912	1.15
739.936	-6.85
739.96	-4.85
739.984	2.15
740.008	11.15
740.032	-1.85
740.056	-8.85
740.08	14.15
740.104	14.15
740.127	17.15
740.151	9.15
740.175	14.15
740.199	17.15
740.223	56.15
740.247	23.15
740.271	9.15
740.295	0.15
740.318	-25.85
740.342	3.15
740.366	6.15
740.39	8.15
740.414	6.15
740.438	-0.85
740.461	14.15
740.485	-0.85
740.509	1.15
740.533	18.15
740.557	-11.85
740.581	4.15
740.604	-8.85
740.628	10.15
740.652	23.15
740.676	6.15
740.7	6.15
740.723	-6.85
740.747	-6.85
740.771	1.15
740.795	-0.85
740.819	4.15
740.842	13.15
740.866	10.15
740.89	3.15
740.914	1.15
740.938	6.15
740.961	6.15
740.985	-4.85
741.009	-8.85
741.033	15.15
741.056	7.15
741.08	-11.85
741.104	-10.85
741.128	7.15
741.151	7.15
741.175	10.15
741.199	10.15
741.223	11.15
741.246	-3.85
741.27	10.15
741.294	-5.85
741.318	-13.85
741.341	-9.85
741.365	1.15
741.389	6.15
741.413	16.15
741.436	20.15
741.46	3.15
741.484	-0.85
741.507	3.15
741.531	21.15
741.555	-4.85
741.579	-2.85
741.602	6.15
741.626	6.15
741.65	-15.85
741.673	-2.85
741.697	12.15
741.721	-1.85
741.744	-19.85
741.768	-6.85
741.792	4.15
741.815	0.15
741.839	29.15
741.863	22.15
741.886	9.15
741.91	13.15
741.934	-6.85
741.957	-9.85
741.981	11.15
742.005	-1.85
742.028	7.15
742.052	-7.85
742.075	13.15
742.099	5.15
742.123	-2.85
742.146	-5.85
742.17	-9.85
742.194	-3.85
742.217	8.15
742.241	10.15
742.264	1.15
742.288	3.15
742.312	7.15
742.335	-1.85
742.359	1.15
742.382	2.15
742.406	11.15
742.43	-9.85
742.453	-6.85
742.477	-9.85
742.5	-2.85
742.524	-3.85
742.548	-1.85
742.571	2.15
742.595	1.15
742.618	0.15
742.642	-9.85
742.665	7.15
742.689	-3.85
742.712	10.15
742.736	0.15
742.76	-2.85
742.783	-1.85
742.807	27.15
742.83	16.15
742.854	5.15
742.877	2.15
742.901	5.15
742.924	-2.85
742.948	18.15
742.971	13.15
742.995	17.15
743.018	-3.85
743.042	-9.85
743.065	-3.85
743.089	8.15
743.112	1.15
743.136	-0.85
743.159	-8.85
743.183	6.15
743.206	6.15
743.23	-4.85
743.253	-1.85
743.277	-2.85
743.3	-6.85
743.324	2.15
743.347	17.15
743.371	6.15
743.394	10.15
743.418	22.15
743.441	-9.85
743.465	-4.85
743.488	-0.85
743.512	-2.85
743.535	0.15
743.558	4.15
743.582	8.15
743.605	-4.85
743.629	-3.85
743.652	9.15
743.676	-1.85
743.699	10.15
743.723	9.15
743.746	4.15
743.769	-3.85
743.793	-5.85
743.816	-1.85
743.84	14.15
743.863	7.15
743.886	-1.85
743.91	11.15
743.933	1.15
743.957	8.15
743.98	-5.85
744.003	11.15
744.027	-4.85
744.05	1.15
744.074	5.15
744.097	-4.85
744.12	4.15
744.144	-2.85
744.167	20.15
744.19	-2.85
744.214	-15.85
744.237	-2.85
744.26	26.15
744.284	-25.85
744.307	-4.85
744.331	17.15
744.354	-5.85
744.377	2.15
744.401	7.15
744.424	-4.85
744.447	-6.85
744.471	5.15
