Data from HighRes_mercury_15_13_11_07_2024_HR4C61891__100__15-14-33-185.txt Node

Date: Thu Nov 07 15:14:33 EST 2024
User: crc00042
Spectrometer: HR4C6189
Trigger mode: 4
Integration Time (sec): 1.000000E-1
Scans to average: 1
Electric dark correction enabled: true
Nonlinearity correction enabled: false
Boxcar width: 0
XAxis mode: Wavelengths
Number of Pixels in Spectrum: 3648
>>>>>Begin Spectral Data<<<<<
639.567	-70.46
639.602	-70.46
639.636	-70.46
639.67	-55.46
639.704	-14.46
639.738	-1.46
639.773	11.54
639.807	-10.46
639.841	3.54
639.875	11.54
639.909	-2.46
639.943	-1.46
639.978	-14.46
640.012	-3.46
640.046	0.54
640.08	15.54
640.114	8.54
640.148	-17.46
640.182	-16.46
640.217	-6.46
640.251	21.54
640.285	16.54
640.319	-11.46
640.353	5.54
640.387	3.54
640.421	-6.46
640.455	-8.46
640.49	-4.46
640.524	4.54
640.558	1.54
640.592	-0.46
640.626	2.54
640.66	12.54
640.694	-8.46
640.728	5.54
640.762	-9.46
640.796	1.54
640.83	10.54
640.865	3.54
640.899	1.54
640.933	4.54
640.967	-8.46
641.001	2.54
641.035	-0.46
641.069	6.54
641.103	-9.46
641.137	-8.46
641.171	-8.46
641.205	-1.46
641.239	0.54
641.273	6.54
641.307	4.54
641.341	-3.46
641.375	-1.46
641.409	-1.46
641.443	7.54
641.477	5.54
641.511	2.54
641.545	7.54
641.579	-16.46
641.614	15.54
641.648	6.54
641.682	-0.46
641.716	0.54
641.75	-0.46
641.784	7.54
641.818	-8.46
641.852	8.54
641.886	-1.46
641.919	25.54
641.953	-6.46
641.987	-24.46
642.021	-11.46
642.055	-7.46
642.089	-26.46
642.123	-17.46
642.157	-12.46
642.191	-0.46
642.225	4.54
642.259	2.54
642.293	0.54
642.327	-12.46
642.361	-8.46
642.395	11.54
642.429	6.54
642.463	19.54
642.497	16.54
642.531	-1.46
642.565	-6.46
642.599	7.54
642.633	-5.46
642.666	17.54
642.7	6.54
642.734	20.54
642.768	10.54
642.802	0.54
642.836	-4.46
642.87	2.54
642.904	1.54
642.938	6.54
642.972	4.54
643.005	4.54
643.039	3.54
643.073	-7.46
643.107	1.54
643.141	0.54
643.175	0.54
643.209	1.54
643.243	11.54
643.276	1.54
643.31	8.54
643.344	-10.46
643.378	3.54
643.412	15.54
643.446	5.54
643.48	-7.46
643.513	-7.46
643.547	-7.46
643.581	-11.46
643.615	16.54
643.649	2.54
643.683	0.54
643.716	-10.46
643.75	1.54
643.784	-19.46
643.818	2.54
643.852	-8.46
643.886	0.54
643.919	18.54
643.953	9.54
643.987	-6.46
644.021	10.54
644.055	13.54
644.088	-2.46
644.122	-3.46
644.156	-5.46
644.19	12.54
644.224	4.54
644.257	-6.46
644.291	5.54
644.325	11.54
644.359	0.54
644.392	20.54
644.426	13.54
644.46	4.54
644.494	3.54
644.527	-19.46
644.561	4.54
644.595	-9.46
644.629	-3.46
644.662	-7.46
644.696	-3.46
644.73	-12.46
644.764	5.54
644.797	0.54
644.831	3.54
644.865	4.54
644.899	1.54
644.932	18.54
644.966	-16.46
645	4.54
645.033	19.54
645.067	-14.46
645.101	-0.46
645.135	-2.46
645.168	-8.46
645.202	-5.46
645.236	-7.46
645.269	10.54
645.303	-6.46
645.337	-23.46
645.37	-16.46
645.404	3.54
645.438	10.54
645.471	5.54
645.505	-6.46
645.539	-2.46
645.572	-6.46
645.606	-4.46
645.64	-7.46
645.673	-8.46
645.707	6.54
645.741	1.54
645.774	-22.46
645.808	-13.46
645.842	5.54
645.875	7.54
645.909	-6.46
645.943	-20.46
645.976	-0.46
646.01	14.54
646.043	12.54
646.077	11.54
646.111	1.54
646.144	15.54
646.178	19.54
646.212	-7.46
646.245	-3.46
646.279	0.54
646.312	4.54
646.346	2.54
646.38	8.54
646.413	7.54
646.447	-1.46
646.48	-2.46
646.514	12.54
646.547	-1.46
646.581	0.54
646.615	1.54
646.648	-1.46
646.682	4.54
646.715	11.54
646.749	11.54
646.782	-9.46
646.816	-4.46
646.85	4.54
646.883	-11.46
646.917	-14.46
646.95	-2.46
646.984	-5.46
647.017	-12.46
647.051	0.54
647.084	-2.46
647.118	-14.46
647.151	3.54
647.185	9.54
647.218	-26.46
647.252	6.54
647.285	4.54
647.319	-12.46
647.353	13.54
647.386	8.54
647.42	-12.46
647.453	6.54
647.487	2.54
647.52	13.54
647.553	-1.46
647.587	-17.46
647.62	0.54
647.654	6.54
647.687	16.54
647.721	6.54
647.754	3.54
647.788	7.54
647.821	-2.46
647.855	6.54
647.888	4.54
647.922	7.54
647.955	8.54
647.989	5.54
648.022	-0.46
648.055	2.54
648.089	-2.46
648.122	31.54
648.156	3.54
648.189	-3.46
648.223	5.54
648.256	8.54
648.29	16.54
648.323	-3.46
648.356	5.54
648.39	2.54
648.423	12.54
648.457	-4.46
648.49	-2.46
648.523	-2.46
648.557	-10.46
648.59	-9.46
648.624	1.54
648.657	8.54
648.69	7.54
648.724	13.54
648.757	0.54
648.791	6.54
648.824	-9.46
648.857	5.54
648.891	11.54
648.924	9.54
648.957	-0.46
648.991	-8.46
649.024	12.54
649.057	3.54
649.091	-11.46
649.124	12.54
649.158	8.54
649.191	30.54
649.224	2.54
649.258	13.54
649.291	3.54
649.324	17.54
649.358	-1.46
649.391	19.54
649.424	-7.46
649.458	-15.46
649.491	-8.46
649.524	-10.46
649.557	-11.46
649.591	-5.46
649.624	15.54
649.657	1.54
649.691	-4.46
649.724	13.54
649.757	3.54
649.791	5.54
649.824	13.54
649.857	-8.46
649.89	-8.46
649.924	-9.46
649.957	-3.46
649.99	-31.46
650.023	8.54
650.057	0.54
650.09	2.54
650.123	-10.46
650.157	5.54
650.19	20.54
650.223	-2.46
650.256	-10.46
650.29	-5.46
650.323	10.54
650.356	-4.46
650.389	-4.46
650.423	9.54
650.456	9.54
650.489	12.54
650.522	14.54
650.555	0.54
650.589	-2.46
650.622	-2.46
650.655	1.54
650.688	2.54
650.721	8.54
650.755	-3.46
650.788	10.54
650.821	-0.46
650.854	-1.46
650.887	3.54
650.921	15.54
650.954	-2.46
650.987	4.54
651.02	-19.46
651.053	-24.46
651.087	-2.46
651.12	22.54
651.153	-11.46
651.186	8.54
651.219	-15.46
651.252	7.54
651.286	10.54
651.319	-6.46
651.352	-3.46
651.385	-4.46
651.418	16.54
651.451	20.54
651.484	2.54
651.518	-0.46
651.551	27.54
651.584	9.54
651.617	9.54
651.65	-0.46
651.683	18.54
651.716	3.54
651.749	-12.46
651.783	-22.46
651.816	-1.46
651.849	-6.46
651.882	-14.46
651.915	-11.46
651.948	-6.46
651.981	18.54
652.014	-7.46
652.047	-13.46
652.08	-12.46
652.114	4.54
652.147	10.54
652.18	16.54
652.213	17.54
652.246	-3.46
652.279	-16.46
652.312	6.54
652.345	-10.46
652.378	1.54
652.411	6.54
652.444	-4.46
652.477	-10.46
652.51	4.54
652.543	-18.46
652.576	1.54
652.609	-13.46
652.642	-3.46
652.675	3.54
652.709	10.54
652.742	18.54
652.775	-1.46
652.808	-0.46
652.841	8.54
652.874	8.54
652.907	-7.46
652.94	0.54
652.973	-3.46
653.006	10.54
653.039	4.54
653.072	1.54
653.105	-2.46
653.138	-10.46
653.171	-8.46
653.204	1.54
653.237	6.54
653.27	-13.46
653.303	10.54
653.336	13.54
653.368	-11.46
653.401	20.54
653.434	-6.46
653.467	-0.46
653.5	-6.46
653.533	-10.46
653.566	13.54
653.599	1.54
653.632	2.54
653.665	-0.46
653.698	-6.46
653.731	-6.46
653.764	6.54
653.797	-3.46
653.83	4.54
653.863	2.54
653.896	6.54
653.929	14.54
653.961	22.54
653.994	-5.46
654.027	-11.46
654.06	6.54
654.093	1.54
654.126	8.54
654.159	2.54
654.192	10.54
654.225	7.54
654.258	-14.46
654.29	-12.46
654.323	3.54
654.356	-2.46
654.389	12.54
654.422	4.54
654.455	20.54
654.488	1.54
654.521	-28.46
654.553	-13.46
654.586	3.54
654.619	8.54
654.652	-0.46
654.685	-19.46
654.718	5.54
654.751	-1.46
654.783	-13.46
654.816	6.54
654.849	14.54
654.882	0.54
654.915	-12.46
654.948	3.54
654.98	3.54
655.013	-13.46
655.046	5.54
655.079	-1.46
655.112	5.54
655.144	-12.46
655.177	-2.46
655.21	4.54
655.243	12.54
655.276	8.54
655.308	6.54
655.341	-11.46
655.374	6.54
655.407	-8.46
655.44	-17.46
655.472	-8.46
655.505	8.54
655.538	-20.46
655.571	1.54
655.603	6.54
655.636	-3.46
655.669	11.54
655.702	20.54
655.734	-2.46
655.767	-4.46
655.8	0.54
655.833	0.54
655.865	7.54
655.898	0.54
655.931	-8.46
655.964	6.54
655.996	0.54
656.029	6.54
656.062	-11.46
656.095	-20.46
656.127	-0.46
656.16	6.54
656.193	-2.46
656.225	10.54
656.258	-5.46
656.291	-29.46
656.324	-6.46
656.356	0.54
656.389	-1.46
656.422	3.54
656.454	-2.46
656.487	-8.46
656.52	-10.46
656.552	-2.46
656.585	-8.46
656.618	6.54
656.65	25.54
656.683	0.54
656.716	-5.46
656.748	-6.46
656.781	-2.46
656.814	-1.46
656.846	-4.46
656.879	-11.46
656.912	4.54
656.944	-19.46
656.977	-10.46
657.01	-1.46
657.042	-4.46
657.075	10.54
657.108	3.54
657.14	5.54
657.173	2.54
657.205	15.54
657.238	-2.46
657.271	-4.46
657.303	0.54
657.336	-7.46
657.369	0.54
657.401	-1.46
657.434	9.54
657.466	3.54
657.499	-6.46
657.532	-8.46
657.564	7.54
657.597	3.54
657.629	2.54
657.662	-3.46
657.694	-7.46
657.727	-13.46
657.76	10.54
657.792	-1.46
657.825	1.54
657.857	-6.46
657.89	-2.46
657.922	14.54
657.955	-9.46
657.987	10.54
658.02	-1.46
658.053	17.54
658.085	10.54
658.118	-2.46
658.15	-5.46
658.183	14.54
658.215	1.54
658.248	-7.46
658.28	-4.46
658.313	13.54
658.345	3.54
658.378	-11.46
658.41	-10.46
658.443	8.54
658.475	11.54
658.508	-0.46
658.54	-1.46
658.573	-9.46
658.605	-4.46
658.638	4.54
658.67	8.54
658.703	4.54
658.735	-0.46
658.768	-4.46
658.8	-3.46
658.833	32.54
658.865	0.54
658.898	-1.46
658.93	-13.46
658.963	0.54
658.995	-18.46
659.028	4.54
659.06	-0.46
659.092	5.54
659.125	-16.46
659.157	-7.46
659.19	-10.46
659.222	-13.46
659.255	10.54
659.287	-0.46
659.32	-2.46
659.352	1.54
659.384	7.54
659.417	-3.46
659.449	8.54
659.482	3.54
659.514	-11.46
659.546	-4.46
659.579	12.54
659.611	9.54
659.644	-1.46
659.676	-19.46
659.708	-11.46
659.741	-12.46
659.773	-4.46
659.806	-12.46
659.838	13.54
659.87	-3.46
659.903	-7.46
659.935	15.54
659.967	3.54
660	8.54
660.032	-39.46
660.065	11.54
660.097	2.54
660.129	-6.46
660.162	-20.46
660.194	-0.46
660.226	5.54
660.259	9.54
660.291	4.54
660.323	10.54
660.356	1.54
660.388	-12.46
660.42	-0.46
660.453	0.54
660.485	9.54
660.517	7.54
660.55	12.54
660.582	5.54
660.614	1.54
660.647	-8.46
660.679	-14.46
660.711	-2.46
660.743	-5.46
660.776	-13.46
660.808	5.54
660.84	-7.46
660.873	-1.46
660.905	-12.46
660.937	-18.46
660.969	-3.46
661.002	-8.46
661.034	12.54
661.066	1.54
661.099	4.54
661.131	11.54
661.163	-0.46
661.195	-1.46
661.228	5.54
661.26	-9.46
661.292	-17.46
661.324	3.54
661.357	1.54
661.389	11.54
661.421	7.54
661.453	4.54
661.485	10.54
661.518	0.54
661.55	1.54
661.582	-14.46
661.614	1.54
661.647	5.54
661.679	3.54
661.711	8.54
661.743	-9.46
661.775	-0.46
661.808	13.54
661.84	-3.46
661.872	8.54
661.904	8.54
661.936	15.54
661.969	-14.46
662.001	-21.46
662.033	3.54
662.065	-5.46
662.097	8.54
662.129	-3.46
662.162	-12.46
662.194	6.54
662.226	3.54
662.258	4.54
662.29	9.54
662.322	-24.46
662.355	-27.46
662.387	18.54
662.419	4.54
662.451	0.54
662.483	5.54
662.515	-0.46
662.547	-2.46
662.58	-10.46
662.612	-4.46
662.644	-15.46
662.676	-1.46
662.708	27.54
662.74	0.54
662.772	3.54
662.804	-4.46
662.836	14.54
662.869	2.54
662.901	6.54
662.933	12.54
662.965	15.54
662.997	3.54
663.029	-11.46
663.061	-11.46
663.093	-15.46
663.125	11.54
663.157	5.54
663.189	-11.46
663.221	10.54
663.254	-0.46
663.286	12.54
663.318	3.54
663.35	-19.46
663.382	-2.46
663.414	0.54
663.446	6.54
663.478	0.54
663.51	28.54
663.542	1.54
663.574	-4.46
663.606	0.54
663.638	-7.46
663.67	-9.46
663.702	1.54
663.734	-14.46
663.766	-10.46
663.798	-13.46
663.83	-7.46
663.862	-5.46
663.894	17.54
663.926	-12.46
663.958	1.54
663.99	-0.46
664.022	-6.46
664.054	28.54
664.086	0.54
664.118	1.54
664.15	-23.46
664.182	16.54
664.214	5.54
664.246	-1.46
664.278	-8.46
664.31	-4.46
664.342	-1.46
664.374	3.54
664.406	-5.46
664.438	-11.46
664.47	0.54
664.502	-2.46
664.534	6.54
664.566	0.54
664.598	1.54
664.63	2.54
664.662	-10.46
664.693	-0.46
664.725	-11.46
664.757	-8.46
664.789	-6.46
664.821	15.54
664.853	15.54
664.885	-13.46
664.917	-9.46
664.949	7.54
664.981	9.54
665.013	4.54
665.045	-18.46
665.076	3.54
665.108	-11.46
665.14	0.54
665.172	-7.46
665.204	-17.46
665.236	-3.46
665.268	21.54
665.3	-6.46
665.331	-2.46
665.363	0.54
665.395	2.54
665.427	-10.46
665.459	-9.46
665.491	-2.46
665.523	4.54
665.555	-2.46
665.586	-2.46
665.618	-5.46
665.65	-23.46
665.682	12.54
665.714	7.54
665.746	-20.46
665.777	-6.46
665.809	-13.46
665.841	0.54
665.873	-0.46
665.905	4.54
665.937	-3.46
665.968	4.54
666	10.54
666.032	-0.46
666.064	9.54
666.096	-3.46
666.127	13.54
666.159	11.54
666.191	16.54
666.223	1.54
666.255	13.54
666.286	-6.46
666.318	-20.46
666.35	18.54
666.382	-0.46
666.413	5.54
666.445	-1.46
666.477	-13.46
666.509	-1.46
666.54	-1.46
666.572	-8.46
666.604	-10.46
666.636	4.54
666.667	22.54
666.699	10.54
666.731	12.54
666.763	2.54
666.794	-0.46
666.826	10.54
666.858	-20.46
666.89	4.54
666.921	3.54
666.953	-15.46
666.985	-4.46
667.017	0.54
667.048	-7.46
667.08	-6.46
667.112	-4.46
667.143	-12.46
667.175	11.54
667.207	7.54
667.238	5.54
667.27	-3.46
667.302	-2.46
667.334	-1.46
667.365	3.54
667.397	6.54
667.429	-0.46
667.46	8.54
667.492	-0.46
667.524	-17.46
667.555	-20.46
667.587	-7.46
667.619	-12.46
667.65	-26.46
667.682	10.54
667.714	8.54
667.745	11.54
667.777	13.54
667.808	2.54
667.84	0.54
667.872	3.54
667.903	17.54
667.935	10.54
667.967	8.54
667.998	6.54
668.03	7.54
668.061	2.54
668.093	0.54
668.125	1.54
668.156	10.54
668.188	3.54
668.22	-13.46
668.251	11.54
668.283	4.54
668.314	24.54
668.346	-2.46
668.377	22.54
668.409	2.54
668.441	23.54
668.472	-1.46
668.504	12.54
668.535	-11.46
668.567	1.54
668.599	-2.46
668.63	-7.46
668.662	1.54
668.693	16.54
668.725	22.54
668.756	3.54
668.788	1.54
668.819	-9.46
668.851	-1.46
668.882	3.54
668.914	-9.46
668.946	-1.46
668.977	-12.46
669.009	5.54
669.04	-10.46
669.072	-1.46
669.103	4.54
669.135	-14.46
669.166	-11.46
669.198	0.54
669.229	6.54
669.261	0.54
669.292	-1.46
669.324	-0.46
669.355	-4.46
669.387	-7.46
669.418	4.54
669.45	-16.46
669.481	4.54
669.513	-1.46
669.544	4.54
669.576	-9.46
669.607	18.54
669.639	31.54
669.67	-3.46
669.701	-3.46
669.733	-11.46
669.764	1.54
669.796	18.54
669.827	-10.46
669.859	-7.46
669.89	-1.46
669.922	7.54
669.953	-1.46
669.985	-0.46
670.016	7.54
670.047	11.54
670.079	-11.46
670.11	-10.46
670.142	3.54
670.173	13.54
670.204	-11.46
670.236	10.54
670.267	10.54
670.299	5.54
670.33	-8.46
670.362	-0.46
670.393	-8.46
670.424	-12.46
670.456	-14.46
670.487	-8.46
670.518	-0.46
670.55	4.54
670.581	-1.46
670.613	4.54
670.644	-6.46
670.675	-9.46
670.707	6.54
670.738	-15.46
670.769	-26.46
670.801	-7.46
670.832	-0.46
670.864	4.54
670.895	17.54
670.926	4.54
670.958	11.54
670.989	-1.46
671.02	-6.46
671.052	-0.46
671.083	5.54
671.114	-13.46
671.146	22.54
671.177	6.54
671.208	-7.46
671.24	-5.46
671.271	3.54
671.302	-0.46
671.333	0.54
671.365	17.54
671.396	-10.46
671.427	-4.46
671.459	-12.46
671.49	7.54
671.521	5.54
671.553	-8.46
671.584	4.54
671.615	-16.46
671.646	-5.46
671.678	2.54
671.709	0.54
671.74	-15.46
671.771	1.54
671.803	17.54
671.834	10.54
671.865	-0.46
671.896	-1.46
671.928	14.54
671.959	-4.46
671.99	-1.46
672.021	-1.46
672.053	12.54
672.084	26.54
672.115	8.54
672.146	-6.46
672.178	4.54
672.209	-5.46
672.24	-0.46
672.271	36.54
672.303	7.54
672.334	0.54
672.365	-4.46
672.396	-4.46
672.427	11.54
672.459	8.54
672.49	18.54
672.521	4.54
672.552	19.54
672.583	2.54
672.615	10.54
672.646	15.54
672.677	-5.46
672.708	-15.46
672.739	1.54
672.77	16.54
672.802	3.54
672.833	-2.46
672.864	-9.46
672.895	10.54
672.926	-12.46
672.957	-10.46
672.989	2.54
673.02	-11.46
673.051	4.54
673.082	2.54
673.113	2.54
673.144	5.54
673.175	15.54
673.206	-1.46
673.238	10.54
673.269	1.54
673.3	-17.46
673.331	7.54
673.362	-3.46
673.393	2.54
673.424	-0.46
673.455	32.54
673.487	3.54
673.518	4.54
673.549	12.54
673.58	12.54
673.611	-3.46
673.642	-11.46
673.673	-28.46
673.704	3.54
673.735	-6.46
673.766	-14.46
673.797	-12.46
673.828	-5.46
673.86	-12.46
673.891	-6.46
673.922	-14.46
673.953	-4.46
673.984	10.54
674.015	16.54
674.046	27.54
674.077	0.54
674.108	-0.46
674.139	-14.46
674.17	2.54
674.201	-0.46
674.232	-2.46
674.263	-7.46
674.294	-9.46
674.325	-13.46
674.356	8.54
674.387	4.54
674.418	-5.46
674.449	-3.46
674.48	-14.46
674.511	0.54
674.542	1.54
674.573	-18.46
674.604	0.54
674.635	-3.46
674.666	9.54
674.697	15.54
674.728	-1.46
674.759	-7.46
674.79	-2.46
674.821	2.54
674.852	14.54
674.883	-3.46
674.914	-3.46
674.945	7.54
674.976	-3.46
675.007	-14.46
675.038	-11.46
675.069	-11.46
675.1	-17.46
675.131	1.54
675.162	-9.46
675.193	-10.46
675.224	-10.46
675.254	-1.46
675.285	-1.46
675.316	8.54
675.347	12.54
675.378	-2.46
675.409	-5.46
675.44	-11.46
675.471	6.54
675.502	-12.46
675.533	-3.46
675.564	-1.46
675.595	5.54
675.625	20.54
675.656	23.54
675.687	6.54
675.718	-15.46
675.749	4.54
675.78	2.54
675.811	-11.46
675.842	20.54
675.873	-6.46
675.903	-13.46
675.934	14.54
675.965	-5.46
675.996	-7.46
676.027	7.54
676.058	-3.46
676.089	-12.46
676.119	-12.46
676.15	-6.46
676.181	2.54
676.212	1.54
676.243	9.54
676.274	-6.46
676.304	12.54
676.335	-10.46
676.366	1.54
676.397	6.54
676.428	10.54
676.459	7.54
676.489	17.54
676.52	20.54
676.551	9.54
676.582	-11.46
676.613	-11.46
676.643	-11.46
676.674	-0.46
676.705	-1.46
676.736	4.54
676.767	13.54
676.797	9.54
676.828	-1.46
676.859	4.54
676.89	-8.46
676.92	-2.46
676.951	-0.46
676.982	-14.46
677.013	-14.46
677.044	11.54
677.074	19.54
677.105	-26.46
677.136	-14.46
677.167	-11.46
677.197	10.54
677.228	-7.46
677.259	11.54
677.289	-3.46
677.32	-18.46
677.351	-3.46
677.382	-5.46
677.412	-4.46
677.443	9.54
677.474	7.54
677.505	-8.46
677.535	-0.46
677.566	0.54
677.597	-15.46
677.627	-24.46
677.658	-7.46
677.689	-5.46
677.72	0.54
677.75	-6.46
677.781	-15.46
677.812	5.54
677.842	-10.46
677.873	-15.46
677.904	-4.46
677.934	0.54
677.965	-16.46
677.996	-21.46
678.026	12.54
678.057	0.54
678.088	-11.46
678.118	-14.46
678.149	-29.46
678.18	-1.46
678.21	13.54
678.241	2.54
678.272	-7.46
678.302	-3.46
678.333	4.54
678.363	-7.46
678.394	-6.46
678.425	-14.46
678.455	2.54
678.486	16.54
678.517	7.54
678.547	6.54
678.578	-1.46
678.608	-8.46
678.639	-0.46
678.67	0.54
678.7	-4.46
678.731	5.54
678.761	11.54
678.792	11.54
678.823	0.54
678.853	-1.46
678.884	8.54
678.914	-5.46
678.945	-4.46
678.975	-15.46
679.006	19.54
679.037	-11.46
679.067	12.54
679.098	0.54
679.128	-6.46
679.159	-1.46
679.189	-0.46
679.22	-13.46
679.25	-2.46
679.281	5.54
679.312	-0.46
679.342	11.54
679.373	31.54
679.403	-0.46
679.434	4.54
679.464	-2.46
679.495	0.54
679.525	-4.46
679.556	-12.46
679.586	4.54
679.617	-7.46
679.647	-2.46
679.678	3.54
679.708	-1.46
679.739	16.54
679.769	5.54
679.8	-12.46
679.83	-6.46
679.861	4.54
679.891	4.54
679.922	-4.46
679.952	-7.46
679.983	0.54
680.013	8.54
680.044	-5.46
680.074	-14.46
680.105	3.54
680.135	13.54
680.165	15.54
680.196	9.54
680.226	1.54
680.257	2.54
680.287	4.54
680.318	7.54
680.348	7.54
680.379	-5.46
680.409	1.54
680.439	-7.46
680.47	-8.46
680.5	-9.46
680.531	9.54
680.561	9.54
680.592	3.54
680.622	13.54
680.652	7.54
680.683	12.54
680.713	3.54
680.744	-10.46
680.774	-7.46
680.804	9.54
680.835	-0.46
680.865	-7.46
680.896	20.54
680.926	9.54
680.956	3.54
680.987	4.54
681.017	2.54
681.047	-1.46
681.078	-2.46
681.108	2.54
681.139	-2.46
681.169	15.54
681.199	10.54
681.23	9.54
681.26	-0.46
681.29	-4.46
681.321	-20.46
681.351	7.54
681.381	-16.46
681.412	-2.46
681.442	15.54
681.472	19.54
681.503	7.54
681.533	-4.46
681.563	-8.46
681.594	0.54
681.624	-2.46
681.654	-5.46
681.685	4.54
681.715	-8.46
681.745	4.54
681.775	-13.46
681.806	6.54
681.836	15.54
681.866	-5.46
681.897	0.54
681.927	7.54
681.957	-24.46
681.987	11.54
682.018	-11.46
682.048	1.54
682.078	7.54
682.109	12.54
682.139	12.54
682.169	6.54
682.199	3.54
682.23	-1.46
682.26	-6.46
682.29	-3.46
682.32	11.54
682.351	6.54
682.381	6.54
682.411	-0.46
682.441	-15.46
682.472	-29.46
682.502	-6.46
682.532	2.54
682.562	18.54
682.592	6.54
682.623	7.54
682.653	-3.46
682.683	3.54
682.713	7.54
682.743	-2.46
682.774	0.54
682.804	5.54
682.834	10.54
682.864	-9.46
682.894	-3.46
682.925	-10.46
682.955	4.54
682.985	0.54
683.015	7.54
683.045	13.54
683.076	0.54
683.106	-1.46
683.136	-9.46
683.166	-10.46
683.196	-2.46
683.226	-2.46
683.257	-7.46
683.287	5.54
683.317	-12.46
683.347	-4.46
683.377	-7.46
683.407	0.54
683.437	-8.46
683.468	7.54
683.498	1.54
683.528	-14.46
683.558	-1.46
683.588	-11.46
683.618	-8.46
683.648	-6.46
683.678	3.54
683.708	5.54
683.739	4.54
683.769	-1.46
683.799	1.54
683.829	-2.46
683.859	16.54
683.889	14.54
683.919	0.54
683.949	-2.46
683.979	-15.46
684.009	-15.46
684.039	-6.46
684.07	-4.46
684.1	34.54
684.13	7.54
684.16	10.54
684.19	3.54
684.22	-11.46
684.25	3.54
684.28	-5.46
684.31	24.54
684.34	12.54
684.37	6.54
684.4	-4.46
684.43	20.54
684.46	4.54
684.49	-6.46
684.52	-0.46
684.55	8.54
684.58	-4.46
684.61	-0.46
684.64	18.54
684.67	9.54
684.7	9.54
684.73	7.54
684.76	4.54
684.79	12.54
684.82	-0.46
684.85	-1.46
684.88	14.54
684.91	-1.46
684.94	-10.46
684.97	-1.46
685	13.54
685.03	-11.46
685.06	-3.46
685.09	-6.46
685.12	14.54
685.15	-4.46
685.18	-2.46
685.21	5.54
685.24	6.54
685.27	9.54
685.3	2.54
685.33	20.54
685.36	-16.46
685.39	2.54
685.42	-22.46
685.45	-7.46
685.48	-9.46
685.51	3.54
685.54	-1.46
685.569	-0.46
685.599	0.54
685.629	9.54
685.659	0.54
685.689	-14.46
685.719	-10.46
685.749	-3.46
685.779	18.54
685.809	6.54
685.839	5.54
685.869	11.54
685.898	11.54
685.928	-7.46
685.958	-6.46
685.988	7.54
686.018	-10.46
686.048	4.54
686.078	6.54
686.108	16.54
686.137	0.54
686.167	4.54
686.197	-14.46
686.227	-6.46
686.257	27.54
686.287	12.54
686.317	12.54
686.346	3.54
686.376	-29.46
686.406	-9.46
686.436	12.54
686.466	8.54
686.496	3.54
686.525	8.54
686.555	-3.46
686.585	15.54
686.615	13.54
686.645	15.54
686.675	27.54
686.704	15.54
686.734	9.54
686.764	8.54
686.794	-3.46
686.824	6.54
686.853	7.54
686.883	10.54
686.913	28.54
686.943	13.54
686.973	-11.46
687.002	10.54
687.032	5.54
687.062	8.54
687.092	18.54
687.121	0.54
687.151	9.54
687.181	-8.46
687.211	5.54
687.24	8.54
687.27	-4.46
687.3	-14.46
687.33	1.54
687.359	-9.46
687.389	-10.46
687.419	-10.46
687.449	-6.46
687.478	-6.46
687.508	-10.46
687.538	3.54
687.568	12.54
687.597	-17.46
687.627	4.54
687.657	-0.46
687.686	7.54
687.716	15.54
687.746	-9.46
687.776	-0.46
687.805	4.54
687.835	1.54
687.865	16.54
687.894	13.54
687.924	0.54
687.954	13.54
687.983	11.54
688.013	-1.46
688.043	0.54
688.072	-8.46
688.102	-4.46
688.132	-7.46
688.161	9.54
688.191	-10.46
688.221	9.54
688.25	-14.46
688.28	17.54
688.31	-3.46
688.339	-6.46
688.369	-14.46
688.399	-17.46
688.428	-11.46
688.458	21.54
688.488	8.54
688.517	1.54
688.547	19.54
688.576	29.54
688.606	7.54
688.636	-4.46
688.665	11.54
688.695	-0.46
688.725	-3.46
688.754	1.54
688.784	5.54
688.813	16.54
688.843	4.54
688.873	-7.46
688.902	-15.46
688.932	-2.46
688.961	-2.46
688.991	13.54
689.02	14.54
689.05	4.54
689.08	3.54
689.109	10.54
689.139	8.54
689.168	17.54
689.198	-4.46
689.227	7.54
689.257	4.54
689.287	9.54
689.316	-1.46
689.346	-14.46
689.375	-3.46
689.405	1.54
689.434	0.54
689.464	25.54
689.493	-4.46
689.523	-3.46
689.552	-11.46
689.582	3.54
689.611	-0.46
689.641	7.54
689.67	-9.46
689.7	5.54
689.73	2.54
689.759	7.54
689.789	23.54
689.818	-1.46
689.848	-3.46
689.877	6.54
689.906	-9.46
689.936	-12.46
689.965	10.54
689.995	15.54
690.024	21.54
690.054	3.54
690.083	5.54
690.113	-2.46
690.142	1.54
690.172	4.54
690.201	-4.46
690.231	0.54
690.26	9.54
690.29	6.54
690.319	13.54
690.348	-1.46
690.378	-10.46
690.407	8.54
690.437	-3.46
690.466	1.54
690.496	0.54
690.525	7.54
690.555	-8.46
690.584	-17.46
690.613	-1.46
690.643	13.54
690.672	12.54
690.702	12.54
690.731	2.54
690.76	14.54
690.79	53.54
690.819	36.54
690.849	39.54
690.878	29.54
690.907	25.54
690.937	21.54
690.966	4.54
690.996	5.54
691.025	8.54
691.054	12.54
691.084	9.54
691.113	-7.46
691.142	10.54
691.172	10.54
691.201	7.54
691.23	-2.46
691.26	17.54
691.289	9.54
691.319	-11.46
691.348	-6.46
691.377	31.54
691.407	17.54
691.436	18.54
691.465	5.54
691.495	-7.46
691.524	-18.46
691.553	-13.46
691.583	-4.46
691.612	16.54
691.641	1.54
691.67	8.54
691.7	11.54
691.729	-10.46
691.758	-3.46
691.788	4.54
691.817	-3.46
691.846	-8.46
691.876	-2.46
691.905	-9.46
691.934	-9.46
691.963	11.54
691.993	-1.46
692.022	-3.46
692.051	-12.46
692.081	18.54
692.11	26.54
692.139	5.54
692.168	7.54
692.198	15.54
692.227	7.54
692.256	1.54
692.285	-6.46
692.315	-4.46
692.344	6.54
692.373	-2.46
692.402	-20.46
692.432	-8.46
692.461	-0.46
692.49	-1.46
692.519	1.54
692.548	17.54
692.578	22.54
692.607	3.54
692.636	-8.46
692.665	1.54
692.694	-1.46
692.724	-5.46
692.753	15.54
692.782	8.54
692.811	-9.46
692.84	4.54
692.87	2.54
692.899	1.54
692.928	3.54
692.957	5.54
692.986	-0.46
693.016	9.54
693.045	-4.46
693.074	-3.46
693.103	11.54
693.132	11.54
693.161	15.54
693.191	-2.46
693.22	-4.46
693.249	8.54
693.278	3.54
693.307	12.54
693.336	-10.46
693.365	-6.46
693.395	-2.46
693.424	0.54
693.453	17.54
693.482	4.54
693.511	6.54
693.54	5.54
693.569	12.54
693.598	13.54
693.628	2.54
693.657	5.54
693.686	3.54
693.715	15.54
693.744	7.54
693.773	15.54
693.802	9.54
693.831	5.54
693.86	19.54
693.889	-7.46
693.919	18.54
693.948	13.54
693.977	9.54
694.006	0.54
694.035	-5.46
694.064	-11.46
694.093	-7.46
694.122	2.54
694.151	1.54
694.18	19.54
694.209	19.54
694.238	4.54
694.267	13.54
694.296	12.54
694.325	0.54
694.354	8.54
694.383	3.54
694.412	3.54
694.441	-4.46
694.471	17.54
694.5	-13.46
694.529	4.54
694.558	24.54
694.587	2.54
694.616	-1.46
694.645	10.54
694.674	12.54
694.703	13.54
694.732	4.54
694.761	6.54
694.79	17.54
694.819	-11.46
694.848	-2.46
694.877	29.54
694.906	34.54
694.935	4.54
694.963	9.54
694.992	6.54
695.021	-8.46
695.05	6.54
695.079	9.54
695.108	3.54
695.137	18.54
695.166	2.54
695.195	-4.46
695.224	7.54
695.253	4.54
695.282	11.54
695.311	4.54
695.34	-3.46
695.369	6.54
695.398	-1.46
695.427	14.54
695.456	-7.46
695.485	13.54
695.513	2.54
695.542	7.54
695.571	-5.46
695.6	11.54
695.629	-1.46
695.658	19.54
695.687	14.54
695.716	0.54
695.745	22.54
695.774	4.54
695.802	-0.46
695.831	8.54
695.86	5.54
695.889	28.54
695.918	10.54
695.947	-0.46
695.976	10.54
696.005	10.54
696.033	12.54
696.062	30.54
696.091	6.54
696.12	5.54
696.149	22.54
696.178	18.54
696.207	8.54
696.235	-21.46
696.264	-5.46
696.293	-1.46
696.322	7.54
696.351	12.54
696.38	-8.46
696.408	5.54
696.437	11.54
696.466	8.54
696.495	2.54
696.524	16.54
696.553	13.54
696.581	8.54
696.61	3.54
696.639	-10.46
696.668	0.54
696.697	3.54
696.725	21.54
696.754	5.54
696.783	-6.46
696.812	-3.46
696.84	10.54
696.869	14.54
696.898	1.54
696.927	-3.46
696.956	7.54
696.984	-14.46
697.013	1.54
697.042	15.54
697.071	20.54
697.099	9.54
697.128	16.54
697.157	14.54
697.186	3.54
697.214	2.54
697.243	-15.46
697.272	-2.46
697.301	7.54
697.329	-5.46
697.358	21.54
697.387	30.54
697.415	24.54
697.444	1.54
697.473	9.54
697.502	-0.46
697.53	9.54
697.559	6.54
697.588	-3.46
697.616	-8.46
697.645	-0.46
697.674	26.54
697.703	4.54
697.731	6.54
697.76	3.54
697.789	14.54
697.817	8.54
697.846	4.54
697.875	12.54
697.903	15.54
697.932	1.54
697.961	1.54
697.989	2.54
698.018	-4.46
698.047	2.54
698.075	18.54
698.104	14.54
698.133	5.54
698.161	6.54
698.19	-1.46
698.218	-9.46
698.247	17.54
698.276	0.54
698.304	12.54
698.333	23.54
698.362	13.54
698.39	-2.46
698.419	7.54
698.447	-3.46
698.476	-13.46
698.505	9.54
698.533	2.54
698.562	4.54
698.591	5.54
698.619	0.54
698.648	5.54
698.676	-0.46
698.705	-9.46
698.733	3.54
698.762	21.54
698.791	3.54
698.819	2.54
698.848	-2.46
698.876	0.54
698.905	3.54
698.933	12.54
698.962	5.54
698.991	-7.46
699.019	15.54
699.048	3.54
699.076	1.54
699.105	-14.46
699.133	8.54
699.162	12.54
699.19	24.54
699.219	-0.46
699.248	-2.46
699.276	-4.46
699.305	-15.46
699.333	7.54
699.362	5.54
699.39	13.54
699.419	0.54
699.447	4.54
699.476	13.54
699.504	-1.46
699.533	21.54
699.561	-16.46
699.59	-7.46
699.618	0.54
699.647	1.54
699.675	1.54
699.704	8.54
699.732	-5.46
699.761	7.54
699.789	-4.46
699.818	21.54
699.846	11.54
699.874	0.54
699.903	2.54
699.931	-3.46
699.96	12.54
699.988	-0.46
700.017	-6.46
700.045	11.54
700.074	-7.46
700.102	-3.46
700.13	-8.46
700.159	12.54
700.187	11.54
700.216	-2.46
700.244	-6.46
700.273	2.54
700.301	-16.46
700.329	4.54
700.358	16.54
700.386	-11.46
700.415	-1.46
700.443	-1.46
700.472	1.54
700.5	-1.46
700.528	13.54
700.557	11.54
700.585	3.54
700.614	0.54
700.642	-1.46
700.67	1.54
700.699	22.54
700.727	-6.46
700.755	-7.46
700.784	-12.46
700.812	6.54
700.841	-4.46
700.869	4.54
700.897	-7.46
700.926	0.54
700.954	4.54
700.982	13.54
701.011	-10.46
701.039	10.54
701.067	-2.46
701.096	-6.46
701.124	-4.46
701.152	-1.46
701.181	19.54
701.209	-9.46
701.237	15.54
701.266	-6.46
701.294	-1.46
701.322	-2.46
701.351	15.54
701.379	-0.46
701.407	-0.46
701.435	-8.46
701.464	19.54
701.492	26.54
701.52	-10.46
701.549	10.54
701.577	-11.46
701.605	-5.46
701.634	1.54
701.662	17.54
701.69	-14.46
701.718	-0.46
701.747	5.54
701.775	-4.46
701.803	1.54
701.831	23.54
701.86	5.54
701.888	9.54
701.916	-0.46
701.944	-9.46
701.973	5.54
702.001	-20.46
702.029	-8.46
702.057	-8.46
702.086	-11.46
702.114	-16.46
702.142	7.54
702.17	3.54
702.199	-7.46
702.227	7.54
702.255	-9.46
702.283	-14.46
702.311	16.54
702.34	-4.46
702.368	-5.46
702.396	5.54
702.424	4.54
702.452	-6.46
702.481	-5.46
702.509	-3.46
702.537	4.54
702.565	14.54
702.593	-7.46
702.621	1.54
702.65	15.54
702.678	9.54
702.706	3.54
702.734	-9.46
702.762	7.54
702.79	-0.46
702.819	1.54
702.847	6.54
702.875	9.54
702.903	28.54
702.931	8.54
702.959	6.54
702.988	7.54
703.016	4.54
703.044	4.54
703.072	-0.46
703.1	1.54
703.128	-9.46
703.156	0.54
703.184	0.54
703.212	17.54
703.241	2.54
703.269	10.54
703.297	2.54
703.325	7.54
703.353	3.54
703.381	-12.46
703.409	-9.46
703.437	-7.46
703.465	-7.46
703.493	-3.46
703.522	-1.46
703.55	4.54
703.578	26.54
703.606	6.54
703.634	-8.46
703.662	-3.46
703.69	-11.46
703.718	4.54
703.746	19.54
703.774	1.54
703.802	15.54
703.83	-8.46
703.858	-1.46
703.886	-4.46
703.914	0.54
703.942	24.54
703.97	-7.46
703.998	-4.46
704.027	14.54
704.055	0.54
704.083	-1.46
704.111	-1.46
704.139	-2.46
704.167	-7.46
704.195	-10.46
704.223	-8.46
704.251	-1.46
704.279	13.54
704.307	-7.46
704.335	-9.46
704.363	9.54
704.391	3.54
704.419	3.54
704.447	-7.46
704.475	7.54
704.503	-16.46
704.531	-3.46
704.558	7.54
704.586	5.54
704.614	3.54
704.642	-4.46
704.67	-14.46
704.698	3.54
704.726	8.54
704.754	-7.46
704.782	-0.46
704.81	-7.46
704.838	6.54
704.866	4.54
704.894	-4.46
704.922	1.54
704.95	13.54
704.978	11.54
705.006	3.54
705.034	8.54
705.061	0.54
705.089	3.54
705.117	-0.46
705.145	-4.46
705.173	-4.46
705.201	6.54
705.229	15.54
705.257	-1.46
705.285	8.54
705.313	3.54
705.34	-0.46
705.368	-4.46
705.396	0.54
705.424	8.54
705.452	4.54
705.48	-8.46
705.508	-10.46
705.536	2.54
705.563	1.54
705.591	3.54
705.619	1.54
705.647	-2.46
705.675	-4.46
705.703	14.54
705.731	-2.46
705.758	1.54
705.786	-6.46
705.814	8.54
705.842	3.54
705.87	12.54
705.898	5.54
705.925	-8.46
705.953	-4.46
705.981	-12.46
706.009	9.54
706.037	-10.46
706.065	-3.46
706.092	1.54
706.12	-4.46
706.148	1.54
706.176	5.54
706.204	15.54
706.231	4.54
706.259	0.54
706.287	11.54
706.315	6.54
706.342	-22.46
706.37	4.54
706.398	1.54
706.426	-9.46
706.454	7.54
706.481	-0.46
706.509	0.54
706.537	-5.46
706.565	3.54
706.592	-3.46
706.62	-20.46
706.648	13.54
706.676	-12.46
706.703	11.54
706.731	1.54
706.759	-19.46
706.787	9.54
706.814	-0.46
706.842	-0.46
706.87	-11.46
706.897	6.54
706.925	0.54
706.953	5.54
706.981	6.54
707.008	28.54
707.036	9.54
707.064	-8.46
707.091	-19.46
707.119	4.54
707.147	-3.46
707.174	-3.46
707.202	4.54
707.23	-15.46
707.258	-3.46
707.285	-16.46
707.313	-3.46
707.341	-8.46
707.368	-12.46
707.396	-9.46
707.424	6.54
707.451	5.54
707.479	4.54
707.507	3.54
707.534	-16.46
707.562	-3.46
707.59	-4.46
707.617	-6.46
707.645	-4.46
707.672	3.54
707.7	7.54
707.728	15.54
707.755	14.54
707.783	-1.46
707.811	14.54
707.838	-8.46
707.866	-3.46
707.893	1.54
707.921	-0.46
707.949	-15.46
707.976	2.54
708.004	10.54
708.031	15.54
708.059	-2.46
708.087	-1.46
708.114	0.54
708.142	-11.46
708.169	-3.46
708.197	-2.46
708.225	11.54
708.252	4.54
708.28	17.54
708.307	2.54
708.335	-11.46
708.362	1.54
708.39	4.54
708.418	-13.46
708.445	-10.46
708.473	-11.46
708.5	-4.46
708.528	15.54
708.555	-1.46
708.583	-6.46
708.61	-7.46
708.638	-10.46
708.665	-19.46
708.693	-8.46
708.72	-2.46
708.748	-6.46
708.776	16.54
708.803	13.54
708.831	6.54
708.858	9.54
708.886	8.54
708.913	-0.46
708.941	3.54
708.968	8.54
708.996	-8.46
709.023	20.54
709.051	-15.46
709.078	-14.46
709.105	-18.46
709.133	-0.46
709.16	-2.46
709.188	2.54
709.215	5.54
709.243	16.54
709.27	-7.46
709.298	-4.46
709.325	-1.46
709.353	0.54
709.38	8.54
709.408	3.54
709.435	9.54
709.462	6.54
709.49	12.54
709.517	1.54
709.545	3.54
709.572	-8.46
709.6	10.54
709.627	8.54
709.655	2.54
709.682	-8.46
709.709	-10.46
709.737	-9.46
709.764	-0.46
709.792	3.54
709.819	-1.46
709.846	-16.46
709.874	-0.46
709.901	9.54
709.929	34.54
709.956	6.54
709.983	-0.46
710.011	-9.46
710.038	-25.46
710.066	5.54
710.093	27.54
710.12	4.54
710.148	-3.46
710.175	-5.46
710.202	-13.46
710.23	5.54
710.257	-6.46
710.284	10.54
710.312	9.54
710.339	10.54
710.366	15.54
710.394	0.54
710.421	4.54
710.448	-1.46
710.476	-12.46
710.503	10.54
710.53	7.54
710.558	-2.46
710.585	6.54
710.612	-0.46
710.64	-6.46
710.667	-2.46
710.694	3.54
710.722	-7.46
710.749	-5.46
710.776	9.54
710.804	18.54
710.831	-4.46
710.858	5.54
710.885	4.54
710.913	-0.46
710.94	23.54
710.967	-3.46
710.995	-12.46
711.022	6.54
711.049	4.54
711.076	14.54
711.104	12.54
711.131	-20.46
711.158	-7.46
711.185	7.54
711.213	-17.46
711.24	-3.46
711.267	-7.46
711.294	3.54
711.322	18.54
711.349	-11.46
711.376	-4.46
711.403	-12.46
711.431	-26.46
711.458	7.54
711.485	5.54
711.512	-2.46
711.54	2.54
711.567	5.54
711.594	-2.46
711.621	-6.46
711.648	-0.46
711.676	2.54
711.703	15.54
711.73	-10.46
711.757	0.54
711.784	6.54
711.812	18.54
711.839	17.54
711.866	-0.46
711.893	-4.46
711.92	1.54
711.947	-0.46
711.975	4.54
712.002	9.54
712.029	10.54
712.056	6.54
712.083	20.54
712.11	-13.46
712.138	0.54
712.165	7.54
712.192	-7.46
712.219	-4.46
712.246	2.54
712.273	-10.46
712.3	-5.46
712.328	-6.46
712.355	15.54
712.382	-14.46
712.409	-3.46
712.436	-13.46
712.463	12.54
712.49	9.54
712.517	-6.46
712.544	-1.46
712.572	-4.46
712.599	-6.46
712.626	1.54
712.653	1.54
712.68	-7.46
712.707	17.54
712.734	10.54
712.761	-0.46
712.788	-12.46
712.815	-9.46
712.842	12.54
712.87	5.54
712.897	-8.46
712.924	1.54
712.951	9.54
712.978	30.54
713.005	14.54
713.032	15.54
713.059	-3.46
713.086	1.54
713.113	11.54
713.14	-8.46
713.167	4.54
713.194	10.54
713.221	-1.46
713.248	-2.46
713.275	-12.46
713.302	-6.46
713.329	-6.46
713.356	1.54
713.383	-10.46
713.41	-4.46
713.437	-13.46
713.464	6.54
713.491	9.54
713.518	4.54
713.545	3.54
713.572	12.54
713.599	17.54
713.626	0.54
713.653	17.54
713.68	-9.46
713.707	2.54
713.734	8.54
713.761	-2.46
713.788	-6.46
713.815	-2.46
713.842	1.54
713.869	-18.46
713.896	1.54
713.923	4.54
713.95	7.54
713.977	-1.46
714.004	5.54
714.031	-12.46
714.058	-8.46
714.085	-6.46
714.112	28.54
714.139	-15.46
714.165	-10.46
714.192	-9.46
714.219	3.54
714.246	4.54
714.273	0.54
714.3	-8.46
714.327	-4.46
714.354	3.54
714.381	-10.46
714.408	-2.46
714.435	7.54
714.461	-0.46
714.488	-5.46
714.515	3.54
714.542	-14.46
714.569	-8.46
714.596	-25.46
714.623	-8.46
714.65	-19.46
714.677	-21.46
714.703	-12.46
714.73	0.54
714.757	6.54
714.784	4.54
714.811	-6.46
714.838	5.54
714.865	-8.46
714.891	21.54
714.918	5.54
714.945	-8.46
714.972	-7.46
714.999	18.54
715.026	-6.46
715.052	17.54
715.079	-10.46
715.106	4.54
715.133	9.54
715.16	-6.46
715.187	8.54
715.213	15.54
715.24	-0.46
715.267	7.54
715.294	9.54
715.321	-8.46
715.347	-5.46
715.374	-14.46
715.401	-6.46
715.428	-1.46
715.455	1.54
715.481	2.54
715.508	10.54
715.535	4.54
715.562	9.54
715.588	12.54
715.615	1.54
715.642	1.54
715.669	17.54
715.695	-7.46
715.722	-7.46
715.749	7.54
715.776	8.54
715.802	-6.46
715.829	-5.46
715.856	-16.46
715.883	3.54
715.909	-5.46
715.936	-7.46
715.963	-22.46
715.99	-6.46
716.016	-0.46
716.043	-12.46
716.07	-10.46
716.096	-8.46
716.123	1.54
716.15	-8.46
716.177	-0.46
716.203	8.54
716.23	16.54
716.257	0.54
716.283	5.54
716.31	11.54
716.337	-4.46
716.363	-0.46
716.39	-7.46
716.417	15.54
716.443	8.54
716.47	7.54
716.497	16.54
716.523	7.54
716.55	15.54
716.577	13.54
716.603	-3.46
716.63	5.54
716.657	11.54
716.683	-11.46
716.71	-6.46
716.737	-6.46
716.763	-0.46
716.79	-0.46
716.817	6.54
716.843	-9.46
716.87	-12.46
716.897	2.54
716.923	15.54
716.95	-4.46
716.976	-2.46
717.003	-6.46
717.03	7.54
717.056	15.54
717.083	6.54
717.109	8.54
717.136	19.54
717.163	-3.46
717.189	-0.46
717.216	8.54
717.242	6.54
717.269	-6.46
717.296	7.54
717.322	5.54
717.349	9.54
717.375	-3.46
717.402	4.54
717.428	5.54
717.455	-1.46
717.481	-6.46
717.508	2.54
717.535	15.54
717.561	8.54
717.588	-16.46
717.614	-1.46
717.641	-4.46
717.667	4.54
717.694	-1.46
717.72	-6.46
717.747	0.54
717.773	-6.46
717.8	8.54
717.826	-7.46
717.853	-3.46
717.88	3.54
717.906	15.54
717.933	15.54
717.959	-1.46
717.986	31.54
718.012	8.54
718.039	9.54
718.065	17.54
718.092	18.54
718.118	1.54
718.144	-10.46
718.171	9.54
718.197	17.54
718.224	1.54
718.25	12.54
718.277	2.54
718.303	8.54
718.33	2.54
718.356	-3.46
718.383	-14.46
718.409	8.54
718.436	-9.46
718.462	-12.46
718.489	-16.46
718.515	5.54
718.541	13.54
718.568	3.54
718.594	-11.46
718.621	11.54
718.647	-7.46
718.674	18.54
718.7	17.54
718.726	-3.46
718.753	-0.46
718.779	7.54
718.806	6.54
718.832	-3.46
718.858	-1.46
718.885	3.54
718.911	-3.46
718.938	4.54
718.964	-13.46
718.99	15.54
719.017	7.54
719.043	11.54
719.07	25.54
719.096	-7.46
719.122	9.54
719.149	13.54
719.175	1.54
719.201	4.54
719.228	-5.46
719.254	-3.46
719.281	-7.46
719.307	-11.46
719.333	-9.46
719.36	9.54
719.386	20.54
719.412	2.54
719.439	-12.46
719.465	4.54
719.491	-5.46
719.518	9.54
719.544	9.54
719.57	12.54
719.597	3.54
719.623	1.54
719.649	14.54
719.675	5.54
719.702	0.54
719.728	17.54
719.754	0.54
719.781	-10.46
719.807	-7.46
719.833	1.54
719.86	13.54
719.886	-4.46
719.912	0.54
719.938	3.54
719.965	-4.46
719.991	15.54
720.017	-0.46
720.044	-12.46
720.07	8.54
720.096	25.54
720.122	9.54
720.149	9.54
720.175	12.54
720.201	7.54
720.227	1.54
720.254	-12.46
720.28	-13.46
720.306	-8.46
720.332	-4.46
720.359	4.54
720.385	-0.46
720.411	-9.46
720.437	-7.46
720.463	-1.46
720.49	11.54
720.516	-7.46
720.542	-6.46
720.568	-3.46
720.595	15.54
720.621	6.54
720.647	0.54
720.673	12.54
720.699	0.54
720.725	11.54
720.752	-1.46
720.778	2.54
720.804	5.54
720.83	-0.46
720.856	-8.46
720.883	-11.46
720.909	3.54
720.935	2.54
720.961	11.54
720.987	6.54
721.013	0.54
721.04	-8.46
721.066	-0.46
721.092	-9.46
721.118	14.54
721.144	9.54
721.17	6.54
721.196	4.54
721.223	4.54
721.249	-3.46
721.275	10.54
721.301	7.54
721.327	3.54
721.353	5.54
721.379	4.54
721.405	4.54
721.432	16.54
721.458	2.54
721.484	-4.46
721.51	-15.46
721.536	12.54
721.562	11.54
721.588	10.54
721.614	-0.46
721.64	-4.46
721.666	-6.46
721.693	1.54
721.719	-4.46
721.745	-13.46
721.771	-0.46
721.797	-7.46
721.823	-1.46
721.849	17.54
721.875	4.54
721.901	9.54
721.927	0.54
721.953	-10.46
721.979	0.54
722.005	16.54
722.031	3.54
722.057	-2.46
722.083	-0.46
722.109	1.54
722.135	14.54
722.161	8.54
722.187	5.54
722.214	5.54
722.24	9.54
722.266	2.54
722.292	9.54
722.318	-5.46
722.344	-1.46
722.37	14.54
722.396	6.54
722.422	-8.46
722.448	4.54
722.474	-4.46
722.5	3.54
722.526	3.54
722.552	8.54
722.578	2.54
722.603	19.54
722.629	-6.46
722.655	4.54
722.681	-8.46
722.707	3.54
722.733	1.54
722.759	-8.46
722.785	3.54
722.811	4.54
722.837	-10.46
722.863	4.54
722.889	9.54
722.915	-2.46
722.941	2.54
722.967	1.54
722.993	-0.46
723.019	6.54
723.045	7.54
723.071	-2.46
723.097	1.54
723.122	5.54
723.148	-0.46
723.174	-8.46
723.2	-19.46
723.226	4.54
723.252	11.54
723.278	0.54
723.304	-3.46
723.33	-5.46
723.356	-1.46
723.381	1.54
723.407	-2.46
723.433	12.54
723.459	-3.46
723.485	-8.46
723.511	8.54
723.537	-0.46
723.563	0.54
723.588	-15.46
723.614	10.54
723.64	0.54
723.666	-14.46
723.692	9.54
723.718	0.54
723.744	5.54
723.769	0.54
723.795	-9.46
723.821	-1.46
723.847	-0.46
723.873	-13.46
723.899	7.54
723.924	-9.46
723.95	3.54
723.976	-6.46
724.002	4.54
724.028	17.54
724.053	-2.46
724.079	11.54
724.105	9.54
724.131	5.54
724.157	-1.46
724.182	9.54
724.208	-0.46
724.234	-9.46
724.26	4.54
724.286	10.54
724.311	7.54
724.337	-5.46
724.363	-8.46
724.389	-5.46
724.415	-23.46
724.44	8.54
724.466	-0.46
724.492	3.54
724.518	4.54
724.543	2.54
724.569	6.54
724.595	11.54
724.621	-8.46
724.646	-10.46
724.672	-18.46
724.698	-4.46
724.723	-3.46
724.749	1.54
724.775	17.54
724.801	13.54
724.826	4.54
724.852	-3.46
724.878	-7.46
724.904	-14.46
724.929	6.54
724.955	-20.46
724.981	2.54
725.006	3.54
725.032	9.54
725.058	21.54
725.083	-2.46
725.109	-0.46
725.135	10.54
725.161	11.54
725.186	-3.46
725.212	-9.46
725.238	6.54
725.263	-6.46
725.289	-11.46
725.315	-16.46
725.34	-6.46
725.366	4.54
725.392	-0.46
725.417	1.54
725.443	-8.46
725.468	-1.46
725.494	-1.46
725.52	12.54
725.545	-1.46
725.571	4.54
725.597	-3.46
725.622	-0.46
725.648	7.54
725.674	10.54
725.699	8.54
725.725	9.54
725.75	35.54
725.776	-7.46
725.802	10.54
725.827	-19.46
725.853	-7.46
725.878	-0.46
725.904	-3.46
725.93	-0.46
725.955	-15.46
725.981	-11.46
726.006	-4.46
726.032	15.54
726.057	6.54
726.083	3.54
726.109	7.54
726.134	12.54
726.16	-5.46
726.185	-18.46
726.211	7.54
726.236	-1.46
726.262	-7.46
726.288	2.54
726.313	16.54
726.339	16.54
726.364	-2.46
726.39	11.54
726.415	-9.46
726.441	4.54
726.466	-9.46
726.492	-9.46
726.517	-2.46
726.543	-4.46
726.568	-7.46
726.594	11.54
726.619	1.54
726.645	7.54
726.67	-1.46
726.696	24.54
726.721	-0.46
726.747	-16.46
726.772	0.54
726.798	-9.46
726.823	15.54
726.849	-1.46
726.874	1.54
726.9	17.54
726.925	7.54
726.951	2.54
726.976	5.54
727.002	-3.46
727.027	13.54
727.053	6.54
727.078	-0.46
727.104	-1.46
727.129	-9.46
727.155	-5.46
727.18	-11.46
727.205	7.54
727.231	3.54
727.256	-6.46
727.282	5.54
727.307	17.54
727.333	6.54
727.358	-10.46
727.383	-8.46
727.409	-2.46
727.434	-1.46
727.46	-6.46
727.485	-4.46
727.511	4.54
727.536	-24.46
727.561	-8.46
727.587	3.54
727.612	-6.46
727.637	10.54
727.663	-8.46
727.688	-5.46
727.714	-3.46
727.739	-4.46
727.764	1.54
727.79	1.54
727.815	10.54
727.841	-2.46
727.866	4.54
727.891	-10.46
727.917	-14.46
727.942	-14.46
727.967	-3.46
727.993	-14.46
728.018	1.54
728.043	19.54
728.069	17.54
728.094	9.54
728.119	-14.46
728.145	5.54
728.17	7.54
728.195	14.54
728.221	14.54
728.246	1.54
728.271	-8.46
728.297	-0.46
728.322	-9.46
728.347	6.54
728.373	4.54
728.398	4.54
728.423	-8.46
728.448	0.54
728.474	-8.46
728.499	11.54
728.524	-12.46
728.55	-15.46
728.575	-6.46
728.6	7.54
728.625	-4.46
728.651	12.54
728.676	4.54
728.701	-8.46
728.727	-6.46
728.752	-11.46
728.777	-9.46
728.802	16.54
728.828	9.54
728.853	-8.46
728.878	-3.46
728.903	-10.46
728.929	-11.46
728.954	3.54
728.979	1.54
729.004	-12.46
729.03	4.54
729.055	18.54
729.08	8.54
729.105	-15.46
729.13	-0.46
729.156	3.54
729.181	-10.46
729.206	-19.46
729.231	-4.46
729.256	-7.46
729.282	3.54
729.307	-10.46
729.332	-7.46
729.357	-2.46
729.382	-2.46
729.408	3.54
729.433	11.54
729.458	17.54
729.483	18.54
729.508	7.54
729.533	12.54
729.559	10.54
729.584	9.54
729.609	3.54
729.634	4.54
729.659	3.54
729.684	2.54
729.71	7.54
729.735	-2.46
729.76	0.54
729.785	-6.46
729.81	5.54
729.835	-8.46
729.86	12.54
729.886	20.54
729.911	21.54
729.936	3.54
729.961	19.54
729.986	18.54
730.011	63.54
730.036	219.54
730.061	1005.54
730.086	2729.54
730.112	3360.54
730.137	2855.54
730.162	2126.54
730.187	1660.54
730.212	1240.54
730.237	795.54
730.262	444.54
730.287	244.54
730.312	135.54
730.337	84.54
730.362	49.54
730.387	28.54
730.413	2.54
730.438	1.54
730.463	20.54
730.488	-8.46
730.513	0.54
730.538	3.54
730.563	17.54
730.588	23.54
730.613	16.54
730.638	-5.46
730.663	-1.46
730.688	20.54
730.713	15.54
730.738	-3.46
730.763	-2.46
730.788	-15.46
730.813	0.54
730.838	11.54
730.863	1.54
730.888	-9.46
730.913	-3.46
730.938	-0.46
730.963	34.54
730.988	96.54
731.013	415.54
731.038	607.54
731.063	615.54
731.088	467.54
731.113	341.54
731.138	259.54
731.163	207.54
731.188	113.54
731.213	59.54
731.238	37.54
731.263	3.54
731.288	9.54
731.313	4.54
731.338	3.54
731.363	-3.46
731.388	-8.46
731.413	8.54
731.438	3.54
731.463	4.54
731.487	18.54
731.512	-4.46
731.537	3.54
731.562	4.54
731.587	21.54
731.612	-17.46
731.637	-4.46
731.662	-10.46
731.687	8.54
731.712	-19.46
731.737	-3.46
731.762	-3.46
731.786	6.54
731.811	8.54
731.836	10.54
731.861	9.54
731.886	-1.46
731.911	3.54
731.936	4.54
731.961	-16.46
731.986	-3.46
732.01	0.54
732.035	7.54
732.06	24.54
732.085	4.54
732.11	-4.46
732.135	-17.46
732.16	12.54
732.184	6.54
732.209	-1.46
732.234	9.54
732.259	-4.46
732.284	8.54
732.309	19.54
732.334	1.54
732.358	-22.46
732.383	-12.46
732.408	-1.46
732.433	-15.46
732.458	3.54
732.482	6.54
732.507	-6.46
732.532	-1.46
732.557	6.54
732.582	7.54
732.607	25.54
732.631	63.54
732.656	87.54
732.681	143.54
732.706	320.54
732.73	461.54
732.755	403.54
732.78	305.54
732.805	231.54
732.83	197.54
732.854	144.54
732.879	98.54
732.904	33.54
732.929	17.54
732.953	8.54
732.978	4.54
733.003	2.54
733.028	6.54
733.052	20.54
733.077	16.54
733.102	6.54
733.127	0.54
733.151	-3.46
733.176	6.54
733.201	-15.46
733.226	-9.46
733.25	-3.46
733.275	-0.46
733.3	-13.46
733.324	8.54
733.349	2.54
733.374	26.54
733.399	6.54
733.423	-8.46
733.448	1.54
733.473	8.54
733.497	-7.46
733.522	-7.46
733.547	3.54
733.571	16.54
733.596	-1.46
733.621	11.54
733.646	-3.46
733.67	10.54
733.695	-0.46
733.72	7.54
733.744	8.54
733.769	-0.46
733.794	9.54
733.818	-1.46
733.843	-6.46
733.867	-15.46
733.892	-14.46
733.917	-4.46
733.941	-3.46
733.966	-14.46
733.991	4.54
734.015	2.54
734.04	6.54
734.065	8.54
734.089	-3.46
734.114	0.54
734.138	16.54
734.163	-12.46
734.188	8.54
734.212	19.54
734.237	-4.46
734.261	-0.46
734.286	-14.46
734.311	3.54
734.335	0.54
734.36	-10.46
734.384	-12.46
734.409	-4.46
734.434	-6.46
734.458	6.54
734.483	2.54
734.507	0.54
734.532	3.54
734.556	-2.46
734.581	3.54
734.606	-0.46
734.63	-9.46
734.655	3.54
734.679	-4.46
734.704	-3.46
734.728	-14.46
734.753	-0.46
734.777	8.54
734.802	4.54
734.826	5.54
734.851	3.54
734.876	9.54
734.9	7.54
734.925	4.54
734.949	15.54
734.974	11.54
734.998	9.54
735.023	-4.46
735.047	-9.46
735.072	11.54
735.096	-1.46
735.121	-2.46
735.145	2.54
735.17	4.54
735.194	2.54
735.219	-12.46
735.243	8.54
735.268	16.54
735.292	13.54
735.317	3.54
735.341	16.54
735.365	-16.46
735.39	1.54
735.414	10.54
735.439	5.54
735.463	6.54
735.488	18.54
735.512	-4.46
735.537	-7.46
735.561	-6.46
735.586	-7.46
735.61	-7.46
735.634	-5.46
735.659	15.54
735.683	32.54
735.708	2.54
735.732	1.54
735.757	3.54
735.781	6.54
735.805	4.54
735.83	-7.46
735.854	-5.46
735.879	-0.46
735.903	9.54
735.927	15.54
735.952	16.54
735.976	6.54
736.001	17.54
736.025	20.54
736.049	-3.46
736.074	-2.46
736.098	6.54
736.123	-15.46
736.147	7.54
736.171	-17.46
736.196	-3.46
736.22	-20.46
736.244	-2.46
736.269	8.54
736.293	-7.46
736.317	-2.46
736.342	-1.46
736.366	9.54
736.39	6.54
736.415	-1.46
736.439	0.54
736.463	13.54
736.488	1.54
736.512	1.54
736.536	4.54
736.561	18.54
736.585	-5.46
736.609	-3.46
736.634	-9.46
736.658	-14.46
736.682	-8.46
736.707	-9.46
736.731	-21.46
736.755	-14.46
736.78	-2.46
736.804	16.54
736.828	10.54
736.852	-7.46
736.877	7.54
736.901	13.54
736.925	7.54
736.949	-7.46
736.974	-3.46
736.998	-1.46
737.022	10.54
737.047	-1.46
737.071	-2.46
737.095	18.54
737.119	19.54
737.144	5.54
737.168	4.54
737.192	-6.46
737.216	0.54
737.241	1.54
737.265	-4.46
737.289	3.54
737.313	3.54
737.337	6.54
737.362	7.54
737.386	-4.46
737.41	-11.46
737.434	1.54
737.459	18.54
737.483	7.54
737.507	4.54
737.531	-1.46
737.555	3.54
737.58	6.54
737.604	11.54
737.628	-9.46
737.652	-8.46
737.676	-11.46
737.701	28.54
737.725	-3.46
737.749	6.54
737.773	-0.46
737.797	-19.46
737.821	-0.46
737.846	-11.46
737.87	16.54
737.894	-11.46
737.918	3.54
737.942	-19.46
737.966	20.54
737.99	7.54
738.015	0.54
738.039	4.54
738.063	8.54
738.087	7.54
738.111	-8.46
738.135	17.54
738.159	4.54
738.184	-0.46
738.208	-1.46
738.232	-2.46
738.256	16.54
738.28	4.54
738.304	0.54
738.328	2.54
738.352	8.54
738.376	-3.46
738.4	13.54
738.425	2.54
738.449	-1.46
738.473	16.54
738.497	35.54
738.521	22.54
738.545	13.54
738.569	-7.46
738.593	25.54
738.617	13.54
738.641	6.54
738.665	2.54
738.689	8.54
738.713	-6.46
738.737	10.54
738.762	12.54
738.786	3.54
738.81	-11.46
738.834	7.54
738.858	0.54
738.882	11.54
738.906	-5.46
738.93	-4.46
738.954	-8.46
738.978	5.54
739.002	5.54
739.026	10.54
739.05	10.54
739.074	-8.46
739.098	27.54
739.122	2.54
739.146	8.54
739.17	22.54
739.194	15.54
739.218	-0.46
739.242	-6.46
739.266	-8.46
739.29	6.54
739.314	8.54
739.338	2.54
739.362	12.54
739.386	2.54
739.41	0.54
739.434	1.54
739.458	8.54
739.482	-14.46
739.506	1.54
739.53	-11.46
739.554	19.54
739.577	-2.46
739.601	14.54
739.625	8.54
739.649	-5.46
739.673	-10.46
739.697	22.54
739.721	-0.46
739.745	10.54
739.769	12.54
739.793	6.54
739.817	6.54
739.841	2.54
739.865	4.54
739.889	-19.46
739.912	4.54
739.936	-8.46
739.96	-1.46
739.984	9.54
740.008	-1.46
740.032	-14.46
740.056	2.54
740.08	-10.46
740.104	-11.46
740.127	-0.46
740.151	4.54
740.175	10.54
740.199	6.54
740.223	40.54
740.247	-3.46
740.271	10.54
740.295	8.54
740.318	-8.46
740.342	-16.46
740.366	-3.46
740.39	1.54
740.414	-13.46
740.438	5.54
740.461	14.54
740.485	-3.46
740.509	-0.46
740.533	24.54
740.557	12.54
740.581	7.54
740.604	2.54
740.628	-5.46
740.652	6.54
740.676	-2.46
740.7	-0.46
740.723	0.54
740.747	-7.46
740.771	-18.46
740.795	-8.46
740.819	5.54
740.842	2.54
740.866	9.54
740.89	7.54
740.914	-10.46
740.938	-0.46
740.961	-4.46
740.985	10.54
741.009	5.54
741.033	5.54
741.056	-12.46
741.08	-3.46
741.104	-2.46
741.128	-6.46
741.151	11.54
741.175	-4.46
741.199	8.54
741.223	14.54
741.246	-4.46
741.27	-1.46
741.294	21.54
741.318	-7.46
741.341	1.54
741.365	-1.46
741.389	-0.46
741.413	-1.46
741.436	19.54
741.46	-0.46
741.484	5.54
741.507	-2.46
741.531	9.54
741.555	1.54
741.579	7.54
741.602	-3.46
741.626	-1.46
741.65	9.54
741.673	0.54
741.697	13.54
741.721	-4.46
741.744	-1.46
741.768	6.54
741.792	1.54
741.815	-11.46
741.839	10.54
741.863	30.54
741.886	8.54
741.91	0.54
741.934	3.54
741.957	-6.46
741.981	27.54
742.005	-0.46
742.028	-6.46
742.052	-0.46
742.075	7.54
742.099	27.54
742.123	-4.46
742.146	5.54
742.17	-7.46
742.194	-10.46
742.217	-7.46
742.241	1.54
742.264	-6.46
742.288	22.54
742.312	6.54
742.335	-4.46
742.359	14.54
742.382	-2.46
742.406	14.54
742.43	1.54
742.453	7.54
742.477	-15.46
742.5	-0.46
742.524	1.54
742.548	-7.46
742.571	-0.46
742.595	-16.46
742.618	-16.46
742.642	-10.46
742.665	17.54
742.689	-10.46
742.712	5.54
742.736	6.54
742.76	-1.46
742.783	-13.46
742.807	-11.46
742.83	8.54
742.854	-9.46
742.877	-11.46
742.901	-4.46
742.924	-15.46
742.948	4.54
742.971	9.54
742.995	8.54
743.018	-20.46
743.042	-10.46
743.065	-7.46
743.089	-8.46
743.112	-11.46
743.136	15.54
743.159	-5.46
743.183	6.54
743.206	1.54
743.23	2.54
743.253	0.54
743.277	6.54
743.3	-0.46
743.324	-1.46
743.347	-9.46
743.371	27.54
743.394	7.54
743.418	27.54
743.441	12.54
743.465	0.54
743.488	3.54
743.512	-21.46
743.535	-20.46
743.558	-8.46
743.582	6.54
743.605	-6.46
743.629	7.54
743.652	2.54
743.676	-8.46
743.699	6.54
743.723	6.54
743.746	2.54
743.769	-8.46
743.793	0.54
743.816	-0.46
743.84	8.54
743.863	-4.46
743.886	4.54
743.91	6.54
743.933	6.54
743.957	12.54
743.98	-14.46
744.003	6.54
744.027	-5.46
744.05	-3.46
744.074	11.54
744.097	-18.46
744.12	-0.46
744.144	-9.46
744.167	20.54
744.19	5.54
744.214	-4.46
744.237	-0.46
744.26	9.54
744.284	-4.46
744.307	-10.46
744.331	-2.46
744.354	-9.46
744.377	-0.46
744.401	19.54
744.424	-11.46
744.447	-10.46
744.471	-9.46
