Data from HighRes_mercury_15_13_11_07_2024_HR4C61891__60__15-14-29-186.txt Node

Date: Thu Nov 07 15:14:29 EST 2024
User: crc00042
Spectrometer: HR4C6189
Trigger mode: 4
Integration Time (sec): 1.000000E-1
Scans to average: 1
Electric dark correction enabled: true
Nonlinearity correction enabled: false
Boxcar width: 0
XAxis mode: Wavelengths
Number of Pixels in Spectrum: 3648
>>>>>Begin Spectral Data<<<<<
639.567	-38.46
639.602	-38.46
639.636	-38.46
639.67	-56.46
639.704	-25.46
639.738	3.54
639.773	10.54
639.807	-10.46
639.841	-9.46
639.875	13.54
639.909	1.54
639.943	1.54
639.978	-2.46
640.012	3.54
640.046	19.54
640.08	-16.46
640.114	-4.46
640.148	-10.46
640.182	-3.46
640.217	-5.46
640.251	19.54
640.285	-5.46
640.319	-18.46
640.353	-2.46
640.387	-10.46
640.421	-0.46
640.455	0.54
640.49	7.54
640.524	4.54
640.558	4.54
640.592	-3.46
640.626	-17.46
640.66	-6.46
640.694	-9.46
640.728	9.54
640.762	1.54
640.796	1.54
640.83	4.54
640.865	-14.46
640.899	-6.46
640.933	-12.46
640.967	-4.46
641.001	-7.46
641.035	-14.46
641.069	-9.46
641.103	-8.46
641.137	-3.46
641.171	-16.46
641.205	-5.46
641.239	11.54
641.273	5.54
641.307	3.54
641.341	15.54
641.375	3.54
641.409	-5.46
641.443	9.54
641.477	-4.46
641.511	-4.46
641.545	10.54
641.579	-5.46
641.614	11.54
641.648	-6.46
641.682	-16.46
641.716	-0.46
641.75	5.54
641.784	-19.46
641.818	-4.46
641.852	4.54
641.886	-15.46
641.919	26.54
641.953	-2.46
641.987	-16.46
642.021	-8.46
642.055	9.54
642.089	5.54
642.123	-4.46
642.157	-7.46
642.191	-14.46
642.225	10.54
642.259	-0.46
642.293	12.54
642.327	-7.46
642.361	-13.46
642.395	0.54
642.429	9.54
642.463	17.54
642.497	16.54
642.531	-9.46
642.565	-9.46
642.599	-6.46
642.633	-21.46
642.666	13.54
642.7	4.54
642.734	-1.46
642.768	-26.46
642.802	-10.46
642.836	-2.46
642.87	0.54
642.904	1.54
642.938	1.54
642.972	-17.46
643.005	3.54
643.039	10.54
643.073	6.54
643.107	13.54
643.141	9.54
643.175	-1.46
643.209	-3.46
643.243	-3.46
643.276	-8.46
643.31	-2.46
643.344	-18.46
643.378	-19.46
643.412	-0.46
643.446	3.54
643.48	-5.46
643.513	6.54
643.547	3.54
643.581	-7.46
643.615	16.54
643.649	7.54
643.683	7.54
643.716	-0.46
643.75	-5.46
643.784	-29.46
643.818	1.54
643.852	-2.46
643.886	5.54
643.919	12.54
643.953	-10.46
643.987	-19.46
644.021	-3.46
644.055	-1.46
644.088	-16.46
644.122	-7.46
644.156	-7.46
644.19	-2.46
644.224	-9.46
644.257	-2.46
644.291	4.54
644.325	-17.46
644.359	-28.46
644.392	2.54
644.426	-1.46
644.46	-0.46
644.494	1.54
644.527	-3.46
644.561	4.54
644.595	-1.46
644.629	-8.46
644.662	-6.46
644.696	2.54
644.73	-0.46
644.764	0.54
644.797	-5.46
644.831	-3.46
644.865	8.54
644.899	-3.46
644.932	17.54
644.966	-8.46
645	0.54
645.033	10.54
645.067	-10.46
645.101	4.54
645.135	5.54
645.168	-15.46
645.202	-7.46
645.236	-2.46
645.269	11.54
645.303	-8.46
645.337	-13.46
645.37	-3.46
645.404	20.54
645.438	-13.46
645.471	-3.46
645.505	1.54
645.539	-16.46
645.572	-13.46
645.606	-17.46
645.64	12.54
645.673	-0.46
645.707	3.54
645.741	3.54
645.774	4.54
645.808	14.54
645.842	4.54
645.875	7.54
645.909	-12.46
645.943	-10.46
645.976	-0.46
646.01	3.54
646.043	14.54
646.077	6.54
646.111	-7.46
646.144	9.54
646.178	9.54
646.212	-18.46
646.245	-11.46
646.279	1.54
646.312	-9.46
646.346	3.54
646.38	-5.46
646.413	11.54
646.447	6.54
646.48	-11.46
646.514	-3.46
646.547	3.54
646.581	-4.46
646.615	-2.46
646.648	-7.46
646.682	-11.46
646.715	-0.46
646.749	-1.46
646.782	-12.46
646.816	-5.46
646.85	3.54
646.883	-0.46
646.917	3.54
646.95	-2.46
646.984	4.54
647.017	14.54
647.051	4.54
647.084	7.54
647.118	-13.46
647.151	-1.46
647.185	0.54
647.218	-22.46
647.252	6.54
647.285	-14.46
647.319	-6.46
647.353	14.54
647.386	6.54
647.42	-5.46
647.453	-6.46
647.487	11.54
647.52	8.54
647.553	-11.46
647.587	-4.46
647.62	-21.46
647.654	-2.46
647.687	3.54
647.721	5.54
647.754	2.54
647.788	0.54
647.821	-7.46
647.855	8.54
647.888	9.54
647.922	8.54
647.955	-1.46
647.989	13.54
648.022	3.54
648.055	-0.46
648.089	-9.46
648.122	-1.46
648.156	0.54
648.189	10.54
648.223	3.54
648.256	10.54
648.29	-5.46
648.323	-5.46
648.356	13.54
648.39	-4.46
648.423	-12.46
648.457	1.54
648.49	16.54
648.523	13.54
648.557	3.54
648.59	-2.46
648.624	0.54
648.657	4.54
648.69	10.54
648.724	7.54
648.757	9.54
648.791	13.54
648.824	6.54
648.857	13.54
648.891	7.54
648.924	1.54
648.957	5.54
648.991	-15.46
649.024	12.54
649.057	-11.46
649.091	8.54
649.124	-15.46
649.158	-0.46
649.191	33.54
649.224	5.54
649.258	-1.46
649.291	2.54
649.324	-2.46
649.358	4.54
649.391	2.54
649.424	-1.46
649.458	-3.46
649.491	-1.46
649.524	-11.46
649.557	-6.46
649.591	-27.46
649.624	8.54
649.657	-18.46
649.691	-3.46
649.724	-0.46
649.757	-1.46
649.791	-3.46
649.824	6.54
649.857	0.54
649.89	-12.46
649.924	-8.46
649.957	-15.46
649.99	-14.46
650.023	-1.46
650.057	-10.46
650.09	-2.46
650.123	-9.46
650.157	11.54
650.19	26.54
650.223	7.54
650.256	-15.46
650.29	-3.46
650.323	-0.46
650.356	0.54
650.389	-10.46
650.423	-18.46
650.456	-18.46
650.489	-21.46
650.522	0.54
650.555	10.54
650.589	-2.46
650.622	-5.46
650.655	2.54
650.688	-5.46
650.721	0.54
650.755	-11.46
650.788	2.54
650.821	-3.46
650.854	4.54
650.887	-6.46
650.921	-10.46
650.954	-13.46
650.987	10.54
651.02	2.54
651.053	1.54
651.087	-0.46
651.12	12.54
651.153	-6.46
651.186	-12.46
651.219	-7.46
651.252	19.54
651.286	1.54
651.319	-4.46
651.352	-2.46
651.385	-6.46
651.418	0.54
651.451	7.54
651.484	8.54
651.518	-7.46
651.551	16.54
651.584	-5.46
651.617	-1.46
651.65	13.54
651.683	15.54
651.716	-5.46
651.749	-9.46
651.783	-9.46
651.816	-5.46
651.849	5.54
651.882	-6.46
651.915	-9.46
651.948	-0.46
651.981	-3.46
652.014	-16.46
652.047	-16.46
652.08	-8.46
652.114	-3.46
652.147	-4.46
652.18	2.54
652.213	24.54
652.246	-19.46
652.279	-1.46
652.312	11.54
652.345	2.54
652.378	7.54
652.411	15.54
652.444	11.54
652.477	-12.46
652.51	-10.46
652.543	-16.46
652.576	-14.46
652.609	-16.46
652.642	11.54
652.675	13.54
652.709	-10.46
652.742	12.54
652.775	3.54
652.808	3.54
652.841	-10.46
652.874	-6.46
652.907	-14.46
652.94	-0.46
652.973	0.54
653.006	-23.46
653.039	-8.46
653.072	-4.46
653.105	-12.46
653.138	-1.46
653.171	-0.46
653.204	-11.46
653.237	-0.46
653.27	-18.46
653.303	3.54
653.336	7.54
653.368	0.54
653.401	-2.46
653.434	-9.46
653.467	-7.46
653.5	-26.46
653.533	-7.46
653.566	18.54
653.599	1.54
653.632	-3.46
653.665	-4.46
653.698	-14.46
653.731	-7.46
653.764	0.54
653.797	0.54
653.83	-1.46
653.863	-14.46
653.896	-15.46
653.929	-13.46
653.961	6.54
653.994	-17.46
654.027	-33.46
654.06	-8.46
654.093	5.54
654.126	5.54
654.159	-13.46
654.192	1.54
654.225	-5.46
654.258	-3.46
654.29	0.54
654.323	-8.46
654.356	-16.46
654.389	-12.46
654.422	-13.46
654.455	-11.46
654.488	-6.46
654.521	-34.46
654.553	-20.46
654.586	-0.46
654.619	-3.46
654.652	3.54
654.685	4.54
654.718	1.54
654.751	-5.46
654.783	-28.46
654.816	16.54
654.849	-4.46
654.882	2.54
654.915	-9.46
654.948	-4.46
654.98	-4.46
655.013	-9.46
655.046	4.54
655.079	-18.46
655.112	-2.46
655.144	-16.46
655.177	3.54
655.21	6.54
655.243	2.54
655.276	-4.46
655.308	9.54
655.341	-10.46
655.374	-1.46
655.407	-2.46
655.44	-9.46
655.472	4.54
655.505	4.54
655.538	-5.46
655.571	-15.46
655.603	-6.46
655.636	-2.46
655.669	3.54
655.702	7.54
655.734	-15.46
655.767	-0.46
655.8	0.54
655.833	-6.46
655.865	3.54
655.898	-0.46
655.931	-22.46
655.964	-9.46
655.996	0.54
656.029	-1.46
656.062	-6.46
656.095	-1.46
656.127	-12.46
656.16	-0.46
656.193	-3.46
656.225	-1.46
656.258	6.54
656.291	-14.46
656.324	-5.46
656.356	-0.46
656.389	5.54
656.422	11.54
656.454	-2.46
656.487	7.54
656.52	14.54
656.552	-11.46
656.585	-6.46
656.618	8.54
656.65	-3.46
656.683	-15.46
656.716	0.54
656.748	-5.46
656.781	-1.46
656.814	-30.46
656.846	-15.46
656.879	3.54
656.912	-7.46
656.944	-12.46
656.977	-16.46
657.01	-4.46
657.042	1.54
657.075	7.54
657.108	-11.46
657.14	-2.46
657.173	6.54
657.205	21.54
657.238	16.54
657.271	0.54
657.303	-1.46
657.336	1.54
657.369	-0.46
657.401	-1.46
657.434	-0.46
657.466	16.54
657.499	5.54
657.532	-0.46
657.564	5.54
657.597	-5.46
657.629	3.54
657.662	-4.46
657.694	6.54
657.727	-17.46
657.76	6.54
657.792	-25.46
657.825	-21.46
657.857	-7.46
657.89	-2.46
657.922	-2.46
657.955	-18.46
657.987	-4.46
658.02	4.54
658.053	6.54
658.085	1.54
658.118	0.54
658.15	7.54
658.183	0.54
658.215	-10.46
658.248	-25.46
658.28	20.54
658.313	20.54
658.345	16.54
658.378	-11.46
658.41	-17.46
658.443	-2.46
658.475	-4.46
658.508	-16.46
658.54	-6.46
658.573	-6.46
658.605	-5.46
658.638	1.54
658.67	-0.46
658.703	-1.46
658.735	-12.46
658.768	-18.46
658.8	-13.46
658.833	13.54
658.865	-1.46
658.898	-10.46
658.93	-12.46
658.963	-6.46
658.995	-5.46
659.028	-2.46
659.06	-2.46
659.092	-4.46
659.125	-14.46
659.157	-1.46
659.19	-2.46
659.222	-3.46
659.255	1.54
659.287	-1.46
659.32	-7.46
659.352	2.54
659.384	4.54
659.417	-6.46
659.449	5.54
659.482	12.54
659.514	-5.46
659.546	-10.46
659.579	-17.46
659.611	-5.46
659.644	-18.46
659.676	-17.46
659.708	-11.46
659.741	-25.46
659.773	-6.46
659.806	-3.46
659.838	-6.46
659.87	-20.46
659.903	-17.46
659.935	3.54
659.967	8.54
660	-14.46
660.032	-21.46
660.065	7.54
660.097	8.54
660.129	-4.46
660.162	-21.46
660.194	-1.46
660.226	14.54
660.259	1.54
660.291	3.54
660.323	-0.46
660.356	-0.46
660.388	-3.46
660.42	-6.46
660.453	-2.46
660.485	0.54
660.517	1.54
660.55	-7.46
660.582	-13.46
660.614	-4.46
660.647	-4.46
660.679	-15.46
660.711	11.54
660.743	-7.46
660.776	-11.46
660.808	1.54
660.84	-2.46
660.873	1.54
660.905	-17.46
660.937	-18.46
660.969	7.54
661.002	-10.46
661.034	7.54
661.066	-2.46
661.099	6.54
661.131	7.54
661.163	-10.46
661.195	-4.46
661.228	4.54
661.26	-7.46
661.292	-22.46
661.324	-9.46
661.357	-1.46
661.389	2.54
661.421	-6.46
661.453	-2.46
661.485	-10.46
661.518	-3.46
661.55	-9.46
661.582	-15.46
661.614	-3.46
661.647	-3.46
661.679	-9.46
661.711	-13.46
661.743	-21.46
661.775	-16.46
661.808	1.54
661.84	-22.46
661.872	-1.46
661.904	-8.46
661.936	-2.46
661.969	-3.46
662.001	-4.46
662.033	-3.46
662.065	-14.46
662.097	-2.46
662.129	-7.46
662.162	-17.46
662.194	-11.46
662.226	-11.46
662.258	1.54
662.29	-7.46
662.322	-14.46
662.355	-11.46
662.387	21.54
662.419	6.54
662.451	7.54
662.483	4.54
662.515	-13.46
662.547	4.54
662.58	-3.46
662.612	-0.46
662.644	-22.46
662.676	-2.46
662.708	0.54
662.74	3.54
662.772	4.54
662.804	7.54
662.836	4.54
662.869	-9.46
662.901	4.54
662.933	-5.46
662.965	14.54
662.997	-2.46
663.029	-4.46
663.061	-1.46
663.093	-10.46
663.125	7.54
663.157	10.54
663.189	8.54
663.221	5.54
663.254	-3.46
663.286	0.54
663.318	-15.46
663.35	-9.46
663.382	2.54
663.414	14.54
663.446	-0.46
663.478	-1.46
663.51	26.54
663.542	0.54
663.574	11.54
663.606	-0.46
663.638	-12.46
663.67	2.54
663.702	-0.46
663.734	-11.46
663.766	18.54
663.798	-0.46
663.83	1.54
663.862	-5.46
663.894	-9.46
663.926	-14.46
663.958	11.54
663.99	4.54
664.022	-6.46
664.054	2.54
664.086	-5.46
664.118	-8.46
664.15	-7.46
664.182	-2.46
664.214	-11.46
664.246	-3.46
664.278	-4.46
664.31	7.54
664.342	-4.46
664.374	-8.46
664.406	6.54
664.438	-4.46
664.47	5.54
664.502	-8.46
664.534	-1.46
664.566	-22.46
664.598	4.54
664.63	-10.46
664.662	1.54
664.693	-1.46
664.725	-14.46
664.757	-9.46
664.789	-25.46
664.821	-15.46
664.853	9.54
664.885	-0.46
664.917	-35.46
664.949	9.54
664.981	1.54
665.013	-1.46
665.045	-9.46
665.076	13.54
665.108	7.54
665.14	-14.46
665.172	0.54
665.204	-20.46
665.236	3.54
665.268	12.54
665.3	-1.46
665.331	-15.46
665.363	1.54
665.395	-4.46
665.427	2.54
665.459	-1.46
665.491	-7.46
665.523	0.54
665.555	-17.46
665.586	-24.46
665.618	-11.46
665.65	-22.46
665.682	13.54
665.714	2.54
665.746	-1.46
665.777	8.54
665.809	-12.46
665.841	-4.46
665.873	-17.46
665.905	-6.46
665.937	-2.46
665.968	2.54
666	4.54
666.032	-8.46
666.064	-10.46
666.096	-18.46
666.127	3.54
666.159	3.54
666.191	10.54
666.223	-2.46
666.255	6.54
666.286	-4.46
666.318	-1.46
666.35	9.54
666.382	2.54
666.413	2.54
666.445	-15.46
666.477	-12.46
666.509	-21.46
666.54	0.54
666.572	-4.46
666.604	-12.46
666.636	-3.46
666.667	7.54
666.699	26.54
666.731	-8.46
666.763	-26.46
666.794	5.54
666.826	-8.46
666.858	-7.46
666.89	12.54
666.921	-9.46
666.953	-5.46
666.985	2.54
667.017	12.54
667.048	-7.46
667.08	-7.46
667.112	3.54
667.143	0.54
667.175	-1.46
667.207	-10.46
667.238	-5.46
667.27	-11.46
667.302	0.54
667.334	-21.46
667.365	0.54
667.397	1.54
667.429	-21.46
667.46	-18.46
667.492	-3.46
667.524	-7.46
667.555	2.54
667.587	-16.46
667.619	-15.46
667.65	-32.46
667.682	10.54
667.714	17.54
667.745	5.54
667.777	-20.46
667.808	0.54
667.84	17.54
667.872	-18.46
667.903	8.54
667.935	-7.46
667.967	-23.46
667.998	0.54
668.03	7.54
668.061	11.54
668.093	-6.46
668.125	-1.46
668.156	-0.46
668.188	-10.46
668.22	-16.46
668.251	0.54
668.283	5.54
668.314	9.54
668.346	6.54
668.377	2.54
668.409	10.54
668.441	1.54
668.472	-2.46
668.504	-5.46
668.535	10.54
668.567	-3.46
668.599	-14.46
668.63	-19.46
668.662	-2.46
668.693	20.54
668.725	-12.46
668.756	7.54
668.788	-17.46
668.819	-10.46
668.851	-3.46
668.882	-3.46
668.914	-10.46
668.946	-3.46
668.977	-8.46
669.009	-5.46
669.04	-28.46
669.072	-12.46
669.103	-8.46
669.135	1.54
669.166	-0.46
669.198	-10.46
669.229	10.54
669.261	-5.46
669.292	-10.46
669.324	-4.46
669.355	-0.46
669.387	-20.46
669.418	4.54
669.45	-13.46
669.481	7.54
669.513	9.54
669.544	-7.46
669.576	-6.46
669.607	20.54
669.639	20.54
669.67	-12.46
669.701	-1.46
669.733	-10.46
669.764	-13.46
669.796	-11.46
669.827	1.54
669.859	-3.46
669.89	6.54
669.922	-0.46
669.953	-0.46
669.985	10.54
670.016	-0.46
670.047	-1.46
670.079	-15.46
670.11	-12.46
670.142	-12.46
670.173	-8.46
670.204	-2.46
670.236	9.54
670.267	-2.46
670.299	-7.46
670.33	2.54
670.362	0.54
670.393	-3.46
670.424	12.54
670.456	-18.46
670.487	-15.46
670.518	-6.46
670.55	11.54
670.581	-16.46
670.613	-0.46
670.644	-21.46
670.675	-14.46
670.707	-20.46
670.738	-3.46
670.769	-7.46
670.801	-4.46
670.832	-0.46
670.864	-4.46
670.895	0.54
670.926	-5.46
670.958	1.54
670.989	-9.46
671.02	-15.46
671.052	5.54
671.083	-2.46
671.114	-8.46
671.146	-5.46
671.177	-18.46
671.208	-1.46
671.24	-31.46
671.271	-24.46
671.302	-17.46
671.333	-10.46
671.365	-25.46
671.396	-14.46
671.427	-7.46
671.459	0.54
671.49	-6.46
671.521	-10.46
671.553	-7.46
671.584	6.54
671.615	-15.46
671.646	1.54
671.678	-8.46
671.709	-14.46
671.74	-25.46
671.771	-7.46
671.803	-7.46
671.834	-0.46
671.865	4.54
671.896	4.54
671.928	-3.46
671.959	-15.46
671.99	-9.46
672.021	-2.46
672.053	-6.46
672.084	5.54
672.115	-3.46
672.146	-3.46
672.178	-4.46
672.209	-6.46
672.24	-4.46
672.271	21.54
672.303	-5.46
672.334	-5.46
672.365	-16.46
672.396	-3.46
672.427	8.54
672.459	4.54
672.49	29.54
672.521	12.54
672.552	11.54
672.583	-0.46
672.615	-16.46
672.646	13.54
672.677	-30.46
672.708	-6.46
672.739	-1.46
672.77	1.54
672.802	-11.46
672.833	-7.46
672.864	-5.46
672.895	-5.46
672.926	-13.46
672.957	-10.46
672.989	-1.46
673.02	-6.46
673.051	3.54
673.082	-8.46
673.113	-11.46
673.144	-11.46
673.175	-6.46
673.206	-20.46
673.238	-4.46
673.269	-17.46
673.3	-23.46
673.331	11.54
673.362	4.54
673.393	1.54
673.424	-0.46
673.455	10.54
673.487	8.54
673.518	-5.46
673.549	-15.46
673.58	-11.46
673.611	8.54
673.642	-9.46
673.673	-16.46
673.704	7.54
673.735	-9.46
673.766	-20.46
673.797	-4.46
673.828	-10.46
673.86	-15.46
673.891	-14.46
673.922	-18.46
673.953	-12.46
673.984	-3.46
674.015	6.54
674.046	2.54
674.077	0.54
674.108	-3.46
674.139	-1.46
674.17	-15.46
674.201	-15.46
674.232	7.54
674.263	0.54
674.294	-20.46
674.325	-7.46
674.356	-1.46
674.387	18.54
674.418	-17.46
674.449	-15.46
674.48	-5.46
674.511	-10.46
674.542	-7.46
674.573	-12.46
674.604	-1.46
674.635	-2.46
674.666	-1.46
674.697	-1.46
674.728	6.54
674.759	-20.46
674.79	-19.46
674.821	-14.46
674.852	-12.46
674.883	-13.46
674.914	-23.46
674.945	-18.46
674.976	-17.46
675.007	-15.46
675.038	-17.46
675.069	-18.46
675.1	-2.46
675.131	4.54
675.162	-8.46
675.193	-10.46
675.224	10.54
675.254	13.54
675.285	20.54
675.316	5.54
675.347	-14.46
675.378	-16.46
675.409	-3.46
675.44	-3.46
675.471	0.54
675.502	-28.46
675.533	11.54
675.564	-8.46
675.595	-3.46
675.625	8.54
675.656	8.54
675.687	-5.46
675.718	-27.46
675.749	6.54
675.78	-4.46
675.811	-8.46
675.842	-19.46
675.873	6.54
675.903	-5.46
675.934	2.54
675.965	-6.46
675.996	4.54
676.027	6.54
676.058	-11.46
676.089	-20.46
676.119	1.54
676.15	-9.46
676.181	-14.46
676.212	-5.46
676.243	4.54
676.274	-7.46
676.304	16.54
676.335	-9.46
676.366	-10.46
676.397	5.54
676.428	-4.46
676.459	-11.46
676.489	-1.46
676.52	14.54
676.551	-5.46
676.582	-18.46
676.613	8.54
676.643	1.54
676.674	2.54
676.705	-15.46
676.736	-8.46
676.767	21.54
676.797	5.54
676.828	-5.46
676.859	-4.46
676.89	5.54
676.92	5.54
676.951	1.54
676.982	-2.46
677.013	-5.46
677.044	1.54
677.074	20.54
677.105	-2.46
677.136	0.54
677.167	10.54
677.197	5.54
677.228	-12.46
677.259	-15.46
677.289	2.54
677.32	-11.46
677.351	-11.46
677.382	-7.46
677.412	-13.46
677.443	7.54
677.474	-1.46
677.505	-1.46
677.535	3.54
677.566	-10.46
677.597	-8.46
677.627	-9.46
677.658	-19.46
677.689	-8.46
677.72	-2.46
677.75	-12.46
677.781	-16.46
677.812	1.54
677.842	-4.46
677.873	-5.46
677.904	-5.46
677.934	-13.46
677.965	-8.46
677.996	-18.46
678.026	-6.46
678.057	-1.46
678.088	-15.46
678.118	-14.46
678.149	-7.46
678.18	-1.46
678.21	0.54
678.241	-7.46
678.272	-9.46
678.302	-10.46
678.333	1.54
678.363	0.54
678.394	1.54
678.425	1.54
678.455	-8.46
678.486	5.54
678.517	-6.46
678.547	13.54
678.578	-9.46
678.608	-15.46
678.639	6.54
678.67	-9.46
678.7	-17.46
678.731	-24.46
678.761	-8.46
678.792	-6.46
678.823	9.54
678.853	0.54
678.884	-6.46
678.914	17.54
678.945	4.54
678.975	-16.46
679.006	3.54
679.037	-3.46
679.067	17.54
679.098	1.54
679.128	-13.46
679.159	-8.46
679.189	22.54
679.22	-4.46
679.25	17.54
679.281	-7.46
679.312	1.54
679.342	6.54
679.373	11.54
679.403	-7.46
679.434	1.54
679.464	-3.46
679.495	-5.46
679.525	-1.46
679.556	16.54
679.586	0.54
679.617	-5.46
679.647	2.54
679.678	5.54
679.708	-11.46
679.739	8.54
679.769	6.54
679.8	-19.46
679.83	1.54
679.861	9.54
679.891	-17.46
679.922	-23.46
679.952	-7.46
679.983	-14.46
680.013	11.54
680.044	-4.46
680.074	-5.46
680.105	-17.46
680.135	-5.46
680.165	-0.46
680.196	7.54
680.226	12.54
680.257	5.54
680.287	11.54
680.318	-14.46
680.348	-11.46
680.379	0.54
680.409	-3.46
680.439	-6.46
680.47	-14.46
680.5	-8.46
680.531	-3.46
680.561	11.54
680.592	-0.46
680.622	6.54
680.652	-8.46
680.683	0.54
680.713	-8.46
680.744	10.54
680.774	-12.46
680.804	24.54
680.835	-11.46
680.865	-19.46
680.896	-3.46
680.926	-1.46
680.956	-13.46
680.987	-2.46
681.017	0.54
681.047	-3.46
681.078	-11.46
681.108	-8.46
681.139	-19.46
681.169	-1.46
681.199	-3.46
681.23	-6.46
681.26	-7.46
681.29	-5.46
681.321	-30.46
681.351	2.54
681.381	-19.46
681.412	-11.46
681.442	-0.46
681.472	21.54
681.503	5.54
681.533	4.54
681.563	-8.46
681.594	4.54
681.624	-7.46
681.654	-20.46
681.685	-3.46
681.715	4.54
681.745	-2.46
681.775	-20.46
681.806	1.54
681.836	-6.46
681.866	-15.46
681.897	1.54
681.927	2.54
681.957	-14.46
681.987	-5.46
682.018	-4.46
682.048	5.54
682.078	-7.46
682.109	4.54
682.139	-6.46
682.169	-4.46
682.199	8.54
682.23	-10.46
682.26	9.54
682.29	-5.46
682.32	-9.46
682.351	-21.46
682.381	-4.46
682.411	-1.46
682.441	-14.46
682.472	-21.46
682.502	-7.46
682.532	-1.46
682.562	6.54
682.592	-1.46
682.623	-3.46
682.653	-1.46
682.683	-4.46
682.713	-0.46
682.743	-11.46
682.774	-25.46
682.804	-12.46
682.834	-7.46
682.864	-19.46
682.894	0.54
682.925	-10.46
682.955	-12.46
682.985	-4.46
683.015	12.54
683.045	5.54
683.076	-13.46
683.106	-5.46
683.136	1.54
683.166	-3.46
683.196	-29.46
683.226	-13.46
683.257	-5.46
683.287	-3.46
683.317	-8.46
683.347	-8.46
683.377	-7.46
683.407	5.54
683.437	8.54
683.468	13.54
683.498	-13.46
683.528	-25.46
683.558	-16.46
683.588	-11.46
683.618	-3.46
683.648	-16.46
683.678	-2.46
683.708	4.54
683.739	-1.46
683.769	-9.46
683.799	-5.46
683.829	-1.46
683.859	1.54
683.889	-6.46
683.919	-5.46
683.949	-9.46
683.979	-18.46
684.009	0.54
684.039	6.54
684.07	-5.46
684.1	12.54
684.13	10.54
684.16	-3.46
684.19	-10.46
684.22	-1.46
684.25	5.54
684.28	-10.46
684.31	3.54
684.34	-0.46
684.37	-4.46
684.4	-16.46
684.43	-1.46
684.46	-5.46
684.49	13.54
684.52	-3.46
684.55	11.54
684.58	-7.46
684.61	-8.46
684.64	-14.46
684.67	-9.46
684.7	-6.46
684.73	-2.46
684.76	-16.46
684.79	15.54
684.82	0.54
684.85	-3.46
684.88	11.54
684.91	-12.46
684.94	-6.46
684.97	-15.46
685	-11.46
685.03	-20.46
685.06	-0.46
685.09	-6.46
685.12	5.54
685.15	-16.46
685.18	11.54
685.21	-3.46
685.24	-3.46
685.27	7.54
685.3	-10.46
685.33	-5.46
685.36	-6.46
685.39	-3.46
685.42	-13.46
685.45	-5.46
685.48	5.54
685.51	-2.46
685.54	2.54
685.569	-14.46
685.599	-5.46
685.629	-0.46
685.659	-8.46
685.689	-19.46
685.719	-13.46
685.749	-11.46
685.779	7.54
685.809	-11.46
685.839	8.54
685.869	0.54
685.898	11.54
685.928	17.54
685.958	-7.46
685.988	8.54
686.018	-11.46
686.048	5.54
686.078	5.54
686.108	1.54
686.137	3.54
686.167	17.54
686.197	-1.46
686.227	-5.46
686.257	17.54
686.287	4.54
686.317	-2.46
686.346	-8.46
686.376	-21.46
686.406	-10.46
686.436	13.54
686.466	-3.46
686.496	22.54
686.525	6.54
686.555	-4.46
686.585	10.54
686.615	20.54
686.645	4.54
686.675	-4.46
686.704	1.54
686.734	4.54
686.764	-22.46
686.794	-1.46
686.824	6.54
686.853	9.54
686.883	4.54
686.913	5.54
686.943	6.54
686.973	-14.46
687.002	-7.46
687.032	2.54
687.062	-0.46
687.092	15.54
687.121	-10.46
687.151	14.54
687.181	9.54
687.211	13.54
687.24	-4.46
687.27	-5.46
687.3	3.54
687.33	0.54
687.359	-8.46
687.389	2.54
687.419	-0.46
687.449	5.54
687.478	-1.46
687.508	-4.46
687.538	-2.46
687.568	9.54
687.597	-17.46
687.627	5.54
687.657	14.54
687.686	-4.46
687.716	12.54
687.746	-6.46
687.776	-6.46
687.805	4.54
687.835	3.54
687.865	28.54
687.894	-1.46
687.924	-7.46
687.954	-5.46
687.983	7.54
688.013	10.54
688.043	13.54
688.072	-8.46
688.102	13.54
688.132	-1.46
688.161	-3.46
688.191	-2.46
688.221	16.54
688.25	-20.46
688.28	-3.46
688.31	-3.46
688.339	-2.46
688.369	-7.46
688.399	-5.46
688.428	-26.46
688.458	-11.46
688.488	-19.46
688.517	-9.46
688.547	-26.46
688.576	11.54
688.606	-3.46
688.636	-6.46
688.665	16.54
688.695	12.54
688.725	6.54
688.754	4.54
688.784	-1.46
688.813	9.54
688.843	-14.46
688.873	10.54
688.902	-3.46
688.932	-1.46
688.961	-9.46
688.991	6.54
689.02	-11.46
689.05	-9.46
689.08	1.54
689.109	14.54
689.139	-2.46
689.168	-2.46
689.198	2.54
689.227	-11.46
689.257	1.54
689.287	12.54
689.316	-3.46
689.346	-4.46
689.375	-14.46
689.405	7.54
689.434	-0.46
689.464	-12.46
689.493	0.54
689.523	-3.46
689.552	-7.46
689.582	-10.46
689.611	-5.46
689.641	9.54
689.67	-0.46
689.7	-8.46
689.73	2.54
689.759	-6.46
689.789	-5.46
689.818	0.54
689.848	-4.46
689.877	13.54
689.906	3.54
689.936	-14.46
689.965	4.54
689.995	-10.46
690.024	-2.46
690.054	4.54
690.083	-21.46
690.113	-2.46
690.142	-17.46
690.172	-1.46
690.201	3.54
690.231	1.54
690.26	-3.46
690.29	7.54
690.319	10.54
690.348	-3.46
690.378	-9.46
690.407	-12.46
690.437	4.54
690.466	3.54
690.496	-8.46
690.525	-11.46
690.555	-0.46
690.584	-2.46
690.613	-4.46
690.643	16.54
690.672	-0.46
690.702	-0.46
690.731	-3.46
690.76	6.54
690.79	39.54
690.819	38.54
690.849	36.54
690.878	29.54
690.907	9.54
690.937	9.54
690.966	11.54
690.996	0.54
691.025	-12.46
691.054	8.54
691.084	1.54
691.113	-6.46
691.142	13.54
691.172	8.54
691.201	13.54
691.23	8.54
691.26	14.54
691.289	4.54
691.319	8.54
691.348	-2.46
691.377	3.54
691.407	-3.46
691.436	11.54
691.465	13.54
691.495	-12.46
691.524	-19.46
691.553	-3.46
691.583	-4.46
691.612	7.54
691.641	-7.46
691.67	-9.46
691.7	-7.46
691.729	-6.46
691.758	-5.46
691.788	-7.46
691.817	-23.46
691.846	-0.46
691.876	-15.46
691.905	-1.46
691.934	-13.46
691.963	17.54
691.993	-4.46
692.022	-7.46
692.051	-7.46
692.081	11.54
692.11	5.54
692.139	3.54
692.168	10.54
692.198	16.54
692.227	10.54
692.256	4.54
692.285	-6.46
692.315	7.54
692.344	2.54
692.373	3.54
692.402	-17.46
692.432	-3.46
692.461	-2.46
692.49	-0.46
692.519	-7.46
692.548	12.54
692.578	11.54
692.607	-4.46
692.636	-8.46
692.665	9.54
692.694	-6.46
692.724	6.54
692.753	10.54
692.782	19.54
692.811	0.54
692.84	-4.46
692.87	-0.46
692.899	-5.46
692.928	-16.46
692.957	1.54
692.986	5.54
693.016	10.54
693.045	2.54
693.074	-5.46
693.103	-6.46
693.132	8.54
693.161	-0.46
693.191	5.54
693.22	-24.46
693.249	-9.46
693.278	-4.46
693.307	9.54
693.336	-7.46
693.365	-23.46
693.395	-11.46
693.424	15.54
693.453	11.54
693.482	-6.46
693.511	2.54
693.54	-8.46
693.569	-0.46
693.598	-17.46
693.628	10.54
693.657	-0.46
693.686	3.54
693.715	1.54
693.744	1.54
693.773	18.54
693.802	-2.46
693.831	6.54
693.86	11.54
693.889	-10.46
693.919	0.54
693.948	-5.46
693.977	-12.46
694.006	-11.46
694.035	5.54
694.064	1.54
694.093	2.54
694.122	12.54
694.151	-6.46
694.18	-5.46
694.209	21.54
694.238	1.54
694.267	34.54
694.296	17.54
694.325	-2.46
694.354	23.54
694.383	11.54
694.412	4.54
694.441	-8.46
694.471	0.54
694.5	-18.46
694.529	-7.46
694.558	10.54
694.587	16.54
694.616	-1.46
694.645	1.54
694.674	9.54
694.703	-0.46
694.732	-2.46
694.761	17.54
694.79	3.54
694.819	-18.46
694.848	-6.46
694.877	19.54
694.906	23.54
694.935	1.54
694.963	30.54
694.992	5.54
695.021	-9.46
695.05	1.54
695.079	-1.46
695.108	3.54
695.137	31.54
695.166	-5.46
695.195	-9.46
695.224	-0.46
695.253	0.54
695.282	-12.46
695.311	1.54
695.34	3.54
695.369	19.54
695.398	11.54
695.427	10.54
695.456	7.54
695.485	-3.46
695.513	15.54
695.542	-4.46
695.571	10.54
695.6	16.54
695.629	0.54
695.658	9.54
695.687	-7.46
695.716	-6.46
695.745	13.54
695.774	-4.46
695.802	-9.46
695.831	7.54
695.86	20.54
695.889	4.54
695.918	-4.46
695.947	-12.46
695.976	5.54
696.005	0.54
696.033	22.54
696.062	19.54
696.091	-6.46
696.12	0.54
696.149	8.54
696.178	1.54
696.207	3.54
696.235	-16.46
696.264	-5.46
696.293	2.54
696.322	18.54
696.351	8.54
696.38	6.54
696.408	2.54
696.437	3.54
696.466	4.54
696.495	14.54
696.524	11.54
696.553	4.54
696.581	21.54
696.61	7.54
696.639	-17.46
696.668	-0.46
696.697	7.54
696.725	-7.46
696.754	-3.46
696.783	0.54
696.812	7.54
696.84	-8.46
696.869	-2.46
696.898	-2.46
696.927	4.54
696.956	13.54
696.984	7.54
697.013	5.54
697.042	-10.46
697.071	6.54
697.099	7.54
697.128	12.54
697.157	-1.46
697.186	-3.46
697.214	-3.46
697.243	-3.46
697.272	-14.46
697.301	7.54
697.329	7.54
697.358	20.54
697.387	12.54
697.415	1.54
697.444	-4.46
697.473	-9.46
697.502	-14.46
697.53	12.54
697.559	-1.46
697.588	9.54
697.616	17.54
697.645	0.54
697.674	18.54
697.703	2.54
697.731	15.54
697.76	12.54
697.789	-2.46
697.817	3.54
697.846	19.54
697.875	0.54
697.903	17.54
697.932	15.54
697.961	13.54
697.989	16.54
698.018	5.54
698.047	1.54
698.075	6.54
698.104	-10.46
698.133	3.54
698.161	-7.46
698.19	1.54
698.218	-2.46
698.247	-2.46
698.276	-2.46
698.304	10.54
698.333	-1.46
698.362	5.54
698.39	-2.46
698.419	-6.46
698.447	6.54
698.476	-0.46
698.505	15.54
698.533	5.54
698.562	5.54
698.591	1.54
698.619	2.54
698.648	7.54
698.676	2.54
698.705	1.54
698.733	-5.46
698.762	-0.46
698.791	0.54
698.819	7.54
698.848	1.54
698.876	15.54
698.905	16.54
698.933	0.54
698.962	-1.46
698.991	-4.46
699.019	27.54
699.048	10.54
699.076	8.54
699.105	-15.46
699.133	-2.46
699.162	3.54
699.19	18.54
699.219	-11.46
699.248	7.54
699.276	-6.46
699.305	-8.46
699.333	7.54
699.362	-6.46
699.39	17.54
699.419	-10.46
699.447	13.54
699.476	9.54
699.504	-7.46
699.533	-7.46
699.561	-18.46
699.59	9.54
699.618	2.54
699.647	-2.46
699.675	6.54
699.704	-8.46
699.732	-21.46
699.761	1.54
699.789	7.54
699.818	5.54
699.846	-2.46
699.874	-9.46
699.903	-13.46
699.931	4.54
699.96	13.54
699.988	-2.46
700.017	3.54
700.045	4.54
700.074	4.54
700.102	-7.46
700.13	-17.46
700.159	0.54
700.187	5.54
700.216	-6.46
700.244	-8.46
700.273	-1.46
700.301	-3.46
700.329	11.54
700.358	21.54
700.386	-6.46
700.415	0.54
700.443	5.54
700.472	-5.46
700.5	-1.46
700.528	-7.46
700.557	-0.46
700.585	5.54
700.614	-1.46
700.642	12.54
700.67	24.54
700.699	9.54
700.727	-1.46
700.755	-3.46
700.784	2.54
700.812	-11.46
700.841	11.54
700.869	-14.46
700.897	-6.46
700.926	-1.46
700.954	8.54
700.982	22.54
701.011	0.54
701.039	1.54
701.067	-15.46
701.096	8.54
701.124	-8.46
701.152	0.54
701.181	4.54
701.209	-16.46
701.237	0.54
701.266	-8.46
701.294	-9.46
701.322	-1.46
701.351	18.54
701.379	0.54
701.407	-2.46
701.435	11.54
701.464	8.54
701.492	12.54
701.52	-12.46
701.549	5.54
701.577	-2.46
701.605	-6.46
701.634	2.54
701.662	10.54
701.69	4.54
701.718	3.54
701.747	21.54
701.775	-3.46
701.803	13.54
701.831	4.54
701.86	-2.46
701.888	9.54
701.916	-6.46
701.944	-20.46
701.973	-10.46
702.001	-4.46
702.029	-14.46
702.057	-6.46
702.086	-28.46
702.114	-7.46
702.142	3.54
702.17	-5.46
702.199	4.54
702.227	-5.46
702.255	-12.46
702.283	-8.46
702.311	17.54
702.34	-10.46
702.368	-22.46
702.396	3.54
702.424	0.54
702.452	-21.46
702.481	-2.46
702.509	7.54
702.537	0.54
702.565	6.54
702.593	-14.46
702.621	-18.46
702.65	-1.46
702.678	-3.46
702.706	21.54
702.734	-5.46
702.762	-7.46
702.79	2.54
702.819	0.54
702.847	-8.46
702.875	9.54
702.903	1.54
702.931	-5.46
702.959	-16.46
702.988	-11.46
703.016	-23.46
703.044	0.54
703.072	7.54
703.1	-12.46
703.128	-1.46
703.156	-7.46
703.184	7.54
703.212	4.54
703.241	-1.46
703.269	1.54
703.297	3.54
703.325	-5.46
703.353	-12.46
703.381	-18.46
703.409	7.54
703.437	-7.46
703.465	5.54
703.493	-6.46
703.522	1.54
703.55	7.54
703.578	0.54
703.606	-18.46
703.634	4.54
703.662	-11.46
703.69	1.54
703.718	2.54
703.746	10.54
703.774	-9.46
703.802	41.54
703.83	4.54
703.858	-9.46
703.886	-22.46
703.914	-1.46
703.942	-1.46
703.97	-15.46
703.998	-10.46
704.027	17.54
704.055	9.54
704.083	3.54
704.111	-6.46
704.139	-10.46
704.167	-12.46
704.195	2.54
704.223	-6.46
704.251	7.54
704.279	-2.46
704.307	-4.46
704.335	-26.46
704.363	-6.46
704.391	-4.46
704.419	1.54
704.447	-16.46
704.475	-7.46
704.503	-5.46
704.531	-1.46
704.558	4.54
704.586	1.54
704.614	-3.46
704.642	4.54
704.67	-19.46
704.698	-15.46
704.726	-3.46
704.754	-14.46
704.782	-24.46
704.81	-5.46
704.838	11.54
704.866	9.54
704.894	-17.46
704.922	-8.46
704.95	-0.46
704.978	3.54
705.006	12.54
705.034	12.54
705.061	-15.46
705.089	-7.46
705.117	-15.46
705.145	-9.46
705.173	1.54
705.201	4.54
705.229	25.54
705.257	10.54
705.285	-8.46
705.313	-11.46
705.34	-7.46
705.368	2.54
705.396	-2.46
705.424	-10.46
705.452	-6.46
705.48	-14.46
705.508	-24.46
705.536	-14.46
705.563	-13.46
705.591	-6.46
705.619	6.54
705.647	-10.46
705.675	-4.46
705.703	2.54
705.731	0.54
705.758	-2.46
705.786	-10.46
705.814	7.54
705.842	11.54
705.87	3.54
705.898	19.54
705.925	-25.46
705.953	-4.46
705.981	-14.46
706.009	-3.46
706.037	-3.46
706.065	2.54
706.092	-6.46
706.12	-7.46
706.148	-9.46
706.176	-13.46
706.204	-9.46
706.231	-0.46
706.259	-10.46
706.287	5.54
706.315	-6.46
706.342	-8.46
706.37	4.54
706.398	2.54
706.426	-2.46
706.454	-15.46
706.481	10.54
706.509	8.54
706.537	6.54
706.565	-7.46
706.592	-3.46
706.62	-7.46
706.648	-1.46
706.676	-9.46
706.703	-6.46
706.731	-3.46
706.759	-6.46
706.787	9.54
706.814	-2.46
706.842	2.54
706.87	-8.46
706.897	-13.46
706.925	-7.46
706.953	25.54
706.981	14.54
707.008	-6.46
707.036	-2.46
707.064	-15.46
707.091	-16.46
707.119	7.54
707.147	-1.46
707.174	-20.46
707.202	4.54
707.23	-10.46
707.258	5.54
707.285	-12.46
707.313	-18.46
707.341	-20.46
707.368	-8.46
707.396	-5.46
707.424	21.54
707.451	-5.46
707.479	-4.46
707.507	0.54
707.534	-5.46
707.562	2.54
707.59	-3.46
707.617	-15.46
707.645	-3.46
707.672	-13.46
707.7	1.54
707.728	12.54
707.755	4.54
707.783	-7.46
707.811	-9.46
707.838	-14.46
707.866	8.54
707.893	7.54
707.921	-7.46
707.949	-10.46
707.976	-6.46
708.004	5.54
708.031	7.54
708.059	-9.46
708.087	3.54
708.114	-9.46
708.142	-11.46
708.169	-4.46
708.197	-22.46
708.225	9.54
708.252	-0.46
708.28	18.54
708.307	-1.46
708.335	-11.46
708.362	-0.46
708.39	-20.46
708.418	-13.46
708.445	-9.46
708.473	-9.46
708.5	-10.46
708.528	13.54
708.555	-5.46
708.583	10.54
708.61	-11.46
708.638	-3.46
708.665	3.54
708.693	-5.46
708.72	-7.46
708.748	-9.46
708.776	-2.46
708.803	16.54
708.831	-6.46
708.858	-1.46
708.886	0.54
708.913	-4.46
708.941	-10.46
708.968	-4.46
708.996	-11.46
709.023	28.54
709.051	-17.46
709.078	-19.46
709.105	-5.46
709.133	-3.46
709.16	-7.46
709.188	9.54
709.215	-4.46
709.243	0.54
709.27	-15.46
709.298	-13.46
709.325	-6.46
709.353	13.54
709.38	4.54
709.408	1.54
709.435	-0.46
709.462	-0.46
709.49	2.54
709.517	-3.46
709.545	-11.46
709.572	-20.46
709.6	-4.46
709.627	-10.46
709.655	-6.46
709.682	4.54
709.709	-6.46
709.737	-12.46
709.764	-13.46
709.792	10.54
709.819	-13.46
709.846	-7.46
709.874	-6.46
709.901	14.54
709.929	23.54
709.956	0.54
709.983	-15.46
710.011	-4.46
710.038	-6.46
710.066	8.54
710.093	7.54
710.12	6.54
710.148	-4.46
710.175	-12.46
710.202	-20.46
710.23	-13.46
710.257	-14.46
710.284	10.54
710.312	-6.46
710.339	-13.46
710.366	-2.46
710.394	-14.46
710.421	-0.46
710.448	2.54
710.476	0.54
710.503	-2.46
710.53	2.54
710.558	8.54
710.585	2.54
710.612	-4.46
710.64	-9.46
710.667	-12.46
710.694	-12.46
710.722	5.54
710.749	-2.46
710.776	-3.46
710.804	23.54
710.831	6.54
710.858	11.54
710.885	-10.46
710.913	3.54
710.94	17.54
710.967	-10.46
710.995	21.54
711.022	1.54
711.049	4.54
711.076	-5.46
711.104	-6.46
711.131	-17.46
711.158	-13.46
711.185	11.54
711.213	-8.46
711.24	-20.46
711.267	-7.46
711.294	-6.46
711.322	1.54
711.349	-3.46
711.376	-7.46
711.403	7.54
711.431	-4.46
711.458	-7.46
711.485	-3.46
711.512	6.54
711.54	-7.46
711.567	-5.46
711.594	-13.46
711.621	-5.46
711.648	-1.46
711.676	1.54
711.703	-3.46
711.73	-17.46
711.757	0.54
711.784	-1.46
711.812	-8.46
711.839	-10.46
711.866	-20.46
711.893	-11.46
711.92	-6.46
711.947	-7.46
711.975	5.54
712.002	-11.46
712.029	-13.46
712.056	-12.46
712.083	-3.46
712.11	-9.46
712.138	8.54
712.165	4.54
712.192	-0.46
712.219	-1.46
712.246	-11.46
712.273	-6.46
712.3	-12.46
712.328	-11.46
712.355	-2.46
712.382	-26.46
712.409	2.54
712.436	-12.46
712.463	1.54
712.49	1.54
712.517	3.54
712.544	0.54
712.572	-5.46
712.599	-4.46
712.626	-1.46
712.653	-9.46
712.68	-20.46
712.707	4.54
712.734	-0.46
712.761	-3.46
712.788	5.54
712.815	-10.46
712.842	6.54
712.87	-6.46
712.897	-14.46
712.924	-19.46
712.951	-4.46
712.978	27.54
713.005	1.54
713.032	-2.46
713.059	-11.46
713.086	-3.46
713.113	-21.46
713.14	-10.46
713.167	15.54
713.194	6.54
713.221	3.54
713.248	-5.46
713.275	-4.46
713.302	-20.46
713.329	-17.46
713.356	-11.46
713.383	-5.46
713.41	6.54
713.437	-19.46
713.464	6.54
713.491	-1.46
713.518	-15.46
713.545	6.54
713.572	4.54
713.599	2.54
713.626	-2.46
713.653	1.54
713.68	-4.46
713.707	-2.46
713.734	-9.46
713.761	-18.46
713.788	-10.46
713.815	0.54
713.842	5.54
713.869	-5.46
713.896	-8.46
713.923	1.54
713.95	-7.46
713.977	-2.46
714.004	5.54
714.031	-15.46
714.058	-15.46
714.085	5.54
714.112	4.54
714.139	-2.46
714.165	-14.46
714.192	-13.46
714.219	5.54
714.246	13.54
714.273	-9.46
714.3	-11.46
714.327	11.54
714.354	11.54
714.381	2.54
714.408	-2.46
714.435	-9.46
714.461	-0.46
714.488	-3.46
714.515	-2.46
714.542	-29.46
714.569	-13.46
714.596	-15.46
714.623	-14.46
714.65	-1.46
714.677	0.54
714.703	6.54
714.73	-2.46
714.757	-1.46
714.784	12.54
714.811	-13.46
714.838	-3.46
714.865	-3.46
714.891	11.54
714.918	0.54
714.945	-29.46
714.972	-8.46
714.999	1.54
715.026	-6.46
715.052	-7.46
715.079	-17.46
715.106	2.54
715.133	-9.46
715.16	-11.46
715.187	-4.46
715.213	-4.46
715.24	-9.46
715.267	-13.46
715.294	-29.46
715.321	-23.46
715.347	-12.46
715.374	-9.46
715.401	-1.46
715.428	-9.46
715.455	-9.46
715.481	-14.46
715.508	1.54
715.535	-1.46
715.562	9.54
715.588	-16.46
715.615	-9.46
715.642	-1.46
715.669	6.54
715.695	-15.46
715.722	-5.46
715.749	-4.46
715.776	1.54
715.802	-4.46
715.829	-2.46
715.856	-23.46
715.883	0.54
715.909	-11.46
715.936	-13.46
715.963	-5.46
715.99	-25.46
716.016	7.54
716.043	-12.46
716.07	-5.46
716.096	-5.46
716.123	-7.46
716.15	-0.46
716.177	-14.46
716.203	0.54
716.23	-5.46
716.257	-4.46
716.283	5.54
716.31	-2.46
716.337	5.54
716.363	-7.46
716.39	-9.46
716.417	-3.46
716.443	-10.46
716.47	8.54
716.497	-0.46
716.523	3.54
716.55	6.54
716.577	14.54
716.603	-4.46
716.63	14.54
716.657	4.54
716.683	-13.46
716.71	-0.46
716.737	-5.46
716.763	-8.46
716.79	5.54
716.817	6.54
716.843	7.54
716.87	-7.46
716.897	-3.46
716.923	2.54
716.95	1.54
716.976	-12.46
717.003	-7.46
717.03	-6.46
717.056	2.54
717.083	17.54
717.109	10.54
717.136	5.54
717.163	-5.46
717.189	0.54
717.216	5.54
717.242	-7.46
717.269	-23.46
717.296	5.54
717.322	8.54
717.349	9.54
717.375	11.54
717.402	-5.46
717.428	-9.46
717.455	0.54
717.481	4.54
717.508	-4.46
717.535	-0.46
717.561	0.54
717.588	5.54
717.614	-13.46
717.641	-7.46
717.667	-7.46
717.694	-3.46
717.72	-13.46
717.747	-10.46
717.773	-19.46
717.8	-16.46
717.826	-6.46
717.853	-4.46
717.88	11.54
717.906	-9.46
717.933	-1.46
717.959	7.54
717.986	14.54
718.012	-5.46
718.039	19.54
718.065	24.54
718.092	6.54
718.118	-9.46
718.144	-9.46
718.171	-9.46
718.197	14.54
718.224	-0.46
718.25	-0.46
718.277	14.54
718.303	5.54
718.33	0.54
718.356	-15.46
718.383	-4.46
718.409	-2.46
718.436	-6.46
718.462	-4.46
718.489	-6.46
718.515	11.54
718.541	6.54
718.568	10.54
718.594	5.54
718.621	-5.46
718.647	-9.46
718.674	8.54
718.7	19.54
718.726	-1.46
718.753	-7.46
718.779	4.54
718.806	-5.46
718.832	-20.46
718.858	-11.46
718.885	-17.46
718.911	-8.46
718.938	10.54
718.964	-13.46
718.99	-5.46
719.017	1.54
719.043	-7.46
719.07	12.54
719.096	-21.46
719.122	6.54
719.149	1.54
719.175	12.54
719.201	5.54
719.228	-1.46
719.254	-3.46
719.281	-17.46
719.307	-14.46
719.333	1.54
719.36	14.54
719.386	-16.46
719.412	8.54
719.439	-0.46
719.465	-14.46
719.491	-10.46
719.518	-3.46
719.544	0.54
719.57	6.54
719.597	6.54
719.623	-14.46
719.649	-7.46
719.675	2.54
719.702	-1.46
719.728	0.54
719.754	-4.46
719.781	12.54
719.807	-1.46
719.833	-0.46
719.86	-13.46
719.886	-4.46
719.912	-3.46
719.938	-13.46
719.965	-9.46
719.991	17.54
720.017	1.54
720.044	-3.46
720.07	-12.46
720.096	3.54
720.122	2.54
720.149	0.54
720.175	25.54
720.201	0.54
720.227	-19.46
720.254	0.54
720.28	-11.46
720.306	-16.46
720.332	2.54
720.359	0.54
720.385	-3.46
720.411	-10.46
720.437	-10.46
720.463	9.54
720.49	17.54
720.516	-3.46
720.542	-3.46
720.568	-11.46
720.595	16.54
720.621	24.54
720.647	-1.46
720.673	-7.46
720.699	-12.46
720.725	-0.46
720.752	4.54
720.778	-1.46
720.804	-5.46
720.83	1.54
720.856	-11.46
720.883	-11.46
720.909	-2.46
720.935	2.54
720.961	11.54
720.987	3.54
721.013	-3.46
721.04	-2.46
721.066	-10.46
721.092	-0.46
721.118	0.54
721.144	7.54
721.17	-5.46
721.196	-11.46
721.223	-4.46
721.249	-10.46
721.275	17.54
721.301	-8.46
721.327	19.54
721.353	-0.46
721.379	-8.46
721.405	-6.46
721.432	18.54
721.458	-5.46
721.484	9.54
721.51	-12.46
721.536	-5.46
721.562	-4.46
721.588	7.54
721.614	-7.46
721.64	-13.46
721.666	-9.46
721.693	-18.46
721.719	-19.46
721.745	-12.46
721.771	-13.46
721.797	10.54
721.823	-2.46
721.849	2.54
721.875	2.54
721.901	4.54
721.927	-2.46
721.953	-2.46
721.979	12.54
722.005	0.54
722.031	-0.46
722.057	-2.46
722.083	4.54
722.109	9.54
722.135	13.54
722.161	0.54
722.187	-1.46
722.214	-12.46
722.24	-11.46
722.266	-11.46
722.292	13.54
722.318	19.54
722.344	-6.46
722.37	4.54
722.396	7.54
722.422	-6.46
722.448	1.54
722.474	-4.46
722.5	8.54
722.526	-3.46
722.552	-6.46
722.578	-1.46
722.603	-10.46
722.629	-16.46
722.655	-5.46
722.681	-3.46
722.707	2.54
722.733	-11.46
722.759	-4.46
722.785	6.54
722.811	-5.46
722.837	-6.46
722.863	9.54
722.889	16.54
722.915	2.54
722.941	-2.46
722.967	-3.46
722.993	9.54
723.019	5.54
723.045	0.54
723.071	-0.46
723.097	-2.46
723.122	-2.46
723.148	-12.46
723.174	-2.46
723.2	6.54
723.226	-2.46
723.252	1.54
723.278	8.54
723.304	-5.46
723.33	-6.46
723.356	-9.46
723.381	-18.46
723.407	-13.46
723.433	10.54
723.459	-19.46
723.485	-5.46
723.511	1.54
723.537	-4.46
723.563	-12.46
723.588	-9.46
723.614	6.54
723.64	-5.46
723.666	4.54
723.692	8.54
723.718	1.54
723.744	-6.46
723.769	1.54
723.795	-17.46
723.821	-5.46
723.847	-8.46
723.873	-3.46
723.899	18.54
723.924	-16.46
723.95	-5.46
723.976	-15.46
724.002	2.54
724.028	9.54
724.053	-14.46
724.079	-14.46
724.105	6.54
724.131	-8.46
724.157	-14.46
724.182	6.54
724.208	-4.46
724.234	-7.46
724.26	7.54
724.286	18.54
724.311	1.54
724.337	-10.46
724.363	-4.46
724.389	-13.46
724.415	0.54
724.44	8.54
724.466	-11.46
724.492	-9.46
724.518	6.54
724.543	-10.46
724.569	-1.46
724.595	-7.46
724.621	2.54
724.646	-9.46
724.672	-12.46
724.698	-13.46
724.723	-9.46
724.749	-15.46
724.775	-1.46
724.801	7.54
724.826	10.54
724.852	-8.46
724.878	-9.46
724.904	-22.46
724.929	1.54
724.955	-5.46
724.981	4.54
725.006	0.54
725.032	-1.46
725.058	-11.46
725.083	-13.46
725.109	7.54
725.135	-10.46
725.161	-2.46
725.186	-0.46
725.212	-3.46
725.238	5.54
725.263	2.54
725.289	-3.46
725.315	-4.46
725.34	8.54
725.366	11.54
725.392	-20.46
725.417	3.54
725.443	-6.46
725.468	-2.46
725.494	3.54
725.52	-3.46
725.545	-11.46
725.571	-5.46
725.597	3.54
725.622	-6.46
725.648	-7.46
725.674	5.54
725.699	-7.46
725.725	-9.46
725.75	20.54
725.776	-0.46
725.802	-7.46
725.827	-4.46
725.853	1.54
725.878	6.54
725.904	-8.46
725.93	-3.46
725.955	-18.46
725.981	-13.46
726.006	-6.46
726.032	18.54
726.057	-3.46
726.083	-4.46
726.109	-4.46
726.134	-3.46
726.16	3.54
726.185	-14.46
726.211	4.54
726.236	4.54
726.262	1.54
726.288	9.54
726.313	18.54
726.339	2.54
726.364	-2.46
726.39	-9.46
726.415	7.54
726.441	-13.46
726.466	-7.46
726.492	2.54
726.517	8.54
726.543	10.54
726.568	-20.46
726.594	-10.46
726.619	-5.46
726.645	-2.46
726.67	-6.46
726.696	-3.46
726.721	-3.46
726.747	-12.46
726.772	-7.46
726.798	4.54
726.823	14.54
726.849	10.54
726.874	10.54
726.9	15.54
726.925	-1.46
726.951	-1.46
726.976	7.54
727.002	-9.46
727.027	9.54
727.053	12.54
727.078	-8.46
727.104	12.54
727.129	-5.46
727.155	1.54
727.18	12.54
727.205	2.54
727.231	0.54
727.256	-8.46
727.282	0.54
727.307	31.54
727.333	7.54
727.358	-14.46
727.383	-12.46
727.409	-15.46
727.434	7.54
727.46	-4.46
727.485	-1.46
727.511	-2.46
727.536	-8.46
727.561	-15.46
727.587	8.54
727.612	-18.46
727.637	-5.46
727.663	8.54
727.688	9.54
727.714	-8.46
727.739	-1.46
727.764	-9.46
727.79	-7.46
727.815	-7.46
727.841	6.54
727.866	0.54
727.891	-1.46
727.917	-15.46
727.942	-13.46
727.967	0.54
727.993	-15.46
728.018	-10.46
728.043	-10.46
728.069	14.54
728.094	14.54
728.119	-9.46
728.145	12.54
728.17	2.54
728.195	-7.46
728.221	-4.46
728.246	3.54
728.271	-10.46
728.297	-7.46
728.322	-0.46
728.347	-14.46
728.373	-9.46
728.398	-6.46
728.423	2.54
728.448	4.54
728.474	-11.46
728.499	-8.46
728.524	-15.46
728.55	-11.46
728.575	-9.46
728.6	-0.46
728.625	-2.46
728.651	0.54
728.676	4.54
728.701	8.54
728.727	4.54
728.752	-10.46
728.777	-2.46
728.802	-2.46
728.828	6.54
728.853	-13.46
728.878	-10.46
728.903	-27.46
728.929	-14.46
728.954	11.54
728.979	6.54
729.004	-8.46
729.03	-15.46
729.055	-1.46
729.08	-16.46
729.105	-10.46
729.13	5.54
729.156	-16.46
729.181	-11.46
729.206	-19.46
729.231	4.54
729.256	-8.46
729.282	2.54
729.307	-9.46
729.332	-11.46
729.357	2.54
729.382	-15.46
729.408	-0.46
729.433	5.54
729.458	0.54
729.483	13.54
729.508	-1.46
729.533	-12.46
729.559	4.54
729.584	-1.46
729.609	4.54
729.634	-7.46
729.659	-14.46
729.684	-1.46
729.71	15.54
729.735	-8.46
729.76	-3.46
729.785	3.54
729.81	25.54
729.835	3.54
729.86	-3.46
729.886	14.54
729.911	12.54
729.936	-0.46
729.961	17.54
729.986	10.54
730.011	66.54
730.036	201.54
730.061	1008.54
730.086	2686.54
730.112	3391.54
730.137	2848.54
730.162	2126.54
730.187	1630.54
730.212	1259.54
730.237	802.54
730.262	469.54
730.287	236.54
730.312	142.54
730.337	61.54
730.362	58.54
730.387	28.54
730.413	-0.46
730.438	4.54
730.463	14.54
730.488	6.54
730.513	2.54
730.538	3.54
730.563	11.54
730.588	-3.46
730.613	14.54
730.638	7.54
730.663	-6.46
730.688	10.54
730.713	7.54
730.738	-0.46
730.763	-3.46
730.788	-15.46
730.813	1.54
730.838	3.54
730.863	5.54
730.888	10.54
730.913	-0.46
730.938	-9.46
730.963	16.54
730.988	92.54
731.013	389.54
731.038	621.54
731.063	581.54
731.088	450.54
731.113	344.54
731.138	275.54
731.163	176.54
731.188	97.54
731.213	64.54
731.238	37.54
731.263	23.54
731.288	18.54
731.313	10.54
731.338	6.54
731.363	11.54
731.388	-6.46
731.413	0.54
731.438	-3.46
731.463	-8.46
731.487	-3.46
731.512	-5.46
731.537	-24.46
731.562	3.54
731.587	-0.46
731.612	-9.46
731.637	-4.46
731.662	-9.46
731.687	-9.46
731.712	-26.46
731.737	-2.46
731.762	-4.46
731.786	-3.46
731.811	-7.46
731.836	-4.46
731.861	-5.46
731.886	-10.46
731.911	1.54
731.936	8.54
731.961	-7.46
731.986	-9.46
732.01	-5.46
732.035	2.54
732.06	14.54
732.085	-5.46
732.11	-2.46
732.135	-25.46
732.16	-10.46
732.184	-15.46
732.209	-14.46
732.234	-18.46
732.259	-3.46
732.284	20.54
732.309	-13.46
732.334	-10.46
732.358	-16.46
732.383	-11.46
732.408	-18.46
732.433	-3.46
732.458	-7.46
732.482	15.54
732.507	-4.46
732.532	9.54
732.557	22.54
732.582	7.54
732.607	15.54
732.631	44.54
732.656	89.54
732.681	157.54
732.706	319.54
732.73	439.54
732.755	402.54
732.78	288.54
732.805	217.54
732.83	166.54
732.854	117.54
732.879	77.54
732.904	33.54
732.929	21.54
732.953	19.54
732.978	15.54
733.003	-4.46
733.028	-4.46
733.052	19.54
733.077	5.54
733.102	-0.46
733.127	-9.46
733.151	-5.46
733.176	17.54
733.201	0.54
733.226	-0.46
733.25	-5.46
733.275	11.54
733.3	3.54
733.324	13.54
733.349	8.54
733.374	2.54
733.399	-12.46
733.423	-1.46
733.448	-13.46
733.473	-7.46
733.497	-25.46
733.522	-17.46
733.547	4.54
733.571	7.54
733.596	2.54
733.621	5.54
733.646	-20.46
733.67	0.54
733.695	-4.46
733.72	7.54
733.744	3.54
733.769	7.54
733.794	15.54
733.818	-0.46
733.843	3.54
733.867	-10.46
733.892	-0.46
733.917	-6.46
733.941	0.54
733.966	-10.46
733.991	-9.46
734.015	16.54
734.04	-9.46
734.065	12.54
734.089	6.54
734.114	7.54
734.138	6.54
734.163	-12.46
734.188	-1.46
734.212	2.54
734.237	-2.46
734.261	-7.46
734.286	-18.46
734.311	-7.46
734.335	1.54
734.36	-6.46
734.384	12.54
734.409	-3.46
734.434	-9.46
734.458	-10.46
734.483	-10.46
734.507	-18.46
734.532	-8.46
734.556	-3.46
734.581	-17.46
734.606	-15.46
734.63	-7.46
734.655	-7.46
734.679	1.54
734.704	-7.46
734.728	-2.46
734.753	-10.46
734.777	6.54
734.802	-6.46
734.826	1.54
734.851	-15.46
734.876	2.54
734.9	9.54
734.925	12.54
734.949	-10.46
734.974	-8.46
734.998	-1.46
735.023	-20.46
735.047	-15.46
735.072	-5.46
735.096	-14.46
735.121	-7.46
735.145	-2.46
735.17	-2.46
735.194	1.54
735.219	-6.46
735.243	2.54
735.268	5.54
735.292	15.54
735.317	0.54
735.341	3.54
735.365	-18.46
735.39	-6.46
735.414	2.54
735.439	4.54
735.463	2.54
735.488	-7.46
735.512	-1.46
735.537	-7.46
735.561	-2.46
735.586	0.54
735.61	7.54
735.634	-6.46
735.659	-13.46
735.683	10.54
735.708	7.54
735.732	-10.46
735.757	-12.46
735.781	-7.46
735.805	1.54
735.83	-13.46
735.854	-17.46
735.879	-2.46
735.903	10.54
735.927	11.54
735.952	11.54
735.976	-10.46
736.001	-13.46
736.025	-11.46
736.049	-3.46
736.074	-7.46
736.098	-7.46
736.123	14.54
736.147	-2.46
736.171	-9.46
736.196	6.54
736.22	-11.46
736.244	4.54
736.269	-10.46
736.293	-12.46
736.317	-3.46
736.342	8.54
736.366	33.54
736.39	7.54
736.415	6.54
736.439	-3.46
736.463	-2.46
736.488	-3.46
736.512	-8.46
736.536	-5.46
736.561	12.54
736.585	-4.46
736.609	-7.46
736.634	-25.46
736.658	-6.46
736.682	-12.46
736.707	-1.46
736.731	-11.46
736.755	5.54
736.78	-0.46
736.804	1.54
736.828	-2.46
736.852	-10.46
736.877	-11.46
736.901	8.54
736.925	5.54
736.949	5.54
736.974	-9.46
736.998	-11.46
737.022	-9.46
737.047	-20.46
737.071	-0.46
737.095	5.54
737.119	1.54
737.144	-6.46
737.168	-15.46
737.192	-14.46
737.216	10.54
737.241	-13.46
737.265	1.54
737.289	-8.46
737.313	-2.46
737.337	-0.46
737.362	11.54
737.386	0.54
737.41	-12.46
737.434	7.54
737.459	0.54
737.483	9.54
737.507	6.54
737.531	18.54
737.555	3.54
737.58	9.54
737.604	2.54
737.628	-10.46
737.652	-10.46
737.676	-17.46
737.701	-0.46
737.725	20.54
737.749	10.54
737.773	1.54
737.797	4.54
737.821	-13.46
737.846	-13.46
737.87	17.54
737.894	18.54
737.918	-10.46
737.942	-6.46
737.966	1.54
737.99	11.54
738.015	-10.46
738.039	5.54
738.063	-6.46
738.087	20.54
738.111	-11.46
738.135	14.54
738.159	-4.46
738.184	-11.46
738.208	-1.46
738.232	1.54
738.256	2.54
738.28	0.54
738.304	-1.46
738.328	-12.46
738.352	7.54
738.376	4.54
738.4	9.54
738.425	-5.46
738.449	-15.46
738.473	14.54
738.497	2.54
738.521	11.54
738.545	2.54
738.569	9.54
738.593	12.54
738.617	25.54
738.641	-1.46
738.665	3.54
738.689	9.54
738.713	2.54
738.737	-3.46
738.762	24.54
738.786	0.54
738.81	-17.46
738.834	7.54
738.858	-4.46
738.882	-6.46
738.906	-7.46
738.93	-11.46
738.954	-12.46
738.978	15.54
739.002	2.54
739.026	-1.46
739.05	11.54
739.074	-1.46
739.098	27.54
739.122	6.54
739.146	-0.46
739.17	9.54
739.194	13.54
739.218	-13.46
739.242	0.54
739.266	-7.46
739.29	6.54
739.314	5.54
739.338	-7.46
739.362	-1.46
739.386	-2.46
739.41	9.54
739.434	1.54
739.458	6.54
739.482	10.54
739.506	13.54
739.53	-5.46
739.554	3.54
739.577	-11.46
739.601	4.54
739.625	-3.46
739.649	-6.46
739.673	-10.46
739.697	-1.46
739.721	-7.46
739.745	-1.46
739.769	18.54
739.793	-3.46
739.817	-3.46
739.841	-2.46
739.865	-0.46
739.889	-22.46
739.912	16.54
739.936	4.54
739.96	0.54
739.984	0.54
740.008	-5.46
740.032	-10.46
740.056	-4.46
740.08	-4.46
740.104	-16.46
740.127	-10.46
740.151	4.54
740.175	13.54
740.199	5.54
740.223	56.54
740.247	14.54
740.271	-5.46
740.295	-18.46
740.318	-24.46
740.342	-26.46
740.366	-6.46
740.39	16.54
740.414	-10.46
740.438	-6.46
740.461	18.54
740.485	4.54
740.509	-11.46
740.533	4.54
740.557	-22.46
740.581	-13.46
740.604	-18.46
740.628	-6.46
740.652	4.54
740.676	-9.46
740.7	13.54
740.723	-6.46
740.747	-9.46
740.771	-6.46
740.795	-6.46
740.819	1.54
740.842	4.54
740.866	1.54
740.89	20.54
740.914	-17.46
740.938	-30.46
740.961	-3.46
740.985	-1.46
741.009	3.54
741.033	6.54
741.056	3.54
741.08	-2.46
741.104	-9.46
741.128	6.54
741.151	4.54
741.175	-0.46
741.199	-20.46
741.223	-16.46
741.246	-13.46
741.27	2.54
741.294	-11.46
741.318	-10.46
741.341	-4.46
741.365	-10.46
741.389	11.54
741.413	9.54
741.436	9.54
741.46	-5.46
741.484	-12.46
741.507	-11.46
741.531	25.54
741.555	17.54
741.579	-3.46
741.602	-7.46
741.626	2.54
741.65	-16.46
741.673	-10.46
741.697	-3.46
741.721	-2.46
741.744	-14.46
741.768	-5.46
741.792	-6.46
741.815	-5.46
741.839	10.54
741.863	13.54
741.886	-6.46
741.91	2.54
741.934	-13.46
741.957	-22.46
741.981	-3.46
742.005	-7.46
742.028	-9.46
742.052	-11.46
742.075	9.54
742.099	19.54
742.123	4.54
742.146	-0.46
742.17	-2.46
742.194	-14.46
742.217	-5.46
742.241	-16.46
742.264	-7.46
742.288	26.54
742.312	6.54
742.335	-2.46
742.359	-9.46
742.382	-2.46
742.406	11.54
742.43	-10.46
742.453	-6.46
742.477	-14.46
742.5	-16.46
742.524	-10.46
742.548	2.54
742.571	-7.46
742.595	-5.46
742.618	-21.46
742.642	-6.46
742.665	6.54
742.689	-16.46
742.712	-3.46
742.736	2.54
742.76	-15.46
742.783	-5.46
742.807	7.54
742.83	-0.46
742.854	-10.46
742.877	-4.46
742.901	-21.46
742.924	-6.46
742.948	-6.46
742.971	3.54
742.995	-4.46
743.018	-17.46
743.042	-14.46
743.065	-7.46
743.089	-11.46
743.112	2.54
743.136	-10.46
743.159	-15.46
743.183	-11.46
743.206	-3.46
743.23	-7.46
743.253	-10.46
743.277	-8.46
743.3	-10.46
743.324	-5.46
743.347	-2.46
743.371	5.54
743.394	-6.46
743.418	6.54
743.441	5.54
743.465	6.54
743.488	-2.46
743.512	-14.46
743.535	8.54
743.558	2.54
743.582	5.54
743.605	-6.46
743.629	2.54
743.652	-4.46
743.676	-6.46
743.699	5.54
743.723	9.54
743.746	6.54
743.769	-3.46
743.793	-0.46
743.816	-6.46
743.84	16.54
743.863	-7.46
743.886	-5.46
743.91	5.54
743.933	-14.46
743.957	-13.46
743.98	0.54
744.003	-3.46
744.027	2.54
744.05	-11.46
744.074	-10.46
744.097	-21.46
744.12	-3.46
744.144	-6.46
744.167	9.54
744.19	-11.46
744.214	-18.46
744.237	-17.46
744.26	17.54
744.284	-7.46
744.307	-10.46
744.331	5.54
744.354	-22.46
744.377	-4.46
744.401	3.54
744.424	-1.46
744.447	-9.46
744.471	-9.46
