Data from HighRes_mercury_15_13_11_07_2024_HR4C61891__86__15-14-31-786.txt Node

Date: Thu Nov 07 15:14:31 EST 2024
User: crc00042
Spectrometer: HR4C6189
Trigger mode: 4
Integration Time (sec): 1.000000E-1
Scans to average: 1
Electric dark correction enabled: true
Nonlinearity correction enabled: false
Boxcar width: 0
XAxis mode: Wavelengths
Number of Pixels in Spectrum: 3648
>>>>>Begin Spectral Data<<<<<
639.567	-32.23
639.602	-32.23
639.636	-32.23
639.67	-40.23
639.704	-13.23
639.738	-4.23
639.773	8.77
639.807	-8.23
639.841	-6.23
639.875	5.77
639.909	8.77
639.943	3.77
639.978	4.77
640.012	-6.23
640.046	3.77
640.08	-7.23
640.114	-3.23
640.148	-0.23
640.182	-4.23
640.217	1.77
640.251	20.77
640.285	18.77
640.319	-8.23
640.353	-0.23
640.387	12.77
640.421	3.77
640.455	6.77
640.49	20.77
640.524	-4.23
640.558	-5.23
640.592	-1.23
640.626	-5.23
640.66	11.77
640.694	8.77
640.728	-1.23
640.762	1.77
640.796	13.77
640.83	21.77
640.865	4.77
640.899	4.77
640.933	-7.23
640.967	-12.23
641.001	-0.23
641.035	9.77
641.069	23.77
641.103	-1.23
641.137	-22.23
641.171	-13.23
641.205	6.77
641.239	-3.23
641.273	1.77
641.307	8.77
641.341	6.77
641.375	5.77
641.409	-0.23
641.443	10.77
641.477	9.77
641.511	6.77
641.545	13.77
641.579	14.77
641.614	21.77
641.648	2.77
641.682	4.77
641.716	11.77
641.75	10.77
641.784	4.77
641.818	-11.23
641.852	9.77
641.886	9.77
641.919	13.77
641.953	-3.23
641.987	-7.23
642.021	0.77
642.055	-2.23
642.089	6.77
642.123	-3.23
642.157	-0.23
642.191	1.77
642.225	3.77
642.259	9.77
642.293	7.77
642.327	15.77
642.361	-8.23
642.395	6.77
642.429	6.77
642.463	18.77
642.497	20.77
642.531	11.77
642.565	-1.23
642.599	-2.23
642.633	-1.23
642.666	9.77
642.7	19.77
642.734	10.77
642.768	-5.23
642.802	11.77
642.836	11.77
642.87	-15.23
642.904	7.77
642.938	1.77
642.972	-0.23
643.005	4.77
643.039	17.77
643.073	-2.23
643.107	6.77
643.141	2.77
643.175	6.77
643.209	-0.23
643.243	-17.23
643.276	3.77
643.31	-13.23
643.344	-4.23
643.378	3.77
643.412	18.77
643.446	12.77
643.48	0.77
643.513	-7.23
643.547	11.77
643.581	3.77
643.615	-7.23
643.649	-12.23
643.683	2.77
643.716	0.77
643.75	1.77
643.784	1.77
643.818	13.77
643.852	2.77
643.886	-4.23
643.919	6.77
643.953	8.77
643.987	2.77
644.021	18.77
644.055	-3.23
644.088	18.77
644.122	4.77
644.156	-6.23
644.19	5.77
644.224	9.77
644.257	-7.23
644.291	6.77
644.325	7.77
644.359	-4.23
644.392	22.77
644.426	12.77
644.46	-11.23
644.494	2.77
644.527	0.77
644.561	4.77
644.595	3.77
644.629	3.77
644.662	-2.23
644.696	6.77
644.73	14.77
644.764	8.77
644.797	1.77
644.831	8.77
644.865	13.77
644.899	1.77
644.932	36.77
644.966	-8.23
645	21.77
645.033	14.77
645.067	-19.23
645.101	17.77
645.135	-4.23
645.168	-3.23
645.202	3.77
645.236	2.77
645.269	2.77
645.303	-11.23
645.337	1.77
645.37	-0.23
645.404	7.77
645.438	5.77
645.471	6.77
645.505	15.77
645.539	-5.23
645.572	-8.23
645.606	-16.23
645.64	2.77
645.673	-10.23
645.707	19.77
645.741	5.77
645.774	-1.23
645.808	19.77
645.842	3.77
645.875	3.77
645.909	-8.23
645.943	1.77
645.976	6.77
646.01	7.77
646.043	16.77
646.077	29.77
646.111	12.77
646.144	14.77
646.178	10.77
646.212	-9.23
646.245	-4.23
646.279	1.77
646.312	8.77
646.346	45.77
646.38	7.77
646.413	6.77
646.447	9.77
646.48	2.77
646.514	7.77
646.547	-6.23
646.581	-4.23
646.615	16.77
646.648	10.77
646.682	9.77
646.715	-4.23
646.749	12.77
646.782	12.77
646.816	-10.23
646.85	-2.23
646.883	-25.23
646.917	7.77
646.95	7.77
646.984	7.77
647.017	6.77
647.051	8.77
647.084	1.77
647.118	18.77
647.151	-12.23
647.185	11.77
647.218	-6.23
647.252	-9.23
647.285	-4.23
647.319	-13.23
647.353	14.77
647.386	21.77
647.42	-3.23
647.453	4.77
647.487	-16.23
647.52	5.77
647.553	8.77
647.587	13.77
647.62	3.77
647.654	12.77
647.687	7.77
647.721	6.77
647.754	-5.23
647.788	2.77
647.821	-18.23
647.855	15.77
647.888	1.77
647.922	7.77
647.955	2.77
647.989	11.77
648.022	-7.23
648.055	20.77
648.089	3.77
648.122	26.77
648.156	-4.23
648.189	1.77
648.223	17.77
648.256	21.77
648.29	13.77
648.323	-1.23
648.356	9.77
648.39	5.77
648.423	4.77
648.457	7.77
648.49	4.77
648.523	7.77
648.557	-1.23
648.59	-9.23
648.624	4.77
648.657	-5.23
648.69	13.77
648.724	10.77
648.757	24.77
648.791	16.77
648.824	16.77
648.857	26.77
648.891	12.77
648.924	5.77
648.957	4.77
648.991	-1.23
649.024	14.77
649.057	3.77
649.091	8.77
649.124	12.77
649.158	25.77
649.191	16.77
649.224	5.77
649.258	19.77
649.291	4.77
649.324	24.77
649.358	0.77
649.391	13.77
649.424	4.77
649.458	4.77
649.491	-4.23
649.524	-5.23
649.557	-6.23
649.591	-10.23
649.624	0.77
649.657	1.77
649.691	0.77
649.724	-5.23
649.757	9.77
649.791	-8.23
649.824	11.77
649.857	11.77
649.89	2.77
649.924	-8.23
649.957	0.77
649.99	-11.23
650.023	-3.23
650.057	-1.23
650.09	15.77
650.123	-6.23
650.157	16.77
650.19	34.77
650.223	-1.23
650.256	12.77
650.29	5.77
650.323	23.77
650.356	19.77
650.389	2.77
650.423	-5.23
650.456	6.77
650.489	10.77
650.522	1.77
650.555	4.77
650.589	10.77
650.622	8.77
650.655	11.77
650.688	-4.23
650.721	-7.23
650.755	5.77
650.788	3.77
650.821	5.77
650.854	8.77
650.887	5.77
650.921	1.77
650.954	1.77
650.987	6.77
651.02	11.77
651.053	-18.23
651.087	-6.23
651.12	17.77
651.153	5.77
651.186	-6.23
651.219	-26.23
651.252	10.77
651.286	3.77
651.319	8.77
651.352	4.77
651.385	11.77
651.418	12.77
651.451	-0.23
651.484	0.77
651.518	-4.23
651.551	10.77
651.584	9.77
651.617	27.77
651.65	2.77
651.683	24.77
651.716	3.77
651.749	-8.23
651.783	5.77
651.816	4.77
651.849	11.77
651.882	6.77
651.915	6.77
651.948	2.77
651.981	-4.23
652.014	-17.23
652.047	-1.23
652.08	-0.23
652.114	-0.23
652.147	-11.23
652.18	0.77
652.213	23.77
652.246	9.77
652.279	8.77
652.312	10.77
652.345	6.77
652.378	18.77
652.411	6.77
652.444	6.77
652.477	8.77
652.51	4.77
652.543	-14.23
652.576	9.77
652.609	5.77
652.642	3.77
652.675	7.77
652.709	3.77
652.742	8.77
652.775	1.77
652.808	23.77
652.841	-1.23
652.874	25.77
652.907	12.77
652.94	0.77
652.973	-2.23
653.006	-2.23
653.039	2.77
653.072	6.77
653.105	0.77
653.138	-14.23
653.171	2.77
653.204	8.77
653.237	-3.23
653.27	-6.23
653.303	2.77
653.336	22.77
653.368	-1.23
653.401	-5.23
653.434	-10.23
653.467	7.77
653.5	-7.23
653.533	-0.23
653.566	-5.23
653.599	-12.23
653.632	2.77
653.665	-8.23
653.698	-21.23
653.731	-8.23
653.764	8.77
653.797	13.77
653.83	8.77
653.863	0.77
653.896	0.77
653.929	-1.23
653.961	16.77
653.994	3.77
654.027	-14.23
654.06	2.77
654.093	-6.23
654.126	-1.23
654.159	-12.23
654.192	11.77
654.225	-8.23
654.258	-12.23
654.29	3.77
654.323	5.77
654.356	-8.23
654.389	14.77
654.422	3.77
654.455	15.77
654.488	8.77
654.521	-29.23
654.553	-5.23
654.586	11.77
654.619	2.77
654.652	-2.23
654.685	1.77
654.718	15.77
654.751	9.77
654.783	-1.23
654.816	13.77
654.849	6.77
654.882	-7.23
654.915	-9.23
654.948	3.77
654.98	-12.23
655.013	-1.23
655.046	-15.23
655.079	-12.23
655.112	-0.23
655.144	-0.23
655.177	-3.23
655.21	6.77
655.243	4.77
655.276	-2.23
655.308	-1.23
655.341	-9.23
655.374	16.77
655.407	-4.23
655.44	1.77
655.472	20.77
655.505	-2.23
655.538	-3.23
655.571	0.77
655.603	-6.23
655.636	-23.23
655.669	15.77
655.702	7.77
655.734	-13.23
655.767	-0.23
655.8	11.77
655.833	9.77
655.865	12.77
655.898	-9.23
655.931	-0.23
655.964	14.77
655.996	-7.23
656.029	7.77
656.062	9.77
656.095	-9.23
656.127	4.77
656.16	4.77
656.193	11.77
656.225	0.77
656.258	6.77
656.291	-3.23
656.324	9.77
656.356	12.77
656.389	5.77
656.422	17.77
656.454	-6.23
656.487	8.77
656.52	14.77
656.552	-9.23
656.585	3.77
656.618	16.77
656.65	10.77
656.683	-0.23
656.716	10.77
656.748	7.77
656.781	7.77
656.814	-16.23
656.846	5.77
656.879	4.77
656.912	7.77
656.944	-17.23
656.977	-21.23
657.01	6.77
657.042	10.77
657.075	1.77
657.108	-9.23
657.14	8.77
657.173	25.77
657.205	23.77
657.238	1.77
657.271	4.77
657.303	1.77
657.336	6.77
657.369	-0.23
657.401	9.77
657.434	2.77
657.466	18.77
657.499	-5.23
657.532	-6.23
657.564	11.77
657.597	8.77
657.629	16.77
657.662	9.77
657.694	-1.23
657.727	-9.23
657.76	12.77
657.792	-11.23
657.825	-9.23
657.857	-8.23
657.89	-4.23
657.922	-0.23
657.955	-11.23
657.987	15.77
658.02	11.77
658.053	0.77
658.085	9.77
658.118	-2.23
658.15	11.77
658.183	22.77
658.215	-6.23
658.248	1.77
658.28	-1.23
658.313	25.77
658.345	10.77
658.378	-7.23
658.41	-0.23
658.443	19.77
658.475	-5.23
658.508	-3.23
658.54	-4.23
658.573	0.77
658.605	7.77
658.638	1.77
658.67	8.77
658.703	-1.23
658.735	-1.23
658.768	16.77
658.8	0.77
658.833	16.77
658.865	-3.23
658.898	7.77
658.93	-13.23
658.963	-9.23
658.995	-18.23
659.028	5.77
659.06	1.77
659.092	-1.23
659.125	-2.23
659.157	11.77
659.19	-13.23
659.222	-3.23
659.255	-2.23
659.287	10.77
659.32	-5.23
659.352	-2.23
659.384	21.77
659.417	-1.23
659.449	-3.23
659.482	11.77
659.514	-2.23
659.546	-5.23
659.579	-2.23
659.611	4.77
659.644	0.77
659.676	-1.23
659.708	-16.23
659.741	-12.23
659.773	14.77
659.806	3.77
659.838	10.77
659.87	-6.23
659.903	-4.23
659.935	4.77
659.967	6.77
660	-0.23
660.032	-13.23
660.065	18.77
660.097	7.77
660.129	2.77
660.162	-15.23
660.194	1.77
660.226	3.77
660.259	6.77
660.291	2.77
660.323	-6.23
660.356	-4.23
660.388	0.77
660.42	15.77
660.453	13.77
660.485	11.77
660.517	26.77
660.55	15.77
660.582	12.77
660.614	8.77
660.647	-2.23
660.679	-15.23
660.711	-2.23
660.743	-10.23
660.776	-5.23
660.808	7.77
660.84	-2.23
660.873	0.77
660.905	0.77
660.937	-14.23
660.969	3.77
661.002	4.77
661.034	26.77
661.066	-9.23
661.099	14.77
661.131	8.77
661.163	4.77
661.195	1.77
661.228	1.77
661.26	-9.23
661.292	0.77
661.324	10.77
661.357	4.77
661.389	4.77
661.421	-6.23
661.453	-18.23
661.485	-9.23
661.518	7.77
661.55	-0.23
661.582	-7.23
661.614	16.77
661.647	4.77
661.679	-1.23
661.711	2.77
661.743	-9.23
661.775	1.77
661.808	34.77
661.84	1.77
661.872	-3.23
661.904	6.77
661.936	8.77
661.969	1.77
662.001	-4.23
662.033	0.77
662.065	2.77
662.097	0.77
662.129	18.77
662.162	-1.23
662.194	13.77
662.226	3.77
662.258	12.77
662.29	1.77
662.322	-15.23
662.355	-18.23
662.387	19.77
662.419	18.77
662.451	6.77
662.483	7.77
662.515	3.77
662.547	10.77
662.58	8.77
662.612	-0.23
662.644	-13.23
662.676	11.77
662.708	7.77
662.74	-5.23
662.772	3.77
662.804	19.77
662.836	19.77
662.869	-3.23
662.901	3.77
662.933	-12.23
662.965	26.77
662.997	14.77
663.029	-14.23
663.061	0.77
663.093	-15.23
663.125	4.77
663.157	9.77
663.189	10.77
663.221	13.77
663.254	0.77
663.286	12.77
663.318	-5.23
663.35	2.77
663.382	-9.23
663.414	11.77
663.446	7.77
663.478	-9.23
663.51	24.77
663.542	-4.23
663.574	15.77
663.606	1.77
663.638	-5.23
663.67	-1.23
663.702	17.77
663.734	5.77
663.766	20.77
663.798	2.77
663.83	12.77
663.862	10.77
663.894	2.77
663.926	2.77
663.958	19.77
663.99	1.77
664.022	14.77
664.054	-0.23
664.086	-9.23
664.118	-7.23
664.15	-1.23
664.182	10.77
664.214	-8.23
664.246	2.77
664.278	5.77
664.31	9.77
664.342	-9.23
664.374	-6.23
664.406	4.77
664.438	3.77
664.47	22.77
664.502	-1.23
664.534	0.77
664.566	12.77
664.598	16.77
664.63	-0.23
664.662	12.77
664.693	-0.23
664.725	-2.23
664.757	11.77
664.789	-18.23
664.821	5.77
664.853	4.77
664.885	-4.23
664.917	-6.23
664.949	14.77
664.981	22.77
665.013	6.77
665.045	-9.23
665.076	-13.23
665.108	-8.23
665.14	-0.23
665.172	5.77
665.204	10.77
665.236	-13.23
665.268	12.77
665.3	-2.23
665.331	-1.23
665.363	23.77
665.395	3.77
665.427	5.77
665.459	1.77
665.491	3.77
665.523	0.77
665.555	-2.23
665.586	-5.23
665.618	-0.23
665.65	-1.23
665.682	5.77
665.714	3.77
665.746	11.77
665.777	8.77
665.809	8.77
665.841	5.77
665.873	5.77
665.905	14.77
665.937	10.77
665.968	2.77
666	-6.23
666.032	3.77
666.064	6.77
666.096	10.77
666.127	2.77
666.159	6.77
666.191	9.77
666.223	-3.23
666.255	5.77
666.286	9.77
666.318	-5.23
666.35	12.77
666.382	2.77
666.413	1.77
666.445	-6.23
666.477	0.77
666.509	-2.23
666.54	9.77
666.572	-7.23
666.604	4.77
666.636	-2.23
666.667	18.77
666.699	22.77
666.731	4.77
666.763	-9.23
666.794	-0.23
666.826	-5.23
666.858	-11.23
666.89	13.77
666.921	8.77
666.953	-1.23
666.985	10.77
667.017	30.77
667.048	3.77
667.08	7.77
667.112	-8.23
667.143	2.77
667.175	4.77
667.207	4.77
667.238	19.77
667.27	20.77
667.302	7.77
667.334	7.77
667.365	15.77
667.397	2.77
667.429	-10.23
667.46	-1.23
667.492	5.77
667.524	-15.23
667.555	-21.23
667.587	-2.23
667.619	-9.23
667.65	-3.23
667.682	15.77
667.714	-1.23
667.745	-3.23
667.777	5.77
667.808	7.77
667.84	10.77
667.872	-0.23
667.903	17.77
667.935	-4.23
667.967	-0.23
667.998	1.77
668.03	-6.23
668.061	1.77
668.093	6.77
668.125	21.77
668.156	9.77
668.188	4.77
668.22	1.77
668.251	8.77
668.283	8.77
668.314	12.77
668.346	3.77
668.377	14.77
668.409	9.77
668.441	18.77
668.472	13.77
668.504	20.77
668.535	12.77
668.567	9.77
668.599	4.77
668.63	2.77
668.662	2.77
668.693	24.77
668.725	18.77
668.756	14.77
668.788	-5.23
668.819	8.77
668.851	2.77
668.882	-4.23
668.914	0.77
668.946	-9.23
668.977	1.77
669.009	-9.23
669.04	-19.23
669.072	-2.23
669.103	1.77
669.135	10.77
669.166	7.77
669.198	15.77
669.229	14.77
669.261	3.77
669.292	-11.23
669.324	6.77
669.355	2.77
669.387	2.77
669.418	10.77
669.45	-1.23
669.481	2.77
669.513	9.77
669.544	16.77
669.576	3.77
669.607	7.77
669.639	10.77
669.67	-12.23
669.701	0.77
669.733	-18.23
669.764	-3.23
669.796	-12.23
669.827	-0.23
669.859	-0.23
669.89	-0.23
669.922	3.77
669.953	3.77
669.985	-8.23
670.016	9.77
670.047	5.77
670.079	-7.23
670.11	7.77
670.142	-10.23
670.173	6.77
670.204	-3.23
670.236	-0.23
670.267	-5.23
670.299	-13.23
670.33	-7.23
670.362	0.77
670.393	-17.23
670.424	9.77
670.456	-14.23
670.487	-5.23
670.518	-12.23
670.55	7.77
670.581	6.77
670.613	5.77
670.644	12.77
670.675	0.77
670.707	-12.23
670.738	-10.23
670.769	-4.23
670.801	-16.23
670.832	4.77
670.864	6.77
670.895	9.77
670.926	1.77
670.958	8.77
670.989	19.77
671.02	-9.23
671.052	-13.23
671.083	-4.23
671.114	-0.23
671.146	25.77
671.177	15.77
671.208	-4.23
671.24	-3.23
671.271	-9.23
671.302	-1.23
671.333	-0.23
671.365	-0.23
671.396	10.77
671.427	11.77
671.459	25.77
671.49	8.77
671.521	9.77
671.553	10.77
671.584	7.77
671.615	-3.23
671.646	-1.23
671.678	1.77
671.709	-9.23
671.74	-7.23
671.771	-2.23
671.803	-11.23
671.834	-5.23
671.865	-1.23
671.896	6.77
671.928	-1.23
671.959	-9.23
671.99	0.77
672.021	-5.23
672.053	4.77
672.084	10.77
672.115	0.77
672.146	-14.23
672.178	-1.23
672.209	-10.23
672.24	-9.23
672.271	22.77
672.303	-8.23
672.334	3.77
672.365	-0.23
672.396	5.77
672.427	-0.23
672.459	16.77
672.49	26.77
672.521	11.77
672.552	5.77
672.583	7.77
672.615	-3.23
672.646	5.77
672.677	1.77
672.708	-4.23
672.739	0.77
672.77	4.77
672.802	15.77
672.833	-9.23
672.864	-4.23
672.895	3.77
672.926	-3.23
672.957	-5.23
672.989	-9.23
673.02	3.77
673.051	-6.23
673.082	1.77
673.113	-14.23
673.144	-5.23
673.175	-3.23
673.206	-14.23
673.238	6.77
673.269	4.77
673.3	-16.23
673.331	8.77
673.362	3.77
673.393	1.77
673.424	7.77
673.455	18.77
673.487	3.77
673.518	4.77
673.549	17.77
673.58	1.77
673.611	6.77
673.642	-1.23
673.673	-18.23
673.704	-2.23
673.735	4.77
673.766	-5.23
673.797	1.77
673.828	10.77
673.86	-1.23
673.891	-16.23
673.922	-8.23
673.953	12.77
673.984	9.77
674.015	11.77
674.046	9.77
674.077	7.77
674.108	-13.23
674.139	10.77
674.17	-3.23
674.201	2.77
674.232	-12.23
674.263	-5.23
674.294	1.77
674.325	-8.23
674.356	2.77
674.387	17.77
674.418	13.77
674.449	-14.23
674.48	-1.23
674.511	1.77
674.542	-0.23
674.573	-9.23
674.604	17.77
674.635	1.77
674.666	8.77
674.697	2.77
674.728	-10.23
674.759	-1.23
674.79	-21.23
674.821	-4.23
674.852	-0.23
674.883	-17.23
674.914	4.77
674.945	3.77
674.976	3.77
675.007	-9.23
675.038	-17.23
675.069	-5.23
675.1	-8.23
675.131	19.77
675.162	-14.23
675.193	-11.23
675.224	-4.23
675.254	9.77
675.285	-0.23
675.316	7.77
675.347	16.77
675.378	-15.23
675.409	-21.23
675.44	5.77
675.471	8.77
675.502	-18.23
675.533	6.77
675.564	-2.23
675.595	-5.23
675.625	3.77
675.656	9.77
675.687	11.77
675.718	-20.23
675.749	6.77
675.78	10.77
675.811	-3.23
675.842	4.77
675.873	-3.23
675.903	5.77
675.934	9.77
675.965	-16.23
675.996	-1.23
676.027	-8.23
676.058	-9.23
676.089	-13.23
676.119	4.77
676.15	-4.23
676.181	2.77
676.212	-2.23
676.243	1.77
676.274	-6.23
676.304	7.77
676.335	3.77
676.366	-0.23
676.397	-0.23
676.428	1.77
676.459	6.77
676.489	16.77
676.52	22.77
676.551	-0.23
676.582	-4.23
676.613	7.77
676.643	-0.23
676.674	12.77
676.705	-6.23
676.736	6.77
676.767	17.77
676.797	6.77
676.828	-0.23
676.859	-8.23
676.89	-6.23
676.92	2.77
676.951	9.77
676.982	13.77
677.013	23.77
677.044	13.77
677.074	7.77
677.105	-1.23
677.136	9.77
677.167	0.77
677.197	8.77
677.228	-1.23
677.259	15.77
677.289	3.77
677.32	-9.23
677.351	6.77
677.382	5.77
677.412	5.77
677.443	10.77
677.474	8.77
677.505	-11.23
677.535	8.77
677.566	7.77
677.597	-0.23
677.627	1.77
677.658	-7.23
677.689	4.77
677.72	1.77
677.75	-1.23
677.781	-8.23
677.812	-0.23
677.842	6.77
677.873	-2.23
677.904	-8.23
677.934	-5.23
677.965	-2.23
677.996	-4.23
678.026	2.77
678.057	5.77
678.088	-9.23
678.118	-5.23
678.149	-8.23
678.18	14.77
678.21	0.77
678.241	3.77
678.272	-6.23
678.302	6.77
678.333	15.77
678.363	12.77
678.394	9.77
678.425	14.77
678.455	9.77
678.486	9.77
678.517	-0.23
678.547	8.77
678.578	5.77
678.608	11.77
678.639	0.77
678.67	1.77
678.7	-10.23
678.731	-2.23
678.761	0.77
678.792	13.77
678.823	5.77
678.853	-2.23
678.884	-4.23
678.914	11.77
678.945	4.77
678.975	-11.23
679.006	3.77
679.037	2.77
679.067	23.77
679.098	5.77
679.128	-10.23
679.159	10.77
679.189	30.77
679.22	-1.23
679.25	2.77
679.281	-5.23
679.312	-12.23
679.342	8.77
679.373	26.77
679.403	2.77
679.434	6.77
679.464	4.77
679.495	1.77
679.525	11.77
679.556	-11.23
679.586	-3.23
679.617	-6.23
679.647	6.77
679.678	4.77
679.708	4.77
679.739	-6.23
679.769	2.77
679.8	-9.23
679.83	-4.23
679.861	10.77
679.891	2.77
679.922	-9.23
679.952	8.77
679.983	13.77
680.013	2.77
680.044	-5.23
680.074	5.77
680.105	-0.23
680.135	6.77
680.165	23.77
680.196	1.77
680.226	4.77
680.257	6.77
680.287	-0.23
680.318	-6.23
680.348	-11.23
680.379	-1.23
680.409	8.77
680.439	-24.23
680.47	-2.23
680.5	1.77
680.531	1.77
680.561	2.77
680.592	11.77
680.622	7.77
680.652	6.77
680.683	6.77
680.713	1.77
680.744	-1.23
680.774	-2.23
680.804	-2.23
680.835	-3.23
680.865	-1.23
680.896	19.77
680.926	26.77
680.956	3.77
680.987	-0.23
681.017	9.77
681.047	7.77
681.078	-14.23
681.108	5.77
681.139	-1.23
681.169	-9.23
681.199	-9.23
681.23	17.77
681.26	10.77
681.29	9.77
681.321	-1.23
681.351	-0.23
681.381	8.77
681.412	-9.23
681.442	-1.23
681.472	11.77
681.503	4.77
681.533	-2.23
681.563	-9.23
681.594	-5.23
681.624	-4.23
681.654	-3.23
681.685	-5.23
681.715	-7.23
681.745	-8.23
681.775	-9.23
681.806	11.77
681.836	8.77
681.866	-1.23
681.897	-7.23
681.927	0.77
681.957	-14.23
681.987	2.77
682.018	-14.23
682.048	4.77
682.078	3.77
682.109	19.77
682.139	2.77
682.169	9.77
682.199	5.77
682.23	-11.23
682.26	-4.23
682.29	-13.23
682.32	-4.23
682.351	-0.23
682.381	3.77
682.411	-1.23
682.441	6.77
682.472	-9.23
682.502	-11.23
682.532	-2.23
682.562	-0.23
682.592	18.77
682.623	0.77
682.653	11.77
682.683	0.77
682.713	9.77
682.743	5.77
682.774	-15.23
682.804	-1.23
682.834	19.77
682.864	-8.23
682.894	5.77
682.925	1.77
682.955	-9.23
682.985	-15.23
683.015	-1.23
683.045	-1.23
683.076	-15.23
683.106	-4.23
683.136	3.77
683.166	5.77
683.196	-1.23
683.226	-6.23
683.257	3.77
683.287	-7.23
683.317	-5.23
683.347	-8.23
683.377	-18.23
683.407	3.77
683.437	9.77
683.468	9.77
683.498	-1.23
683.528	1.77
683.558	-6.23
683.588	-0.23
683.618	-5.23
683.648	-13.23
683.678	1.77
683.708	6.77
683.739	-4.23
683.769	0.77
683.799	-13.23
683.829	11.77
683.859	2.77
683.889	10.77
683.919	-10.23
683.949	0.77
683.979	4.77
684.009	-0.23
684.039	9.77
684.07	1.77
684.1	18.77
684.13	19.77
684.16	12.77
684.19	-3.23
684.22	-5.23
684.25	-0.23
684.28	-12.23
684.31	11.77
684.34	-8.23
684.37	-7.23
684.4	-5.23
684.43	-0.23
684.46	6.77
684.49	13.77
684.52	3.77
684.55	9.77
684.58	-13.23
684.61	5.77
684.64	2.77
684.67	7.77
684.7	1.77
684.73	22.77
684.76	6.77
684.79	2.77
684.82	16.77
684.85	5.77
684.88	14.77
684.91	10.77
684.94	6.77
684.97	-7.23
685	-16.23
685.03	-9.23
685.06	-13.23
685.09	0.77
685.12	22.77
685.15	-16.23
685.18	0.77
685.21	0.77
685.24	17.77
685.27	15.77
685.3	17.77
685.33	1.77
685.36	8.77
685.39	13.77
685.42	14.77
685.45	-3.23
685.48	-5.23
685.51	-15.23
685.54	8.77
685.569	5.77
685.599	9.77
685.629	9.77
685.659	7.77
685.689	-1.23
685.719	-2.23
685.749	-14.23
685.779	19.77
685.809	-1.23
685.839	1.77
685.869	4.77
685.898	17.77
685.928	10.77
685.958	7.77
685.988	11.77
686.018	11.77
686.048	1.77
686.078	0.77
686.108	2.77
686.137	5.77
686.167	10.77
686.197	-4.23
686.227	2.77
686.257	30.77
686.287	9.77
686.317	-9.23
686.346	-1.23
686.376	-5.23
686.406	0.77
686.436	-2.23
686.466	-7.23
686.496	-9.23
686.525	-2.23
686.555	4.77
686.585	14.77
686.615	25.77
686.645	2.77
686.675	0.77
686.704	11.77
686.734	5.77
686.764	4.77
686.794	-1.23
686.824	-1.23
686.853	8.77
686.883	14.77
686.913	12.77
686.943	8.77
686.973	-3.23
687.002	-3.23
687.032	5.77
687.062	2.77
687.092	25.77
687.121	-9.23
687.151	5.77
687.181	-3.23
687.211	9.77
687.24	15.77
687.27	4.77
687.3	-5.23
687.33	2.77
687.359	-13.23
687.389	2.77
687.419	-5.23
687.449	-0.23
687.478	0.77
687.508	-7.23
687.538	9.77
687.568	10.77
687.597	4.77
687.627	2.77
687.657	13.77
687.686	15.77
687.716	18.77
687.746	-11.23
687.776	3.77
687.805	4.77
687.835	-7.23
687.865	17.77
687.894	17.77
687.924	-0.23
687.954	22.77
687.983	6.77
688.013	-4.23
688.043	-1.23
688.072	4.77
688.102	0.77
688.132	-8.23
688.161	-11.23
688.191	12.77
688.221	21.77
688.25	7.77
688.28	18.77
688.31	4.77
688.339	9.77
688.369	-3.23
688.399	0.77
688.428	-5.23
688.458	-3.23
688.488	8.77
688.517	-5.23
688.547	-13.23
688.576	12.77
688.606	7.77
688.636	-2.23
688.665	1.77
688.695	18.77
688.725	10.77
688.754	2.77
688.784	-2.23
688.813	12.77
688.843	6.77
688.873	-7.23
688.902	-16.23
688.932	5.77
688.961	27.77
688.991	3.77
689.02	10.77
689.05	-8.23
689.08	6.77
689.109	15.77
689.139	1.77
689.168	7.77
689.198	2.77
689.227	14.77
689.257	6.77
689.287	6.77
689.316	-7.23
689.346	7.77
689.375	-0.23
689.405	10.77
689.434	-9.23
689.464	-2.23
689.493	-5.23
689.523	-12.23
689.552	-12.23
689.582	5.77
689.611	0.77
689.641	6.77
689.67	1.77
689.7	14.77
689.73	16.77
689.759	23.77
689.789	13.77
689.818	-6.23
689.848	4.77
689.877	8.77
689.906	3.77
689.936	-8.23
689.965	7.77
689.995	5.77
690.024	26.77
690.054	-1.23
690.083	12.77
690.113	-6.23
690.142	5.77
690.172	1.77
690.201	23.77
690.231	22.77
690.26	23.77
690.29	4.77
690.319	-0.23
690.348	1.77
690.378	3.77
690.407	-4.23
690.437	10.77
690.466	-3.23
690.496	1.77
690.525	9.77
690.555	2.77
690.584	16.77
690.613	4.77
690.643	16.77
690.672	0.77
690.702	1.77
690.731	2.77
690.76	40.77
690.79	41.77
690.819	48.77
690.849	21.77
690.878	18.77
690.907	8.77
690.937	18.77
690.966	28.77
690.996	14.77
691.025	5.77
691.054	-0.23
691.084	7.77
691.113	1.77
691.142	0.77
691.172	10.77
691.201	24.77
691.23	0.77
691.26	12.77
691.289	7.77
691.319	-1.23
691.348	-7.23
691.377	10.77
691.407	3.77
691.436	-2.23
691.465	-7.23
691.495	-0.23
691.524	-16.23
691.553	3.77
691.583	3.77
691.612	20.77
691.641	13.77
691.67	16.77
691.7	1.77
691.729	0.77
691.758	11.77
691.788	-0.23
691.817	-16.23
691.846	0.77
691.876	14.77
691.905	2.77
691.934	-8.23
691.963	11.77
691.993	-17.23
692.022	-0.23
692.051	-13.23
692.081	-2.23
692.11	19.77
692.139	7.77
692.168	9.77
692.198	28.77
692.227	22.77
692.256	21.77
692.285	4.77
692.315	-9.23
692.344	-7.23
692.373	3.77
692.402	-25.23
692.432	-2.23
692.461	-0.23
692.49	3.77
692.519	1.77
692.548	12.77
692.578	18.77
692.607	5.77
692.636	-4.23
692.665	3.77
692.694	4.77
692.724	9.77
692.753	9.77
692.782	15.77
692.811	10.77
692.84	3.77
692.87	14.77
692.899	8.77
692.928	1.77
692.957	20.77
692.986	6.77
693.016	18.77
693.045	0.77
693.074	1.77
693.103	9.77
693.132	-2.23
693.161	11.77
693.191	3.77
693.22	0.77
693.249	-3.23
693.278	-2.23
693.307	4.77
693.336	-4.23
693.365	-21.23
693.395	-3.23
693.424	7.77
693.453	14.77
693.482	7.77
693.511	16.77
693.54	11.77
693.569	7.77
693.598	-3.23
693.628	24.77
693.657	28.77
693.686	22.77
693.715	6.77
693.744	16.77
693.773	14.77
693.802	2.77
693.831	-8.23
693.86	9.77
693.889	2.77
693.919	12.77
693.948	14.77
693.977	17.77
694.006	4.77
694.035	-12.23
694.064	-10.23
694.093	11.77
694.122	-0.23
694.151	4.77
694.18	8.77
694.209	19.77
694.238	6.77
694.267	22.77
694.296	26.77
694.325	15.77
694.354	15.77
694.383	14.77
694.412	-4.23
694.441	-9.23
694.471	3.77
694.5	-9.23
694.529	-4.23
694.558	6.77
694.587	21.77
694.616	-0.23
694.645	3.77
694.674	14.77
694.703	11.77
694.732	5.77
694.761	2.77
694.79	9.77
694.819	1.77
694.848	-2.23
694.877	13.77
694.906	19.77
694.935	9.77
694.963	19.77
694.992	11.77
695.021	-4.23
695.05	15.77
695.079	21.77
695.108	2.77
695.137	-0.23
695.166	23.77
695.195	6.77
695.224	12.77
695.253	10.77
695.282	12.77
695.311	21.77
695.34	23.77
695.369	6.77
695.398	-6.23
695.427	18.77
695.456	0.77
695.485	17.77
695.513	13.77
695.542	18.77
695.571	-2.23
695.6	9.77
695.629	3.77
695.658	18.77
695.687	12.77
695.716	20.77
695.745	37.77
695.774	-0.23
695.802	-3.23
695.831	10.77
695.86	18.77
695.889	11.77
695.918	12.77
695.947	-14.23
695.976	-4.23
696.005	4.77
696.033	0.77
696.062	10.77
696.091	9.77
696.12	3.77
696.149	14.77
696.178	5.77
696.207	8.77
696.235	-7.23
696.264	-0.23
696.293	7.77
696.322	0.77
696.351	0.77
696.38	-1.23
696.408	5.77
696.437	9.77
696.466	11.77
696.495	25.77
696.524	21.77
696.553	-1.23
696.581	12.77
696.61	7.77
696.639	1.77
696.668	4.77
696.697	7.77
696.725	12.77
696.754	3.77
696.783	16.77
696.812	-7.23
696.84	8.77
696.869	21.77
696.898	-14.23
696.927	2.77
696.956	28.77
696.984	2.77
697.013	6.77
697.042	4.77
697.071	18.77
697.099	15.77
697.128	-3.23
697.157	14.77
697.186	7.77
697.214	15.77
697.243	3.77
697.272	4.77
697.301	4.77
697.329	11.77
697.358	10.77
697.387	25.77
697.415	4.77
697.444	8.77
697.473	-4.23
697.502	1.77
697.53	-1.23
697.559	3.77
697.588	-1.23
697.616	-1.23
697.645	-13.23
697.674	4.77
697.703	10.77
697.731	15.77
697.76	6.77
697.789	6.77
697.817	1.77
697.846	26.77
697.875	4.77
697.903	25.77
697.932	27.77
697.961	15.77
697.989	13.77
698.018	11.77
698.047	-2.23
698.075	17.77
698.104	-4.23
698.133	6.77
698.161	2.77
698.19	-4.23
698.218	2.77
698.247	-9.23
698.276	3.77
698.304	11.77
698.333	8.77
698.362	8.77
698.39	2.77
698.419	14.77
698.447	-10.23
698.476	-12.23
698.505	15.77
698.533	14.77
698.562	-5.23
698.591	-2.23
698.619	-4.23
698.648	2.77
698.676	3.77
698.705	6.77
698.733	-11.23
698.762	13.77
698.791	5.77
698.819	2.77
698.848	0.77
698.876	18.77
698.905	-1.23
698.933	3.77
698.962	16.77
698.991	10.77
699.019	16.77
699.048	8.77
699.076	-8.23
699.105	-21.23
699.133	1.77
699.162	2.77
699.19	3.77
699.219	18.77
699.248	-9.23
699.276	6.77
699.305	13.77
699.333	16.77
699.362	6.77
699.39	16.77
699.419	9.77
699.447	1.77
699.476	11.77
699.504	-15.23
699.533	4.77
699.561	-9.23
699.59	12.77
699.618	6.77
699.647	11.77
699.675	4.77
699.704	9.77
699.732	10.77
699.761	15.77
699.789	7.77
699.818	8.77
699.846	0.77
699.874	-11.23
699.903	-4.23
699.931	13.77
699.96	14.77
699.988	-0.23
700.017	4.77
700.045	13.77
700.074	15.77
700.102	-2.23
700.13	6.77
700.159	0.77
700.187	1.77
700.216	-5.23
700.244	-2.23
700.273	-1.23
700.301	2.77
700.329	-6.23
700.358	9.77
700.386	-1.23
700.415	2.77
700.443	12.77
700.472	0.77
700.5	2.77
700.528	5.77
700.557	7.77
700.585	9.77
700.614	3.77
700.642	18.77
700.67	25.77
700.699	11.77
700.727	12.77
700.755	6.77
700.784	-0.23
700.812	5.77
700.841	7.77
700.869	-4.23
700.897	-18.23
700.926	-5.23
700.954	-0.23
700.982	19.77
701.011	16.77
701.039	10.77
701.067	-7.23
701.096	-0.23
701.124	-1.23
701.152	2.77
701.181	14.77
701.209	-14.23
701.237	-5.23
701.266	-18.23
701.294	-19.23
701.322	26.77
701.351	18.77
701.379	11.77
701.407	-8.23
701.435	1.77
701.464	10.77
701.492	18.77
701.52	6.77
701.549	6.77
701.577	-2.23
701.605	-4.23
701.634	-1.23
701.662	12.77
701.69	6.77
701.718	1.77
701.747	2.77
701.775	-1.23
701.803	-1.23
701.831	14.77
701.86	-6.23
701.888	0.77
701.916	-0.23
701.944	-0.23
701.973	2.77
702.001	-6.23
702.029	-30.23
702.057	-20.23
702.086	-15.23
702.114	-0.23
702.142	8.77
702.17	-10.23
702.199	-9.23
702.227	2.77
702.255	3.77
702.283	-16.23
702.311	2.77
702.34	-7.23
702.368	-6.23
702.396	12.77
702.424	4.77
702.452	-4.23
702.481	10.77
702.509	11.77
702.537	24.77
702.565	-1.23
702.593	1.77
702.621	14.77
702.65	19.77
702.678	25.77
702.706	8.77
702.734	-4.23
702.762	4.77
702.79	10.77
702.819	7.77
702.847	9.77
702.875	27.77
702.903	-6.23
702.931	6.77
702.959	-16.23
702.988	5.77
703.016	-1.23
703.044	1.77
703.072	-1.23
703.1	3.77
703.128	-4.23
703.156	17.77
703.184	10.77
703.212	15.77
703.241	-6.23
703.269	-7.23
703.297	-4.23
703.325	8.77
703.353	-10.23
703.381	-6.23
703.409	9.77
703.437	4.77
703.465	-3.23
703.493	4.77
703.522	2.77
703.55	20.77
703.578	2.77
703.606	-3.23
703.634	1.77
703.662	3.77
703.69	11.77
703.718	-0.23
703.746	10.77
703.774	-9.23
703.802	10.77
703.83	-4.23
703.858	-1.23
703.886	-16.23
703.914	-4.23
703.942	13.77
703.97	-14.23
703.998	10.77
704.027	16.77
704.055	12.77
704.083	0.77
704.111	-16.23
704.139	-16.23
704.167	-6.23
704.195	13.77
704.223	-9.23
704.251	2.77
704.279	6.77
704.307	6.77
704.335	-4.23
704.363	-2.23
704.391	3.77
704.419	-4.23
704.447	-4.23
704.475	5.77
704.503	-7.23
704.531	5.77
704.558	0.77
704.586	7.77
704.614	-0.23
704.642	14.77
704.67	-10.23
704.698	-5.23
704.726	-1.23
704.754	5.77
704.782	-0.23
704.81	-6.23
704.838	1.77
704.866	0.77
704.894	-8.23
704.922	-5.23
704.95	-2.23
704.978	17.77
705.006	-2.23
705.034	12.77
705.061	-4.23
705.089	3.77
705.117	-13.23
705.145	3.77
705.173	11.77
705.201	6.77
705.229	1.77
705.257	0.77
705.285	3.77
705.313	-1.23
705.34	-2.23
705.368	3.77
705.396	-7.23
705.424	-3.23
705.452	-1.23
705.48	9.77
705.508	-4.23
705.536	3.77
705.563	-12.23
705.591	-8.23
705.619	-5.23
705.647	-2.23
705.675	5.77
705.703	10.77
705.731	7.77
705.758	7.77
705.786	0.77
705.814	17.77
705.842	-1.23
705.87	1.77
705.898	5.77
705.925	-13.23
705.953	15.77
705.981	8.77
706.009	4.77
706.037	15.77
706.065	9.77
706.092	-18.23
706.12	-8.23
706.148	-12.23
706.176	-2.23
706.204	5.77
706.231	-4.23
706.259	-9.23
706.287	-3.23
706.315	-6.23
706.342	1.77
706.37	10.77
706.398	5.77
706.426	-11.23
706.454	-1.23
706.481	4.77
706.509	-6.23
706.537	-11.23
706.565	-4.23
706.592	5.77
706.62	3.77
706.648	-0.23
706.676	-6.23
706.703	10.77
706.731	-9.23
706.759	-5.23
706.787	12.77
706.814	-2.23
706.842	-2.23
706.87	1.77
706.897	21.77
706.925	6.77
706.953	15.77
706.981	14.77
707.008	1.77
707.036	-9.23
707.064	-4.23
707.091	-17.23
707.119	2.77
707.147	-0.23
707.174	-6.23
707.202	1.77
707.23	-7.23
707.258	-2.23
707.285	-23.23
707.313	-6.23
707.341	-15.23
707.368	-9.23
707.396	-5.23
707.424	16.77
707.451	5.77
707.479	-4.23
707.507	3.77
707.534	0.77
707.562	10.77
707.59	5.77
707.617	-0.23
707.645	3.77
707.672	-0.23
707.7	3.77
707.728	11.77
707.755	3.77
707.783	-6.23
707.811	1.77
707.838	-18.23
707.866	-6.23
707.893	7.77
707.921	-7.23
707.949	13.77
707.976	-3.23
708.004	4.77
708.031	2.77
708.059	-4.23
708.087	7.77
708.114	-2.23
708.142	-9.23
708.169	3.77
708.197	-2.23
708.225	-2.23
708.252	4.77
708.28	18.77
708.307	0.77
708.335	-0.23
708.362	0.77
708.39	-9.23
708.418	-5.23
708.445	-7.23
708.473	-12.23
708.5	-13.23
708.528	19.77
708.555	1.77
708.583	2.77
708.61	10.77
708.638	4.77
708.665	-7.23
708.693	7.77
708.72	-6.23
708.748	-16.23
708.776	-4.23
708.803	23.77
708.831	17.77
708.858	8.77
708.886	-5.23
708.913	-5.23
708.941	10.77
708.968	-1.23
708.996	3.77
709.023	41.77
709.051	6.77
709.078	-0.23
709.105	14.77
709.133	0.77
709.16	11.77
709.188	-4.23
709.215	12.77
709.243	-0.23
709.27	6.77
709.298	2.77
709.325	-10.23
709.353	-4.23
709.38	17.77
709.408	6.77
709.435	-6.23
709.462	-13.23
709.49	-0.23
709.517	-1.23
709.545	-10.23
709.572	1.77
709.6	1.77
709.627	-15.23
709.655	-5.23
709.682	10.77
709.709	7.77
709.737	-10.23
709.764	-15.23
709.792	-1.23
709.819	5.77
709.846	2.77
709.874	20.77
709.901	7.77
709.929	26.77
709.956	15.77
709.983	16.77
710.011	5.77
710.038	-9.23
710.066	-4.23
710.093	3.77
710.12	1.77
710.148	3.77
710.175	-0.23
710.202	-10.23
710.23	9.77
710.257	4.77
710.284	11.77
710.312	3.77
710.339	12.77
710.366	11.77
710.394	-12.23
710.421	-7.23
710.448	0.77
710.476	-10.23
710.503	14.77
710.53	0.77
710.558	18.77
710.585	7.77
710.612	-6.23
710.64	-2.23
710.667	10.77
710.694	-8.23
710.722	3.77
710.749	-2.23
710.776	-0.23
710.804	21.77
710.831	-9.23
710.858	-5.23
710.885	0.77
710.913	-17.23
710.94	21.77
710.967	1.77
710.995	-2.23
711.022	-10.23
711.049	-2.23
711.076	-11.23
711.104	-5.23
711.131	-13.23
711.158	-2.23
711.185	14.77
711.213	2.77
711.24	-13.23
711.267	-6.23
711.294	-8.23
711.322	-0.23
711.349	10.77
711.376	-4.23
711.403	-1.23
711.431	-3.23
711.458	-10.23
711.485	-4.23
711.512	-0.23
711.54	2.77
711.567	-4.23
711.594	-2.23
711.621	-1.23
711.648	8.77
711.676	1.77
711.703	17.77
711.73	-5.23
711.757	26.77
711.784	1.77
711.812	8.77
711.839	4.77
711.866	-8.23
711.893	2.77
711.92	11.77
711.947	13.77
711.975	14.77
712.002	2.77
712.029	-1.23
712.056	4.77
712.083	22.77
712.11	-11.23
712.138	-2.23
712.165	8.77
712.192	7.77
712.219	-0.23
712.246	-6.23
712.273	-4.23
712.3	-5.23
712.328	6.77
712.355	8.77
712.382	8.77
712.409	13.77
712.436	-11.23
712.463	22.77
712.49	14.77
712.517	2.77
712.544	-0.23
712.572	5.77
712.599	-12.23
712.626	11.77
712.653	-1.23
712.68	1.77
712.707	9.77
712.734	-2.23
712.761	6.77
712.788	-0.23
712.815	0.77
712.842	6.77
712.87	-0.23
712.897	-8.23
712.924	-4.23
712.951	1.77
712.978	5.77
713.005	5.77
713.032	-2.23
713.059	-4.23
713.086	1.77
713.113	-0.23
713.14	-5.23
713.167	5.77
713.194	19.77
713.221	4.77
713.248	12.77
713.275	-14.23
713.302	-17.23
713.329	-2.23
713.356	17.77
713.383	8.77
713.41	13.77
713.437	-5.23
713.464	1.77
713.491	0.77
713.518	-5.23
713.545	6.77
713.572	-1.23
713.599	9.77
713.626	16.77
713.653	8.77
713.68	-9.23
713.707	2.77
713.734	6.77
713.761	-6.23
713.788	-2.23
713.815	3.77
713.842	3.77
713.869	-11.23
713.896	-4.23
713.923	9.77
713.95	-4.23
713.977	-6.23
714.004	-0.23
714.031	-1.23
714.058	0.77
714.085	4.77
714.112	22.77
714.139	6.77
714.165	1.77
714.192	-17.23
714.219	8.77
714.246	-0.23
714.273	-5.23
714.3	5.77
714.327	0.77
714.354	3.77
714.381	3.77
714.408	7.77
714.435	9.77
714.461	-4.23
714.488	18.77
714.515	9.77
714.542	-4.23
714.569	2.77
714.596	-5.23
714.623	5.77
714.65	-8.23
714.677	-4.23
714.703	8.77
714.73	-5.23
714.757	6.77
714.784	6.77
714.811	-6.23
714.838	-3.23
714.865	-5.23
714.891	15.77
714.918	-0.23
714.945	3.77
714.972	-9.23
714.999	16.77
715.026	-4.23
715.052	18.77
715.079	-2.23
715.106	10.77
715.133	5.77
715.16	-3.23
715.187	10.77
715.213	9.77
715.24	-9.23
715.267	-4.23
715.294	-11.23
715.321	-0.23
715.347	-4.23
715.374	-13.23
715.401	-2.23
715.428	16.77
715.455	3.77
715.481	-12.23
715.508	6.77
715.535	7.77
715.562	26.77
715.588	6.77
715.615	5.77
715.642	6.77
715.669	-5.23
715.695	-14.23
715.722	1.77
715.749	7.77
715.776	10.77
715.802	-6.23
715.829	1.77
715.856	-8.23
715.883	13.77
715.909	10.77
715.936	-1.23
715.963	-0.23
715.99	1.77
716.016	3.77
716.043	1.77
716.07	-12.23
716.096	2.77
716.123	-18.23
716.15	-3.23
716.177	-5.23
716.203	18.77
716.23	6.77
716.257	7.77
716.283	4.77
716.31	4.77
716.337	1.77
716.363	-3.23
716.39	3.77
716.417	16.77
716.443	-9.23
716.47	14.77
716.497	18.77
716.523	10.77
716.55	1.77
716.577	12.77
716.603	4.77
716.63	13.77
716.657	14.77
716.683	0.77
716.71	2.77
716.737	-6.23
716.763	2.77
716.79	7.77
716.817	8.77
716.843	2.77
716.87	-5.23
716.897	2.77
716.923	19.77
716.95	-2.23
716.976	-16.23
717.003	-14.23
717.03	0.77
717.056	9.77
717.083	17.77
717.109	5.77
717.136	19.77
717.163	6.77
717.189	-3.23
717.216	-4.23
717.242	-21.23
717.269	-0.23
717.296	16.77
717.322	11.77
717.349	22.77
717.375	4.77
717.402	-6.23
717.428	2.77
717.455	1.77
717.481	-1.23
717.508	15.77
717.535	3.77
717.561	-18.23
717.588	-9.23
717.614	7.77
717.641	-2.23
717.667	-0.23
717.694	6.77
717.72	5.77
717.747	12.77
717.773	-7.23
717.8	6.77
717.826	3.77
717.853	-4.23
717.88	21.77
717.906	-6.23
717.933	4.77
717.959	17.77
717.986	-11.23
718.012	-1.23
718.039	5.77
718.065	10.77
718.092	10.77
718.118	-16.23
718.144	-5.23
718.171	3.77
718.197	17.77
718.224	0.77
718.25	25.77
718.277	9.77
718.303	11.77
718.33	-0.23
718.356	13.77
718.383	-18.23
718.409	-4.23
718.436	10.77
718.462	-4.23
718.489	0.77
718.515	3.77
718.541	15.77
718.568	5.77
718.594	-2.23
718.621	4.77
718.647	-4.23
718.674	2.77
718.7	10.77
718.726	14.77
718.753	15.77
718.779	0.77
718.806	15.77
718.832	-4.23
718.858	-5.23
718.885	-8.23
718.911	5.77
718.938	22.77
718.964	-3.23
718.99	9.77
719.017	2.77
719.043	-0.23
719.07	20.77
719.096	-5.23
719.122	9.77
719.149	1.77
719.175	15.77
719.201	1.77
719.228	14.77
719.254	8.77
719.281	6.77
719.307	-6.23
719.333	-1.23
719.36	23.77
719.386	-6.23
719.412	5.77
719.439	-1.23
719.465	-4.23
719.491	3.77
719.518	12.77
719.544	9.77
719.57	-2.23
719.597	8.77
719.623	-13.23
719.649	10.77
719.675	2.77
719.702	-2.23
719.728	24.77
719.754	-1.23
719.781	-5.23
719.807	1.77
719.833	-4.23
719.86	-2.23
719.886	-4.23
719.912	15.77
719.938	-10.23
719.965	4.77
719.991	8.77
720.017	19.77
720.044	-6.23
720.07	10.77
720.096	11.77
720.122	9.77
720.149	27.77
720.175	22.77
720.201	2.77
720.227	-3.23
720.254	-6.23
720.28	14.77
720.306	-17.23
720.332	10.77
720.359	1.77
720.385	12.77
720.411	8.77
720.437	10.77
720.463	3.77
720.49	25.77
720.516	-4.23
720.542	6.77
720.568	10.77
720.595	19.77
720.621	2.77
720.647	17.77
720.673	7.77
720.699	-6.23
720.725	-0.23
720.752	9.77
720.778	11.77
720.804	1.77
720.83	-5.23
720.856	-10.23
720.883	-0.23
720.909	6.77
720.935	11.77
720.961	14.77
720.987	13.77
721.013	-0.23
721.04	-8.23
721.066	-12.23
721.092	-8.23
721.118	5.77
721.144	13.77
721.17	4.77
721.196	-9.23
721.223	-1.23
721.249	-6.23
721.275	9.77
721.301	-0.23
721.327	-2.23
721.353	27.77
721.379	18.77
721.405	22.77
721.432	19.77
721.458	-8.23
721.484	2.77
721.51	-5.23
721.536	-5.23
721.562	0.77
721.588	7.77
721.614	0.77
721.64	-0.23
721.666	-7.23
721.693	-5.23
721.719	9.77
721.745	3.77
721.771	-13.23
721.797	0.77
721.823	0.77
721.849	1.77
721.875	22.77
721.901	25.77
721.927	5.77
721.953	13.77
721.979	10.77
722.005	22.77
722.031	-6.23
722.057	5.77
722.083	-2.23
722.109	-12.23
722.135	-2.23
722.161	24.77
722.187	-6.23
722.214	1.77
722.24	14.77
722.266	-7.23
722.292	1.77
722.318	11.77
722.344	3.77
722.37	10.77
722.396	-1.23
722.422	-11.23
722.448	2.77
722.474	-0.23
722.5	17.77
722.526	7.77
722.552	9.77
722.578	-0.23
722.603	12.77
722.629	-7.23
722.655	11.77
722.681	9.77
722.707	5.77
722.733	-3.23
722.759	-9.23
722.785	4.77
722.811	8.77
722.837	-6.23
722.863	6.77
722.889	14.77
722.915	0.77
722.941	-5.23
722.967	2.77
722.993	9.77
723.019	5.77
723.045	0.77
723.071	-9.23
723.097	-5.23
723.122	1.77
723.148	5.77
723.174	11.77
723.2	17.77
723.226	5.77
723.252	-0.23
723.278	1.77
723.304	-1.23
723.33	1.77
723.356	-2.23
723.381	-22.23
723.407	2.77
723.433	6.77
723.459	-3.23
723.485	-4.23
723.511	10.77
723.537	-14.23
723.563	-1.23
723.588	-5.23
723.614	4.77
723.64	0.77
723.666	17.77
723.692	16.77
723.718	11.77
723.744	10.77
723.769	-7.23
723.795	-9.23
723.821	-1.23
723.847	3.77
723.873	-0.23
723.899	4.77
723.924	1.77
723.95	-10.23
723.976	-5.23
724.002	18.77
724.028	12.77
724.053	4.77
724.079	-0.23
724.105	-9.23
724.131	6.77
724.157	-1.23
724.182	4.77
724.208	5.77
724.234	-6.23
724.26	-1.23
724.286	13.77
724.311	3.77
724.337	-21.23
724.363	-12.23
724.389	23.77
724.415	-0.23
724.44	13.77
724.466	-6.23
724.492	11.77
724.518	11.77
724.543	-1.23
724.569	-2.23
724.595	11.77
724.621	13.77
724.646	7.77
724.672	-6.23
724.698	-7.23
724.723	-5.23
724.749	-4.23
724.775	10.77
724.801	0.77
724.826	-1.23
724.852	7.77
724.878	-9.23
724.904	-13.23
724.929	12.77
724.955	-12.23
724.981	-1.23
725.006	3.77
725.032	17.77
725.058	21.77
725.083	-16.23
725.109	-8.23
725.135	-12.23
725.161	-8.23
725.186	-5.23
725.212	1.77
725.238	-0.23
725.263	-1.23
725.289	-12.23
725.315	-4.23
725.34	-13.23
725.366	-1.23
725.392	-10.23
725.417	-9.23
725.443	9.77
725.468	6.77
725.494	10.77
725.52	-1.23
725.545	-6.23
725.571	-10.23
725.597	0.77
725.622	-6.23
725.648	-5.23
725.674	10.77
725.699	0.77
725.725	3.77
725.75	20.77
725.776	-12.23
725.802	-8.23
725.827	13.77
725.853	-6.23
725.878	-1.23
725.904	8.77
725.93	18.77
725.955	-10.23
725.981	-11.23
726.006	-4.23
726.032	16.77
726.057	-12.23
726.083	-21.23
726.109	6.77
726.134	2.77
726.16	-0.23
726.185	14.77
726.211	-2.23
726.236	14.77
726.262	7.77
726.288	11.77
726.313	14.77
726.339	-5.23
726.364	1.77
726.39	10.77
726.415	-1.23
726.441	-14.23
726.466	-8.23
726.492	-8.23
726.517	10.77
726.543	-0.23
726.568	-8.23
726.594	-11.23
726.619	10.77
726.645	9.77
726.67	8.77
726.696	-2.23
726.721	-12.23
726.747	-5.23
726.772	9.77
726.798	9.77
726.823	17.77
726.849	-6.23
726.874	2.77
726.9	14.77
726.925	11.77
726.951	6.77
726.976	27.77
727.002	11.77
727.027	11.77
727.053	23.77
727.078	-1.23
727.104	14.77
727.129	3.77
727.155	4.77
727.18	17.77
727.205	5.77
727.231	-10.23
727.256	-8.23
727.282	3.77
727.307	13.77
727.333	0.77
727.358	-7.23
727.383	-7.23
727.409	-14.23
727.434	9.77
727.46	4.77
727.485	-10.23
727.511	-8.23
727.536	-4.23
727.561	-8.23
727.587	-1.23
727.612	-11.23
727.637	2.77
727.663	5.77
727.688	11.77
727.714	-0.23
727.739	4.77
727.764	-9.23
727.79	3.77
727.815	0.77
727.841	22.77
727.866	10.77
727.891	5.77
727.917	-6.23
727.942	-1.23
727.967	-7.23
727.993	-14.23
728.018	-7.23
728.043	1.77
728.069	9.77
728.094	22.77
728.119	14.77
728.145	21.77
728.17	9.77
728.195	13.77
728.221	13.77
728.246	-2.23
728.271	-8.23
728.297	4.77
728.322	2.77
728.347	6.77
728.373	13.77
728.398	18.77
728.423	14.77
728.448	5.77
728.474	-1.23
728.499	20.77
728.524	-7.23
728.55	-11.23
728.575	-3.23
728.6	8.77
728.625	-5.23
728.651	-2.23
728.676	-0.23
728.701	12.77
728.727	0.77
728.752	-2.23
728.777	6.77
728.802	4.77
728.828	13.77
728.853	-2.23
728.878	0.77
728.903	-9.23
728.929	-7.23
728.954	-15.23
728.979	13.77
729.004	-14.23
729.03	-4.23
729.055	12.77
729.08	0.77
729.105	11.77
729.13	11.77
729.156	13.77
729.181	2.77
729.206	-18.23
729.231	1.77
729.256	-7.23
729.282	0.77
729.307	-6.23
729.332	-9.23
729.357	-0.23
729.382	15.77
729.408	2.77
729.433	9.77
729.458	1.77
729.483	-2.23
729.508	16.77
729.533	13.77
729.559	-2.23
729.584	2.77
729.609	9.77
729.634	7.77
729.659	-5.23
729.684	3.77
729.71	21.77
729.735	0.77
729.76	-18.23
729.785	-3.23
729.81	9.77
729.835	-0.23
729.86	-1.23
729.886	8.77
729.911	17.77
729.936	8.77
729.961	15.77
729.986	29.77
730.011	75.77
730.036	218.77
730.061	977.77
730.086	2667.77
730.112	3374.77
730.137	2826.77
730.162	2100.77
730.187	1643.77
730.212	1262.77
730.237	812.77
730.262	446.77
730.287	235.77
730.312	131.77
730.337	81.77
730.362	71.77
730.387	41.77
730.413	17.77
730.438	2.77
730.463	8.77
730.488	4.77
730.513	-6.23
730.538	10.77
730.563	30.77
730.588	29.77
730.613	19.77
730.638	-4.23
730.663	-1.23
730.688	25.77
730.713	15.77
730.738	7.77
730.763	13.77
730.788	-4.23
730.813	2.77
730.838	-3.23
730.863	0.77
730.888	-5.23
730.913	-2.23
730.938	1.77
730.963	25.77
730.988	111.77
731.013	417.77
731.038	625.77
731.063	611.77
731.088	461.77
731.113	336.77
731.138	257.77
731.163	202.77
731.188	115.77
731.213	54.77
731.238	35.77
731.263	24.77
731.288	14.77
731.313	13.77
731.338	14.77
731.363	0.77
731.388	1.77
731.413	14.77
731.438	21.77
731.463	19.77
731.487	2.77
731.512	0.77
731.537	-3.23
731.562	-5.23
731.587	3.77
731.612	9.77
731.637	-6.23
731.662	-14.23
731.687	5.77
731.712	-10.23
731.737	3.77
731.762	-3.23
731.786	1.77
731.811	20.77
731.836	14.77
731.861	-6.23
731.886	0.77
731.911	10.77
731.936	13.77
731.961	10.77
731.986	1.77
732.01	13.77
732.035	11.77
732.06	3.77
732.085	-0.23
732.11	0.77
732.135	-17.23
732.16	-10.23
732.184	-7.23
732.209	6.77
732.234	-0.23
732.259	-18.23
732.284	12.77
732.309	-21.23
732.334	-9.23
732.358	-19.23
732.383	-11.23
732.408	-10.23
732.433	8.77
732.458	-2.23
732.482	9.77
732.507	-4.23
732.532	-0.23
732.557	29.77
732.582	25.77
732.607	20.77
732.631	56.77
732.656	82.77
732.681	154.77
732.706	311.77
732.73	441.77
732.755	396.77
732.78	297.77
732.805	226.77
732.83	160.77
732.854	123.77
732.879	72.77
732.904	35.77
732.929	30.77
732.953	12.77
732.978	4.77
733.003	5.77
733.028	-2.23
733.052	5.77
733.077	5.77
733.102	15.77
733.127	9.77
733.151	-2.23
733.176	5.77
733.201	2.77
733.226	1.77
733.25	8.77
733.275	0.77
733.3	2.77
733.324	18.77
733.349	12.77
733.374	3.77
733.399	-9.23
733.423	-11.23
733.448	12.77
733.473	1.77
733.497	0.77
733.522	6.77
733.547	2.77
733.571	23.77
733.596	18.77
733.621	7.77
733.646	4.77
733.67	15.77
733.695	-10.23
733.72	3.77
733.744	18.77
733.769	16.77
733.794	12.77
733.818	5.77
733.843	-2.23
733.867	-2.23
733.892	-3.23
733.917	-8.23
733.941	2.77
733.966	0.77
733.991	6.77
734.015	6.77
734.04	8.77
734.065	23.77
734.089	10.77
734.114	-0.23
734.138	1.77
734.163	8.77
734.188	0.77
734.212	12.77
734.237	-3.23
734.261	2.77
734.286	2.77
734.311	-0.23
734.335	3.77
734.36	-5.23
734.384	-2.23
734.409	6.77
734.434	-0.23
734.458	17.77
734.483	14.77
734.507	-5.23
734.532	-6.23
734.556	-12.23
734.581	-1.23
734.606	7.77
734.63	3.77
734.655	7.77
734.679	-2.23
734.704	4.77
734.728	-5.23
734.753	-1.23
734.777	13.77
734.802	3.77
734.826	6.77
734.851	-5.23
734.876	6.77
734.9	4.77
734.925	1.77
734.949	-6.23
734.974	7.77
734.998	4.77
735.023	-4.23
735.047	-5.23
735.072	27.77
735.096	-4.23
735.121	-2.23
735.145	12.77
735.17	11.77
735.194	-2.23
735.219	-0.23
735.243	-1.23
735.268	20.77
735.292	5.77
735.317	8.77
735.341	6.77
735.365	-21.23
735.39	17.77
735.414	15.77
735.439	-0.23
735.463	6.77
735.488	1.77
735.512	1.77
735.537	0.77
735.561	9.77
735.586	-5.23
735.61	5.77
735.634	-0.23
735.659	0.77
735.683	20.77
735.708	-4.23
735.732	-2.23
735.757	5.77
735.781	-0.23
735.805	-7.23
735.83	-9.23
735.854	12.77
735.879	3.77
735.903	15.77
735.927	11.77
735.952	-1.23
735.976	-5.23
736.001	5.77
736.025	-6.23
736.049	2.77
736.074	-8.23
736.098	4.77
736.123	8.77
736.147	5.77
736.171	-5.23
736.196	7.77
736.22	-6.23
736.244	-5.23
736.269	2.77
736.293	-5.23
736.317	-7.23
736.342	17.77
736.366	13.77
736.39	12.77
736.415	9.77
736.439	-0.23
736.463	10.77
736.488	9.77
736.512	10.77
736.536	5.77
736.561	16.77
736.585	11.77
736.609	21.77
736.634	-6.23
736.658	2.77
736.682	-2.23
736.707	-6.23
736.731	-9.23
736.755	-3.23
736.78	25.77
736.804	8.77
736.828	11.77
736.852	-4.23
736.877	3.77
736.901	-0.23
736.925	5.77
736.949	5.77
736.974	-0.23
736.998	-1.23
737.022	7.77
737.047	-10.23
737.071	-1.23
737.095	7.77
737.119	32.77
737.144	13.77
737.168	2.77
737.192	-6.23
737.216	9.77
737.241	1.77
737.265	1.77
737.289	4.77
737.313	-3.23
737.337	5.77
737.362	3.77
737.386	7.77
737.41	-8.23
737.434	2.77
737.459	10.77
737.483	17.77
737.507	8.77
737.531	3.77
737.555	-5.23
737.58	-0.23
737.604	14.77
737.628	-4.23
737.652	11.77
737.676	-5.23
737.701	-0.23
737.725	-2.23
737.749	18.77
737.773	10.77
737.797	-12.23
737.821	-4.23
737.846	-0.23
737.87	32.77
737.894	9.77
737.918	2.77
737.942	-1.23
737.966	7.77
737.99	3.77
738.015	1.77
738.039	6.77
738.063	-1.23
738.087	4.77
738.111	-8.23
738.135	23.77
738.159	-9.23
738.184	-8.23
738.208	-10.23
738.232	9.77
738.256	-1.23
738.28	9.77
738.304	12.77
738.328	5.77
738.352	-4.23
738.376	13.77
738.4	6.77
738.425	38.77
738.449	2.77
738.473	35.77
738.497	20.77
738.521	3.77
738.545	-5.23
738.569	11.77
738.593	11.77
738.617	14.77
738.641	5.77
738.665	11.77
738.689	2.77
738.713	5.77
738.737	0.77
738.762	2.77
738.786	0.77
738.81	-13.23
738.834	27.77
738.858	7.77
738.882	10.77
738.906	-4.23
738.93	9.77
738.954	-5.23
738.978	0.77
739.002	-5.23
739.026	19.77
739.05	11.77
739.074	3.77
739.098	31.77
739.122	9.77
739.146	14.77
739.17	1.77
739.194	6.77
739.218	-6.23
739.242	2.77
739.266	-2.23
739.29	6.77
739.314	2.77
739.338	0.77
739.362	4.77
739.386	2.77
739.41	-17.23
739.434	-5.23
739.458	15.77
739.482	5.77
739.506	13.77
739.53	-0.23
739.554	18.77
739.577	0.77
739.601	14.77
739.625	-12.23
739.649	-16.23
739.673	-7.23
739.697	10.77
739.721	-12.23
739.745	4.77
739.769	8.77
739.793	12.77
739.817	10.77
739.841	-5.23
739.865	1.77
739.889	-3.23
739.912	3.77
739.936	6.77
739.96	15.77
739.984	19.77
740.008	6.77
740.032	-2.23
740.056	-1.23
740.08	3.77
740.104	-0.23
740.127	6.77
740.151	11.77
740.175	18.77
740.199	11.77
740.223	49.77
740.247	12.77
740.271	0.77
740.295	1.77
740.318	-5.23
740.342	7.77
740.366	4.77
740.39	7.77
740.414	-7.23
740.438	0.77
740.461	23.77
740.485	18.77
740.509	-4.23
740.533	8.77
740.557	-10.23
740.581	-3.23
740.604	-25.23
740.628	-2.23
740.652	12.77
740.676	1.77
740.7	9.77
740.723	3.77
740.747	-2.23
740.771	-7.23
740.795	-9.23
740.819	3.77
740.842	9.77
740.866	-0.23
740.89	1.77
740.914	-10.23
740.938	2.77
740.961	9.77
740.985	7.77
741.009	-0.23
741.033	7.77
741.056	0.77
741.08	8.77
741.104	7.77
741.128	-9.23
741.151	12.77
741.175	2.77
741.199	7.77
741.223	-2.23
741.246	-7.23
741.27	6.77
741.294	10.77
741.318	-9.23
741.341	-8.23
741.365	1.77
741.389	3.77
741.413	15.77
741.436	21.77
741.46	13.77
741.484	-0.23
741.507	3.77
741.531	26.77
741.555	19.77
741.579	9.77
741.602	10.77
741.626	8.77
741.65	4.77
741.673	5.77
741.697	6.77
741.721	-4.23
741.744	-10.23
741.768	-0.23
741.792	5.77
741.815	7.77
741.839	16.77
741.863	16.77
741.886	14.77
741.91	10.77
741.934	11.77
741.957	19.77
741.981	9.77
742.005	9.77
742.028	-10.23
742.052	0.77
742.075	26.77
742.099	16.77
742.123	2.77
742.146	3.77
742.17	7.77
742.194	13.77
742.217	7.77
742.241	-9.23
742.264	-2.23
742.288	14.77
742.312	10.77
742.335	-7.23
742.359	-5.23
742.382	13.77
742.406	23.77
742.43	3.77
742.453	7.77
742.477	3.77
742.5	4.77
742.524	-5.23
742.548	-5.23
742.571	-2.23
742.595	-6.23
742.618	-24.23
742.642	-9.23
742.665	7.77
742.689	-6.23
742.712	10.77
742.736	3.77
742.76	1.77
742.783	11.77
742.807	5.77
742.83	15.77
742.854	-1.23
742.877	-4.23
742.901	-2.23
742.924	-13.23
742.948	-1.23
742.971	-0.23
742.995	6.77
743.018	-16.23
743.042	-1.23
743.065	7.77
743.089	-6.23
743.112	3.77
743.136	-3.23
743.159	-1.23
743.183	-1.23
743.206	-2.23
743.23	9.77
743.253	15.77
743.277	11.77
743.3	1.77
743.324	-1.23
743.347	-3.23
743.371	22.77
743.394	4.77
743.418	13.77
743.441	2.77
743.465	12.77
743.488	-0.23
743.512	6.77
743.535	1.77
743.558	-2.23
743.582	0.77
743.605	7.77
743.629	10.77
743.652	15.77
743.676	9.77
743.699	11.77
743.723	6.77
743.746	12.77
743.769	-6.23
743.793	-9.23
743.816	-0.23
743.84	19.77
743.863	4.77
743.886	-2.23
743.91	30.77
743.933	11.77
743.957	0.77
743.98	5.77
744.003	12.77
744.027	17.77
744.05	3.77
744.074	-13.23
744.097	-15.23
744.12	-6.23
744.144	-5.23
744.167	4.77
744.19	0.77
744.214	-1.23
744.237	-7.23
744.26	-0.23
744.284	-6.23
744.307	-11.23
744.331	-5.23
744.354	-7.23
744.377	3.77
744.401	-5.23
744.424	-5.23
744.447	4.77
744.471	-1.23
