Data from HighRes_mercury_15_13_11_07_2024_HR4C61891__19__15-14-25-086.txt Node

Date: Thu Nov 07 15:14:25 EST 2024
User: crc00042
Spectrometer: HR4C6189
Trigger mode: 4
Integration Time (sec): 1.000000E-1
Scans to average: 1
Electric dark correction enabled: true
Nonlinearity correction enabled: false
Boxcar width: 0
XAxis mode: Wavelengths
Number of Pixels in Spectrum: 3648
>>>>>Begin Spectral Data<<<<<
639.567	-57.08
639.602	-57.08
639.636	-57.08
639.67	-54.08
639.704	-17.08
639.738	-12.08
639.773	4.92
639.807	-4.08
639.841	14.92
639.875	1.92
639.909	-13.08
639.943	-2.08
639.978	-9.08
640.012	4.92
640.046	18.92
640.08	2.92
640.114	-3.08
640.148	-5.08
640.182	-10.08
640.217	-10.08
640.251	14.92
640.285	-9.08
640.319	5.92
640.353	-17.08
640.387	-3.08
640.421	-6.08
640.455	-9.08
640.49	-24.08
640.524	-19.08
640.558	-2.08
640.592	-12.08
640.626	8.92
640.66	5.92
640.694	-7.08
640.728	15.92
640.762	7.92
640.796	17.92
640.83	16.92
640.865	-3.08
640.899	13.92
640.933	9.92
640.967	4.92
641.001	-13.08
641.035	0.92
641.069	10.92
641.103	0.92
641.137	-0.08
641.171	-15.08
641.205	5.92
641.239	9.92
641.273	6.92
641.307	1.92
641.341	-3.08
641.375	2.92
641.409	-8.08
641.443	-15.08
641.477	-11.08
641.511	3.92
641.545	9.92
641.579	-0.08
641.614	5.92
641.648	25.92
641.682	0.92
641.716	-5.08
641.75	15.92
641.784	-3.08
641.818	9.92
641.852	-0.08
641.886	5.92
641.919	23.92
641.953	-0.08
641.987	-23.08
642.021	-1.08
642.055	-0.08
642.089	-1.08
642.123	3.92
642.157	0.92
642.191	-10.08
642.225	4.92
642.259	4.92
642.293	3.92
642.327	3.92
642.361	-0.08
642.395	11.92
642.429	21.92
642.463	-3.08
642.497	-4.08
642.531	10.92
642.565	9.92
642.599	1.92
642.633	-31.08
642.666	3.92
642.7	19.92
642.734	7.92
642.768	-19.08
642.802	-10.08
642.836	9.92
642.87	-1.08
642.904	3.92
642.938	6.92
642.972	-9.08
643.005	4.92
643.039	6.92
643.073	4.92
643.107	12.92
643.141	0.92
643.175	7.92
643.209	9.92
643.243	-1.08
643.276	7.92
643.31	10.92
643.344	-8.08
643.378	-10.08
643.412	13.92
643.446	0.92
643.48	-3.08
643.513	18.92
643.547	-4.08
643.581	-20.08
643.615	18.92
643.649	8.92
643.683	0.92
643.716	1.92
643.75	2.92
643.784	-25.08
643.818	-1.08
643.852	6.92
643.886	12.92
643.919	4.92
643.953	5.92
643.987	-7.08
644.021	5.92
644.055	4.92
644.088	9.92
644.122	-14.08
644.156	-6.08
644.19	-1.08
644.224	-0.08
644.257	0.92
644.291	2.92
644.325	1.92
644.359	-2.08
644.392	26.92
644.426	8.92
644.46	-3.08
644.494	-5.08
644.527	-19.08
644.561	-5.08
644.595	6.92
644.629	-5.08
644.662	-12.08
644.696	11.92
644.73	-5.08
644.764	5.92
644.797	-0.08
644.831	-7.08
644.865	-3.08
644.899	5.92
644.932	18.92
644.966	2.92
645	-5.08
645.033	5.92
645.067	-14.08
645.101	8.92
645.135	-3.08
645.168	4.92
645.202	-4.08
645.236	8.92
645.269	7.92
645.303	-3.08
645.337	-21.08
645.37	-2.08
645.404	-3.08
645.438	0.92
645.471	-6.08
645.505	4.92
645.539	-1.08
645.572	-12.08
645.606	-11.08
645.64	12.92
645.673	12.92
645.707	36.92
645.741	3.92
645.774	-8.08
645.808	-3.08
645.842	-15.08
645.875	6.92
645.909	-8.08
645.943	-8.08
645.976	2.92
646.01	5.92
646.043	11.92
646.077	15.92
646.111	5.92
646.144	-2.08
646.178	6.92
646.212	-0.08
646.245	8.92
646.279	10.92
646.312	7.92
646.346	2.92
646.38	-0.08
646.413	11.92
646.447	24.92
646.48	-8.08
646.514	6.92
646.547	4.92
646.581	-6.08
646.615	7.92
646.648	9.92
646.682	-0.08
646.715	-2.08
646.749	-6.08
646.782	-0.08
646.816	-12.08
646.85	6.92
646.883	-1.08
646.917	2.92
646.95	3.92
646.984	-17.08
647.017	-6.08
647.051	-0.08
647.084	1.92
647.118	-9.08
647.151	-12.08
647.185	-3.08
647.218	-9.08
647.252	13.92
647.285	-13.08
647.319	-8.08
647.353	-6.08
647.386	19.92
647.42	4.92
647.453	3.92
647.487	8.92
647.52	9.92
647.553	14.92
647.587	-1.08
647.62	-5.08
647.654	-2.08
647.687	13.92
647.721	10.92
647.754	1.92
647.788	-4.08
647.821	-18.08
647.855	-3.08
647.888	16.92
647.922	12.92
647.955	11.92
647.989	-3.08
648.022	-1.08
648.055	17.92
648.089	-12.08
648.122	21.92
648.156	8.92
648.189	-15.08
648.223	15.92
648.256	20.92
648.29	18.92
648.323	-8.08
648.356	19.92
648.39	18.92
648.423	8.92
648.457	-0.08
648.49	1.92
648.523	15.92
648.557	-4.08
648.59	-21.08
648.624	-13.08
648.657	6.92
648.69	17.92
648.724	4.92
648.757	20.92
648.791	19.92
648.824	-1.08
648.857	16.92
648.891	0.92
648.924	-10.08
648.957	11.92
648.991	-17.08
649.024	5.92
649.057	0.92
649.091	9.92
649.124	16.92
649.158	11.92
649.191	18.92
649.224	-9.08
649.258	6.92
649.291	-1.08
649.324	12.92
649.358	-0.08
649.391	-9.08
649.424	3.92
649.458	-22.08
649.491	12.92
649.524	-14.08
649.557	-12.08
649.591	-30.08
649.624	9.92
649.657	-9.08
649.691	-5.08
649.724	-7.08
649.757	-16.08
649.791	-12.08
649.824	12.92
649.857	17.92
649.89	4.92
649.924	-14.08
649.957	-12.08
649.99	-0.08
650.023	7.92
650.057	-7.08
650.09	0.92
650.123	10.92
650.157	15.92
650.19	22.92
650.223	-4.08
650.256	-10.08
650.29	10.92
650.323	-6.08
650.356	6.92
650.389	-1.08
650.423	3.92
650.456	-17.08
650.489	0.92
650.522	-1.08
650.555	16.92
650.589	18.92
650.622	19.92
650.655	17.92
650.688	6.92
650.721	-4.08
650.755	-8.08
650.788	11.92
650.821	-9.08
650.854	-0.08
650.887	-4.08
650.921	5.92
650.954	1.92
650.987	-0.08
651.02	-15.08
651.053	-5.08
651.087	-12.08
651.12	23.92
651.153	5.92
651.186	6.92
651.219	1.92
651.252	4.92
651.286	10.92
651.319	-19.08
651.352	-3.08
651.385	13.92
651.418	5.92
651.451	7.92
651.484	6.92
651.518	-3.08
651.551	13.92
651.584	8.92
651.617	23.92
651.65	-5.08
651.683	17.92
651.716	-10.08
651.749	-17.08
651.783	-12.08
651.816	8.92
651.849	13.92
651.882	-7.08
651.915	-11.08
651.948	2.92
651.981	-21.08
652.014	-6.08
652.047	-6.08
652.08	-15.08
652.114	9.92
652.147	-14.08
652.18	8.92
652.213	20.92
652.246	-0.08
652.279	-9.08
652.312	8.92
652.345	5.92
652.378	15.92
652.411	8.92
652.444	2.92
652.477	4.92
652.51	3.92
652.543	-19.08
652.576	2.92
652.609	-14.08
652.642	-7.08
652.675	18.92
652.709	6.92
652.742	-5.08
652.775	5.92
652.808	8.92
652.841	-5.08
652.874	-8.08
652.907	-0.08
652.94	-3.08
652.973	-21.08
653.006	-7.08
653.039	1.92
653.072	-5.08
653.105	-4.08
653.138	-14.08
653.171	-1.08
653.204	1.92
653.237	13.92
653.27	11.92
653.303	4.92
653.336	8.92
653.368	1.92
653.401	7.92
653.434	5.92
653.467	-0.08
653.5	-11.08
653.533	-9.08
653.566	-1.08
653.599	-12.08
653.632	4.92
653.665	15.92
653.698	-4.08
653.731	-17.08
653.764	11.92
653.797	7.92
653.83	5.92
653.863	2.92
653.896	-8.08
653.929	-2.08
653.961	6.92
653.994	3.92
654.027	1.92
654.06	1.92
654.093	11.92
654.126	12.92
654.159	6.92
654.192	4.92
654.225	-8.08
654.258	10.92
654.29	-6.08
654.323	8.92
654.356	-9.08
654.389	4.92
654.422	-9.08
654.455	-4.08
654.488	9.92
654.521	-16.08
654.553	-16.08
654.586	2.92
654.619	2.92
654.652	-4.08
654.685	5.92
654.718	17.92
654.751	18.92
654.783	-0.08
654.816	2.92
654.849	8.92
654.882	-12.08
654.915	-16.08
654.948	-1.08
654.98	-15.08
655.013	4.92
655.046	-6.08
655.079	1.92
655.112	4.92
655.144	-10.08
655.177	-8.08
655.21	25.92
655.243	12.92
655.276	16.92
655.308	-4.08
655.341	-8.08
655.374	14.92
655.407	-3.08
655.44	-11.08
655.472	0.92
655.505	-1.08
655.538	-29.08
655.571	2.92
655.603	2.92
655.636	-9.08
655.669	12.92
655.702	-1.08
655.734	-7.08
655.767	-9.08
655.8	14.92
655.833	11.92
655.865	4.92
655.898	-10.08
655.931	2.92
655.964	8.92
655.996	7.92
656.029	6.92
656.062	-0.08
656.095	-12.08
656.127	-14.08
656.16	-4.08
656.193	-2.08
656.225	-1.08
656.258	-12.08
656.291	-16.08
656.324	5.92
656.356	2.92
656.389	5.92
656.422	20.92
656.454	4.92
656.487	-8.08
656.52	7.92
656.552	8.92
656.585	-8.08
656.618	13.92
656.65	15.92
656.683	-0.08
656.716	9.92
656.748	-6.08
656.781	7.92
656.814	2.92
656.846	21.92
656.879	-2.08
656.912	0.92
656.944	-28.08
656.977	-13.08
657.01	4.92
657.042	12.92
657.075	6.92
657.108	-10.08
657.14	12.92
657.173	7.92
657.205	25.92
657.238	-3.08
657.271	11.92
657.303	-22.08
657.336	13.92
657.369	-4.08
657.401	-1.08
657.434	0.92
657.466	3.92
657.499	10.92
657.532	8.92
657.564	13.92
657.597	4.92
657.629	25.92
657.662	6.92
657.694	6.92
657.727	-14.08
657.76	9.92
657.792	-16.08
657.825	-14.08
657.857	-1.08
657.89	-6.08
657.922	18.92
657.955	-17.08
657.987	4.92
658.02	15.92
658.053	20.92
658.085	5.92
658.118	-2.08
658.15	-8.08
658.183	15.92
658.215	-7.08
658.248	-31.08
658.28	-14.08
658.313	20.92
658.345	13.92
658.378	3.92
658.41	3.92
658.443	9.92
658.475	-1.08
658.508	10.92
658.54	-11.08
658.573	-7.08
658.605	0.92
658.638	5.92
658.67	6.92
658.703	10.92
658.735	-11.08
658.768	7.92
658.8	-10.08
658.833	15.92
658.865	2.92
658.898	-10.08
658.93	-9.08
658.963	-13.08
658.995	-23.08
659.028	3.92
659.06	11.92
659.092	5.92
659.125	-15.08
659.157	4.92
659.19	-19.08
659.222	-18.08
659.255	2.92
659.287	-1.08
659.32	10.92
659.352	-0.08
659.384	5.92
659.417	-10.08
659.449	-2.08
659.482	5.92
659.514	1.92
659.546	3.92
659.579	-11.08
659.611	-0.08
659.644	-1.08
659.676	-1.08
659.708	1.92
659.741	-7.08
659.773	3.92
659.806	-10.08
659.838	-9.08
659.87	-1.08
659.903	-15.08
659.935	13.92
659.967	-7.08
660	-3.08
660.032	-27.08
660.065	3.92
660.097	12.92
660.129	3.92
660.162	-12.08
660.194	0.92
660.226	13.92
660.259	22.92
660.291	-2.08
660.323	-4.08
660.356	-3.08
660.388	-12.08
660.42	-1.08
660.453	14.92
660.485	-3.08
660.517	2.92
660.55	34.92
660.582	5.92
660.614	10.92
660.647	-12.08
660.679	-28.08
660.711	12.92
660.743	0.92
660.776	-4.08
660.808	-14.08
660.84	4.92
660.873	3.92
660.905	3.92
660.937	5.92
660.969	14.92
661.002	-3.08
661.034	15.92
661.066	2.92
661.099	-9.08
661.131	7.92
661.163	-13.08
661.195	10.92
661.228	16.92
661.26	5.92
661.292	8.92
661.324	1.92
661.357	9.92
661.389	13.92
661.421	8.92
661.453	-9.08
661.485	8.92
661.518	-3.08
661.55	-21.08
661.582	-10.08
661.614	4.92
661.647	20.92
661.679	2.92
661.711	-3.08
661.743	-13.08
661.775	-3.08
661.808	15.92
661.84	-12.08
661.872	3.92
661.904	-23.08
661.936	-3.08
661.969	-8.08
662.001	-7.08
662.033	-1.08
662.065	-10.08
662.097	6.92
662.129	11.92
662.162	-13.08
662.194	10.92
662.226	-5.08
662.258	0.92
662.29	-4.08
662.322	-15.08
662.355	-23.08
662.387	17.92
662.419	14.92
662.451	8.92
662.483	4.92
662.515	0.92
662.547	1.92
662.58	2.92
662.612	-12.08
662.644	-19.08
662.676	3.92
662.708	15.92
662.74	11.92
662.772	17.92
662.804	18.92
662.836	-0.08
662.869	8.92
662.901	13.92
662.933	-8.08
662.965	15.92
662.997	0.92
663.029	-11.08
663.061	-2.08
663.093	3.92
663.125	8.92
663.157	4.92
663.189	-6.08
663.221	12.92
663.254	8.92
663.286	15.92
663.318	-8.08
663.35	0.92
663.382	-0.08
663.414	12.92
663.446	2.92
663.478	-5.08
663.51	14.92
663.542	8.92
663.574	6.92
663.606	11.92
663.638	0.92
663.67	-10.08
663.702	-32.08
663.734	-17.08
663.766	18.92
663.798	-10.08
663.83	2.92
663.862	8.92
663.894	0.92
663.926	-11.08
663.958	1.92
663.99	-3.08
664.022	-15.08
664.054	-4.08
664.086	-4.08
664.118	-19.08
664.15	-13.08
664.182	-1.08
664.214	3.92
664.246	12.92
664.278	8.92
664.31	11.92
664.342	-2.08
664.374	0.92
664.406	4.92
664.438	-1.08
664.47	15.92
664.502	7.92
664.534	-8.08
664.566	-32.08
664.598	3.92
664.63	-1.08
664.662	-3.08
664.693	-15.08
664.725	-15.08
664.757	2.92
664.789	-10.08
664.821	-0.08
664.853	-7.08
664.885	-1.08
664.917	-0.08
664.949	6.92
664.981	14.92
665.013	-0.08
665.045	-10.08
665.076	-10.08
665.108	-1.08
665.14	6.92
665.172	4.92
665.204	-11.08
665.236	-2.08
665.268	6.92
665.3	-19.08
665.331	-1.08
665.363	5.92
665.395	-5.08
665.427	3.92
665.459	-0.08
665.491	0.92
665.523	-0.08
665.555	-0.08
665.586	-4.08
665.618	-14.08
665.65	-19.08
665.682	-0.08
665.714	-1.08
665.746	1.92
665.777	13.92
665.809	9.92
665.841	-2.08
665.873	-11.08
665.905	0.92
665.937	-1.08
665.968	4.92
666	-0.08
666.032	-0.08
666.064	-1.08
666.096	-0.08
666.127	10.92
666.159	15.92
666.191	5.92
666.223	0.92
666.255	16.92
666.286	2.92
666.318	3.92
666.35	12.92
666.382	4.92
666.413	-20.08
666.445	-27.08
666.477	-12.08
666.509	-3.08
666.54	9.92
666.572	0.92
666.604	-8.08
666.636	4.92
666.667	4.92
666.699	19.92
666.731	-3.08
666.763	-0.08
666.794	-0.08
666.826	-10.08
666.858	-19.08
666.89	19.92
666.921	9.92
666.953	-1.08
666.985	13.92
667.017	14.92
667.048	11.92
667.08	-1.08
667.112	3.92
667.143	-15.08
667.175	-10.08
667.207	12.92
667.238	12.92
667.27	-3.08
667.302	-7.08
667.334	3.92
667.365	19.92
667.397	-2.08
667.429	-2.08
667.46	2.92
667.492	5.92
667.524	-9.08
667.555	-12.08
667.587	3.92
667.619	10.92
667.65	-17.08
667.682	8.92
667.714	0.92
667.745	0.92
667.777	-5.08
667.808	7.92
667.84	-4.08
667.872	3.92
667.903	24.92
667.935	-0.08
667.967	-13.08
667.998	-10.08
668.03	12.92
668.061	2.92
668.093	4.92
668.125	2.92
668.156	-1.08
668.188	3.92
668.22	-2.08
668.251	5.92
668.283	17.92
668.314	-0.08
668.346	0.92
668.377	25.92
668.409	8.92
668.441	12.92
668.472	21.92
668.504	0.92
668.535	10.92
668.567	-2.08
668.599	6.92
668.63	-4.08
668.662	-12.08
668.693	7.92
668.725	-1.08
668.756	15.92
668.788	1.92
668.819	15.92
668.851	10.92
668.882	-7.08
668.914	4.92
668.946	-6.08
668.977	-11.08
669.009	1.92
669.04	-15.08
669.072	4.92
669.103	-8.08
669.135	4.92
669.166	-1.08
669.198	5.92
669.229	13.92
669.261	-7.08
669.292	6.92
669.324	8.92
669.355	3.92
669.387	-3.08
669.418	7.92
669.45	-7.08
669.481	-2.08
669.513	1.92
669.544	0.92
669.576	1.92
669.607	15.92
669.639	17.92
669.67	6.92
669.701	11.92
669.733	-13.08
669.764	-8.08
669.796	-8.08
669.827	-2.08
669.859	-3.08
669.89	-13.08
669.922	-2.08
669.953	-1.08
669.985	16.92
670.016	7.92
670.047	8.92
670.079	-0.08
670.11	9.92
670.142	13.92
670.173	12.92
670.204	12.92
670.236	4.92
670.267	-16.08
670.299	-2.08
670.33	-3.08
670.362	-2.08
670.393	-14.08
670.424	1.92
670.456	-24.08
670.487	-6.08
670.518	4.92
670.55	-5.08
670.581	7.92
670.613	-0.08
670.644	2.92
670.675	-9.08
670.707	-26.08
670.738	-4.08
670.769	-1.08
670.801	-12.08
670.832	4.92
670.864	-22.08
670.895	-6.08
670.926	-7.08
670.958	-5.08
670.989	0.92
671.02	-9.08
671.052	-3.08
671.083	-4.08
671.114	-11.08
671.146	4.92
671.177	2.92
671.208	-14.08
671.24	-10.08
671.271	2.92
671.302	6.92
671.333	-15.08
671.365	-14.08
671.396	3.92
671.427	3.92
671.459	-8.08
671.49	7.92
671.521	-1.08
671.553	-10.08
671.584	-9.08
671.615	-6.08
671.646	10.92
671.678	11.92
671.709	-15.08
671.74	-9.08
671.771	-22.08
671.803	-10.08
671.834	-3.08
671.865	-8.08
671.896	16.92
671.928	-3.08
671.959	-3.08
671.99	-11.08
672.021	0.92
672.053	-15.08
672.084	13.92
672.115	8.92
672.146	-6.08
672.178	2.92
672.209	6.92
672.24	-4.08
672.271	17.92
672.303	0.92
672.334	-5.08
672.365	-5.08
672.396	-0.08
672.427	5.92
672.459	15.92
672.49	30.92
672.521	17.92
672.552	10.92
672.583	12.92
672.615	5.92
672.646	6.92
672.677	-20.08
672.708	2.92
672.739	2.92
672.77	24.92
672.802	7.92
672.833	5.92
672.864	0.92
672.895	-1.08
672.926	-5.08
672.957	-21.08
672.989	-3.08
673.02	-2.08
673.051	-6.08
673.082	12.92
673.113	11.92
673.144	5.92
673.175	14.92
673.206	9.92
673.238	-5.08
673.269	-2.08
673.3	-11.08
673.331	-2.08
673.362	-11.08
673.393	1.92
673.424	14.92
673.455	27.92
673.487	-15.08
673.518	0.92
673.549	-0.08
673.58	-3.08
673.611	6.92
673.642	-15.08
673.673	-31.08
673.704	0.92
673.735	-0.08
673.766	-5.08
673.797	2.92
673.828	4.92
673.86	-16.08
673.891	-34.08
673.922	-25.08
673.953	-5.08
673.984	7.92
674.015	6.92
674.046	2.92
674.077	9.92
674.108	3.92
674.139	-4.08
674.17	4.92
674.201	-1.08
674.232	-8.08
674.263	3.92
674.294	-10.08
674.325	-13.08
674.356	4.92
674.387	17.92
674.418	-6.08
674.449	-3.08
674.48	-11.08
674.511	-0.08
674.542	-9.08
674.573	0.92
674.604	13.92
674.635	-11.08
674.666	-0.08
674.697	1.92
674.728	-6.08
674.759	14.92
674.79	-13.08
674.821	-13.08
674.852	-4.08
674.883	-2.08
674.914	-11.08
674.945	12.92
674.976	9.92
675.007	-10.08
675.038	-8.08
675.069	-20.08
675.1	6.92
675.131	0.92
675.162	-7.08
675.193	-15.08
675.224	-28.08
675.254	14.92
675.285	16.92
675.316	28.92
675.347	-7.08
675.378	3.92
675.409	-5.08
675.44	8.92
675.471	-3.08
675.502	-13.08
675.533	-3.08
675.564	6.92
675.595	-7.08
675.625	14.92
675.656	-3.08
675.687	8.92
675.718	-18.08
675.749	0.92
675.78	4.92
675.811	7.92
675.842	9.92
675.873	2.92
675.903	1.92
675.934	-12.08
675.965	-7.08
675.996	-10.08
676.027	-2.08
676.058	-0.08
676.089	-12.08
676.119	-4.08
676.15	4.92
676.181	-9.08
676.212	-6.08
676.243	7.92
676.274	-3.08
676.304	7.92
676.335	-1.08
676.366	-1.08
676.397	-10.08
676.428	-5.08
676.459	-2.08
676.489	15.92
676.52	13.92
676.551	-19.08
676.582	-6.08
676.613	15.92
676.643	-10.08
676.674	8.92
676.705	-4.08
676.736	3.92
676.767	20.92
676.797	16.92
676.828	15.92
676.859	-3.08
676.89	0.92
676.92	9.92
676.951	8.92
676.982	8.92
677.013	6.92
677.044	29.92
677.074	36.92
677.105	-1.08
677.136	-9.08
677.167	-10.08
677.197	-3.08
677.228	7.92
677.259	7.92
677.289	-11.08
677.32	-27.08
677.351	0.92
677.382	-1.08
677.412	4.92
677.443	5.92
677.474	1.92
677.505	-10.08
677.535	-13.08
677.566	-8.08
677.597	-11.08
677.627	-5.08
677.658	-13.08
677.689	3.92
677.72	-10.08
677.75	4.92
677.781	10.92
677.812	-0.08
677.842	13.92
677.873	4.92
677.904	-5.08
677.934	-14.08
677.965	-9.08
677.996	-14.08
678.026	-2.08
678.057	20.92
678.088	-2.08
678.118	3.92
678.149	-15.08
678.18	-5.08
678.21	4.92
678.241	-1.08
678.272	-7.08
678.302	-3.08
678.333	2.92
678.363	15.92
678.394	8.92
678.425	5.92
678.455	-4.08
678.486	7.92
678.517	2.92
678.547	9.92
678.578	10.92
678.608	-12.08
678.639	18.92
678.67	12.92
678.7	-0.08
678.731	-6.08
678.761	-2.08
678.792	4.92
678.823	4.92
678.853	-10.08
678.884	-8.08
678.914	2.92
678.945	-3.08
678.975	-0.08
679.006	8.92
679.037	-5.08
679.067	19.92
679.098	-2.08
679.128	-12.08
679.159	-7.08
679.189	9.92
679.22	-21.08
679.25	-6.08
679.281	-3.08
679.312	2.92
679.342	8.92
679.373	29.92
679.403	4.92
679.434	19.92
679.464	0.92
679.495	-8.08
679.525	8.92
679.556	-6.08
679.586	-2.08
679.617	6.92
679.647	-6.08
679.678	3.92
679.708	0.92
679.739	1.92
679.769	-2.08
679.8	1.92
679.83	4.92
679.861	13.92
679.891	-2.08
679.922	-15.08
679.952	-15.08
679.983	14.92
680.013	11.92
680.044	-17.08
680.074	7.92
680.105	3.92
680.135	4.92
680.165	10.92
680.196	-11.08
680.226	14.92
680.257	0.92
680.287	6.92
680.318	-11.08
680.348	-10.08
680.379	15.92
680.409	0.92
680.439	-16.08
680.47	-0.08
680.5	-1.08
680.531	9.92
680.561	8.92
680.592	4.92
680.622	15.92
680.652	-14.08
680.683	0.92
680.713	6.92
680.744	0.92
680.774	12.92
680.804	18.92
680.835	2.92
680.865	-7.08
680.896	11.92
680.926	10.92
680.956	-3.08
680.987	4.92
681.017	10.92
681.047	10.92
681.078	-12.08
681.108	9.92
681.139	1.92
681.169	-9.08
681.199	-3.08
681.23	10.92
681.26	-6.08
681.29	0.92
681.321	7.92
681.351	21.92
681.381	-0.08
681.412	11.92
681.442	-6.08
681.472	-1.08
681.503	1.92
681.533	-0.08
681.563	-7.08
681.594	3.92
681.624	7.92
681.654	-3.08
681.685	11.92
681.715	-14.08
681.745	-11.08
681.775	-2.08
681.806	-6.08
681.836	-8.08
681.866	-3.08
681.897	-15.08
681.927	5.92
681.957	-19.08
681.987	-11.08
682.018	-0.08
682.048	1.92
682.078	-6.08
682.109	2.92
682.139	12.92
682.169	4.92
682.199	-11.08
682.23	-3.08
682.26	5.92
682.29	5.92
682.32	-0.08
682.351	-0.08
682.381	9.92
682.411	2.92
682.441	1.92
682.472	-13.08
682.502	-10.08
682.532	-10.08
682.562	3.92
682.592	6.92
682.623	7.92
682.653	4.92
682.683	-18.08
682.713	8.92
682.743	-17.08
682.774	-4.08
682.804	2.92
682.834	22.92
682.864	1.92
682.894	-1.08
682.925	5.92
682.955	-6.08
682.985	-10.08
683.015	5.92
683.045	10.92
683.076	-7.08
683.106	0.92
683.136	-13.08
683.166	-5.08
683.196	-14.08
683.226	-8.08
683.257	1.92
683.287	-5.08
683.317	-4.08
683.347	-13.08
683.377	-6.08
683.407	7.92
683.437	5.92
683.468	14.92
683.498	-19.08
683.528	-9.08
683.558	5.92
683.588	-4.08
683.618	-31.08
683.648	7.92
683.678	10.92
683.708	6.92
683.739	6.92
683.769	-0.08
683.799	-3.08
683.829	-1.08
683.859	-14.08
683.889	-1.08
683.919	-11.08
683.949	-1.08
683.979	-6.08
684.009	11.92
684.039	8.92
684.07	-10.08
684.1	11.92
684.13	0.92
684.16	-9.08
684.19	-9.08
684.22	-18.08
684.25	0.92
684.28	-8.08
684.31	6.92
684.34	-14.08
684.37	18.92
684.4	-1.08
684.43	0.92
684.46	-8.08
684.49	-1.08
684.52	-2.08
684.55	5.92
684.58	-8.08
684.61	-3.08
684.64	-5.08
684.67	6.92
684.7	11.92
684.73	12.92
684.76	0.92
684.79	6.92
684.82	3.92
684.85	-12.08
684.88	-8.08
684.91	5.92
684.94	-13.08
684.97	-8.08
685	-5.08
685.03	-7.08
685.06	-4.08
685.09	-3.08
685.12	7.92
685.15	-8.08
685.18	6.92
685.21	-3.08
685.24	6.92
685.27	16.92
685.3	7.92
685.33	2.92
685.36	8.92
685.39	5.92
685.42	-9.08
685.45	-13.08
685.48	2.92
685.51	3.92
685.54	-3.08
685.569	20.92
685.599	10.92
685.629	-3.08
685.659	-4.08
685.689	-8.08
685.719	11.92
685.749	-6.08
685.779	6.92
685.809	9.92
685.839	12.92
685.869	4.92
685.898	3.92
685.928	-13.08
685.958	-0.08
685.988	3.92
686.018	-1.08
686.048	1.92
686.078	-1.08
686.108	-0.08
686.137	10.92
686.167	9.92
686.197	-8.08
686.227	4.92
686.257	15.92
686.287	20.92
686.317	-3.08
686.346	-0.08
686.376	-3.08
686.406	-15.08
686.436	0.92
686.466	2.92
686.496	13.92
686.525	-1.08
686.555	-2.08
686.585	10.92
686.615	28.92
686.645	8.92
686.675	-1.08
686.704	-0.08
686.734	-1.08
686.764	-0.08
686.794	1.92
686.824	6.92
686.853	2.92
686.883	13.92
686.913	-2.08
686.943	3.92
686.973	-10.08
687.002	-7.08
687.032	-3.08
687.062	12.92
687.092	23.92
687.121	-7.08
687.151	19.92
687.181	-1.08
687.211	11.92
687.24	-15.08
687.27	-3.08
687.3	-8.08
687.33	7.92
687.359	-7.08
687.389	-0.08
687.419	-1.08
687.449	-17.08
687.478	2.92
687.508	-11.08
687.538	9.92
687.568	11.92
687.597	-1.08
687.627	-6.08
687.657	1.92
687.686	15.92
687.716	21.92
687.746	-1.08
687.776	-8.08
687.805	5.92
687.835	-7.08
687.865	7.92
687.894	3.92
687.924	4.92
687.954	15.92
687.983	-2.08
688.013	5.92
688.043	-2.08
688.072	4.92
688.102	10.92
688.132	21.92
688.161	13.92
688.191	-4.08
688.221	11.92
688.25	-1.08
688.28	14.92
688.31	-3.08
688.339	4.92
688.369	-10.08
688.399	-6.08
688.428	-9.08
688.458	1.92
688.488	4.92
688.517	2.92
688.547	1.92
688.576	28.92
688.606	4.92
688.636	-14.08
688.665	4.92
688.695	19.92
688.725	7.92
688.754	-0.08
688.784	-1.08
688.813	5.92
688.843	3.92
688.873	-12.08
688.902	-8.08
688.932	1.92
688.961	16.92
688.991	6.92
689.02	14.92
689.05	7.92
689.08	17.92
689.109	13.92
689.139	7.92
689.168	-0.08
689.198	-7.08
689.227	-3.08
689.257	7.92
689.287	5.92
689.316	-16.08
689.346	-14.08
689.375	-16.08
689.405	-4.08
689.434	-0.08
689.464	-0.08
689.493	-10.08
689.523	-1.08
689.552	-7.08
689.582	7.92
689.611	-1.08
689.641	5.92
689.67	1.92
689.7	2.92
689.73	4.92
689.759	-7.08
689.789	9.92
689.818	-1.08
689.848	-4.08
689.877	13.92
689.906	1.92
689.936	-20.08
689.965	11.92
689.995	4.92
690.024	5.92
690.054	-9.08
690.083	-9.08
690.113	-6.08
690.142	-11.08
690.172	-2.08
690.201	-3.08
690.231	-2.08
690.26	13.92
690.29	5.92
690.319	-6.08
690.348	-1.08
690.378	15.92
690.407	9.92
690.437	-2.08
690.466	7.92
690.496	4.92
690.525	-7.08
690.555	4.92
690.584	-11.08
690.613	-8.08
690.643	-0.08
690.672	-1.08
690.702	-3.08
690.731	16.92
690.76	14.92
690.79	46.92
690.819	46.92
690.849	25.92
690.878	31.92
690.907	17.92
690.937	21.92
690.966	16.92
690.996	-8.08
691.025	-2.08
691.054	-3.08
691.084	8.92
691.113	-0.08
691.142	4.92
691.172	14.92
691.201	16.92
691.23	-1.08
691.26	10.92
691.289	4.92
691.319	2.92
691.348	0.92
691.377	2.92
691.407	3.92
691.436	0.92
691.465	5.92
691.495	-15.08
691.524	-13.08
691.553	-4.08
691.583	-10.08
691.612	5.92
691.641	-0.08
691.67	0.92
691.7	2.92
691.729	-27.08
691.758	-3.08
691.788	-4.08
691.817	9.92
691.846	-4.08
691.876	13.92
691.905	11.92
691.934	0.92
691.963	11.92
691.993	6.92
692.022	-7.08
692.051	-1.08
692.081	19.92
692.11	4.92
692.139	7.92
692.168	15.92
692.198	28.92
692.227	-6.08
692.256	-9.08
692.285	-2.08
692.315	-0.08
692.344	1.92
692.373	16.92
692.402	-17.08
692.432	-4.08
692.461	-1.08
692.49	6.92
692.519	5.92
692.548	15.92
692.578	9.92
692.607	-4.08
692.636	-9.08
692.665	7.92
692.694	-2.08
692.724	-6.08
692.753	2.92
692.782	9.92
692.811	-16.08
692.84	-2.08
692.87	4.92
692.899	4.92
692.928	-2.08
692.957	0.92
692.986	13.92
693.016	14.92
693.045	2.92
693.074	0.92
693.103	2.92
693.132	1.92
693.161	12.92
693.191	8.92
693.22	3.92
693.249	-7.08
693.278	3.92
693.307	-0.08
693.336	-15.08
693.365	-18.08
693.395	-3.08
693.424	15.92
693.453	11.92
693.482	2.92
693.511	-6.08
693.54	4.92
693.569	9.92
693.598	-9.08
693.628	17.92
693.657	2.92
693.686	9.92
693.715	15.92
693.744	-0.08
693.773	4.92
693.802	5.92
693.831	15.92
693.86	13.92
693.889	1.92
693.919	2.92
693.948	2.92
693.977	4.92
694.006	1.92
694.035	-3.08
694.064	-18.08
694.093	-6.08
694.122	-1.08
694.151	4.92
694.18	8.92
694.209	25.92
694.238	-3.08
694.267	15.92
694.296	0.92
694.325	4.92
694.354	15.92
694.383	2.92
694.412	-5.08
694.441	-0.08
694.471	-2.08
694.5	-7.08
694.529	0.92
694.558	17.92
694.587	14.92
694.616	0.92
694.645	-0.08
694.674	8.92
694.703	15.92
694.732	4.92
694.761	16.92
694.79	6.92
694.819	-9.08
694.848	0.92
694.877	12.92
694.906	35.92
694.935	12.92
694.963	7.92
694.992	8.92
695.021	14.92
695.05	20.92
695.079	1.92
695.108	-7.08
695.137	30.92
695.166	14.92
695.195	-10.08
695.224	-6.08
695.253	0.92
695.282	4.92
695.311	17.92
695.34	8.92
695.369	-0.08
695.398	15.92
695.427	26.92
695.456	5.92
695.485	-1.08
695.513	-4.08
695.542	-3.08
695.571	-8.08
695.6	12.92
695.629	11.92
695.658	10.92
695.687	20.92
695.716	5.92
695.745	13.92
695.774	-5.08
695.802	-6.08
695.831	-5.08
695.86	-2.08
695.889	18.92
695.918	11.92
695.947	0.92
695.976	10.92
696.005	6.92
696.033	13.92
696.062	23.92
696.091	14.92
696.12	12.92
696.149	26.92
696.178	2.92
696.207	3.92
696.235	-15.08
696.264	3.92
696.293	11.92
696.322	-3.08
696.351	1.92
696.38	4.92
696.408	4.92
696.437	-1.08
696.466	6.92
696.495	26.92
696.524	20.92
696.553	-0.08
696.581	6.92
696.61	4.92
696.639	21.92
696.668	-0.08
696.697	-3.08
696.725	10.92
696.754	-4.08
696.783	-3.08
696.812	5.92
696.84	19.92
696.869	12.92
696.898	9.92
696.927	17.92
696.956	20.92
696.984	-9.08
697.013	-6.08
697.042	-2.08
697.071	5.92
697.099	7.92
697.128	14.92
697.157	20.92
697.186	6.92
697.214	-9.08
697.243	-8.08
697.272	4.92
697.301	25.92
697.329	-0.08
697.358	-6.08
697.387	12.92
697.415	14.92
697.444	13.92
697.473	-7.08
697.502	12.92
697.53	7.92
697.559	13.92
697.588	-1.08
697.616	0.92
697.645	-14.08
697.674	9.92
697.703	2.92
697.731	19.92
697.76	1.92
697.789	6.92
697.817	-3.08
697.846	2.92
697.875	14.92
697.903	26.92
697.932	19.92
697.961	2.92
697.989	7.92
698.018	19.92
698.047	12.92
698.075	16.92
698.104	-8.08
698.133	8.92
698.161	-12.08
698.19	-1.08
698.218	-18.08
698.247	9.92
698.276	3.92
698.304	23.92
698.333	8.92
698.362	3.92
698.39	17.92
698.419	10.92
698.447	12.92
698.476	0.92
698.505	6.92
698.533	8.92
698.562	-0.08
698.591	7.92
698.619	-26.08
698.648	-1.08
698.676	8.92
698.705	3.92
698.733	-15.08
698.762	-2.08
698.791	1.92
698.819	8.92
698.848	-9.08
698.876	9.92
698.905	4.92
698.933	19.92
698.962	11.92
698.991	9.92
699.019	23.92
699.048	2.92
699.076	-2.08
699.105	-28.08
699.133	-17.08
699.162	-7.08
699.19	10.92
699.219	5.92
699.248	5.92
699.276	-7.08
699.305	3.92
699.333	14.92
699.362	-8.08
699.39	-7.08
699.419	-3.08
699.447	10.92
699.476	5.92
699.504	-1.08
699.533	11.92
699.561	-15.08
699.59	1.92
699.618	-2.08
699.647	11.92
699.675	-4.08
699.704	-0.08
699.732	-15.08
699.761	5.92
699.789	-2.08
699.818	-1.08
699.846	-9.08
699.874	9.92
699.903	12.92
699.931	-1.08
699.96	6.92
699.988	-2.08
700.017	-2.08
700.045	1.92
700.074	-5.08
700.102	7.92
700.13	-5.08
700.159	11.92
700.187	-3.08
700.216	-0.08
700.244	0.92
700.273	-5.08
700.301	-8.08
700.329	-5.08
700.358	14.92
700.386	-1.08
700.415	18.92
700.443	-0.08
700.472	-4.08
700.5	0.92
700.528	-2.08
700.557	-0.08
700.585	-8.08
700.614	-12.08
700.642	5.92
700.67	19.92
700.699	12.92
700.727	7.92
700.755	7.92
700.784	7.92
700.812	-7.08
700.841	7.92
700.869	3.92
700.897	-17.08
700.926	5.92
700.954	5.92
700.982	2.92
701.011	-1.08
701.039	5.92
701.067	0.92
701.096	1.92
701.124	-2.08
701.152	-2.08
701.181	-2.08
701.209	-2.08
701.237	5.92
701.266	-4.08
701.294	-4.08
701.322	-9.08
701.351	17.92
701.379	6.92
701.407	-0.08
701.435	9.92
701.464	8.92
701.492	9.92
701.52	2.92
701.549	2.92
701.577	-7.08
701.605	-4.08
701.634	3.92
701.662	4.92
701.69	-22.08
701.718	-13.08
701.747	21.92
701.775	4.92
701.803	-3.08
701.831	27.92
701.86	0.92
701.888	1.92
701.916	-0.08
701.944	6.92
701.973	-11.08
702.001	-23.08
702.029	-15.08
702.057	-14.08
702.086	0.92
702.114	-0.08
702.142	-4.08
702.17	0.92
702.199	2.92
702.227	-5.08
702.255	-2.08
702.283	-13.08
702.311	9.92
702.34	10.92
702.368	-2.08
702.396	1.92
702.424	-10.08
702.452	-4.08
702.481	14.92
702.509	-4.08
702.537	9.92
702.565	0.92
702.593	-16.08
702.621	12.92
702.65	19.92
702.678	16.92
702.706	12.92
702.734	-4.08
702.762	-1.08
702.79	-15.08
702.819	7.92
702.847	7.92
702.875	17.92
702.903	-1.08
702.931	-10.08
702.959	11.92
702.988	-3.08
703.016	-10.08
703.044	-8.08
703.072	-9.08
703.1	-2.08
703.128	-0.08
703.156	-6.08
703.184	-11.08
703.212	5.92
703.241	14.92
703.269	-1.08
703.297	-7.08
703.325	4.92
703.353	-14.08
703.381	-8.08
703.409	4.92
703.437	-16.08
703.465	2.92
703.493	-9.08
703.522	0.92
703.55	8.92
703.578	2.92
703.606	-4.08
703.634	6.92
703.662	-7.08
703.69	-9.08
703.718	-6.08
703.746	12.92
703.774	-0.08
703.802	7.92
703.83	6.92
703.858	-0.08
703.886	-7.08
703.914	-16.08
703.942	14.92
703.97	4.92
703.998	9.92
704.027	10.92
704.055	9.92
704.083	2.92
704.111	-9.08
704.139	-12.08
704.167	-11.08
704.195	-5.08
704.223	-8.08
704.251	14.92
704.279	8.92
704.307	-6.08
704.335	-4.08
704.363	0.92
704.391	0.92
704.419	-12.08
704.447	-16.08
704.475	-4.08
704.503	-11.08
704.531	25.92
704.558	13.92
704.586	8.92
704.614	5.92
704.642	4.92
704.67	-15.08
704.698	2.92
704.726	-6.08
704.754	-3.08
704.782	-16.08
704.81	0.92
704.838	29.92
704.866	13.92
704.894	-26.08
704.922	1.92
704.95	0.92
704.978	0.92
705.006	-1.08
705.034	27.92
705.061	-10.08
705.089	4.92
705.117	5.92
705.145	-1.08
705.173	3.92
705.201	5.92
705.229	15.92
705.257	-4.08
705.285	4.92
705.313	12.92
705.34	13.92
705.368	-5.08
705.396	15.92
705.424	26.92
705.452	6.92
705.48	0.92
705.508	-9.08
705.536	3.92
705.563	-0.08
705.591	6.92
705.619	3.92
705.647	-6.08
705.675	-2.08
705.703	-5.08
705.731	-14.08
705.758	6.92
705.786	19.92
705.814	11.92
705.842	-15.08
705.87	7.92
705.898	0.92
705.925	-2.08
705.953	10.92
705.981	6.92
706.009	8.92
706.037	11.92
706.065	2.92
706.092	-13.08
706.12	-11.08
706.148	-5.08
706.176	-7.08
706.204	17.92
706.231	13.92
706.259	-17.08
706.287	-10.08
706.315	14.92
706.342	-2.08
706.37	10.92
706.398	15.92
706.426	5.92
706.454	2.92
706.481	4.92
706.509	8.92
706.537	-2.08
706.565	-4.08
706.592	7.92
706.62	-2.08
706.648	-6.08
706.676	-6.08
706.703	-0.08
706.731	1.92
706.759	-10.08
706.787	7.92
706.814	4.92
706.842	-9.08
706.87	-4.08
706.897	7.92
706.925	-5.08
706.953	10.92
706.981	19.92
707.008	14.92
707.036	-5.08
707.064	-12.08
707.091	-25.08
707.119	1.92
707.147	-3.08
707.174	-12.08
707.202	0.92
707.23	-1.08
707.258	2.92
707.285	-4.08
707.313	-1.08
707.341	-7.08
707.368	-8.08
707.396	10.92
707.424	26.92
707.451	8.92
707.479	17.92
707.507	12.92
707.534	-10.08
707.562	6.92
707.59	-9.08
707.617	-19.08
707.645	-5.08
707.672	1.92
707.7	-6.08
707.728	-0.08
707.755	6.92
707.783	-4.08
707.811	-8.08
707.838	-1.08
707.866	-1.08
707.893	-3.08
707.921	-7.08
707.949	-10.08
707.976	8.92
708.004	-1.08
708.031	-12.08
708.059	4.92
708.087	4.92
708.114	0.92
708.142	2.92
708.169	-12.08
708.197	-1.08
708.225	-3.08
708.252	8.92
708.28	16.92
708.307	12.92
708.335	-8.08
708.362	-7.08
708.39	-18.08
708.418	-12.08
708.445	-10.08
708.473	3.92
708.5	-4.08
708.528	-1.08
708.555	-11.08
708.583	-0.08
708.61	0.92
708.638	4.92
708.665	-7.08
708.693	0.92
708.72	-13.08
708.748	-24.08
708.776	-9.08
708.803	16.92
708.831	6.92
708.858	11.92
708.886	1.92
708.913	-1.08
708.941	-10.08
708.968	9.92
708.996	-3.08
709.023	19.92
709.051	-1.08
709.078	3.92
709.105	7.92
709.133	5.92
709.16	-2.08
709.188	2.92
709.215	-2.08
709.243	0.92
709.27	-8.08
709.298	1.92
709.325	-5.08
709.353	0.92
709.38	-0.08
709.408	10.92
709.435	-2.08
709.462	0.92
709.49	-0.08
709.517	-3.08
709.545	-12.08
709.572	-4.08
709.6	10.92
709.627	9.92
709.655	-7.08
709.682	-8.08
709.709	-4.08
709.737	4.92
709.764	1.92
709.792	15.92
709.819	5.92
709.846	-10.08
709.874	5.92
709.901	15.92
709.929	23.92
709.956	7.92
709.983	2.92
710.011	-2.08
710.038	-10.08
710.066	5.92
710.093	20.92
710.12	1.92
710.148	8.92
710.175	-4.08
710.202	-16.08
710.23	-4.08
710.257	-8.08
710.284	10.92
710.312	12.92
710.339	-3.08
710.366	-11.08
710.394	-4.08
710.421	-5.08
710.448	-10.08
710.476	-19.08
710.503	-15.08
710.53	-2.08
710.558	-7.08
710.585	14.92
710.612	-7.08
710.64	-9.08
710.667	-4.08
710.694	-7.08
710.722	-2.08
710.749	9.92
710.776	-1.08
710.804	31.92
710.831	-6.08
710.858	1.92
710.885	-9.08
710.913	-8.08
710.94	16.92
710.967	4.92
710.995	-9.08
711.022	-8.08
711.049	9.92
711.076	1.92
711.104	-3.08
711.131	-27.08
711.158	-7.08
711.185	16.92
711.213	-17.08
711.24	-7.08
711.267	-9.08
711.294	-9.08
711.322	1.92
711.349	-6.08
711.376	-7.08
711.403	12.92
711.431	-12.08
711.458	0.92
711.485	-9.08
711.512	12.92
711.54	-14.08
711.567	-4.08
711.594	-11.08
711.621	-7.08
711.648	0.92
711.676	4.92
711.703	0.92
711.73	0.92
711.757	-8.08
711.784	5.92
711.812	1.92
711.839	-6.08
711.866	-7.08
711.893	-16.08
711.92	0.92
711.947	-3.08
711.975	0.92
712.002	-9.08
712.029	3.92
712.056	-0.08
712.083	9.92
712.11	-15.08
712.138	0.92
712.165	0.92
712.192	-1.08
712.219	16.92
712.246	-4.08
712.273	-1.08
712.3	-15.08
712.328	10.92
712.355	1.92
712.382	-1.08
712.409	18.92
712.436	-17.08
712.463	5.92
712.49	4.92
712.517	0.92
712.544	-0.08
712.572	0.92
712.599	-3.08
712.626	-0.08
712.653	-6.08
712.68	-6.08
712.707	-0.08
712.734	-11.08
712.761	0.92
712.788	-16.08
712.815	-3.08
712.842	-3.08
712.87	-8.08
712.897	-9.08
712.924	-4.08
712.951	10.92
712.978	20.92
713.005	14.92
713.032	8.92
713.059	-12.08
713.086	-2.08
713.113	-13.08
713.14	-13.08
713.167	-1.08
713.194	16.92
713.221	3.92
713.248	-0.08
713.275	-7.08
713.302	-9.08
713.329	-0.08
713.356	13.92
713.383	12.92
713.41	-3.08
713.437	-3.08
713.464	-5.08
713.491	19.92
713.518	6.92
713.545	5.92
713.572	0.92
713.599	9.92
713.626	0.92
713.653	-7.08
713.68	-6.08
713.707	8.92
713.734	4.92
713.761	0.92
713.788	9.92
713.815	11.92
713.842	-1.08
713.869	-16.08
713.896	-1.08
713.923	-0.08
713.95	-8.08
713.977	-1.08
714.004	7.92
714.031	-10.08
714.058	-0.08
714.085	-12.08
714.112	8.92
714.139	9.92
714.165	-14.08
714.192	-17.08
714.219	-7.08
714.246	2.92
714.273	4.92
714.3	-9.08
714.327	6.92
714.354	17.92
714.381	6.92
714.408	9.92
714.435	-2.08
714.461	-3.08
714.488	-8.08
714.515	0.92
714.542	-3.08
714.569	-10.08
714.596	-18.08
714.623	-2.08
714.65	-7.08
714.677	-2.08
714.703	-0.08
714.73	-6.08
714.757	-6.08
714.784	-6.08
714.811	-19.08
714.838	-10.08
714.865	-15.08
714.891	3.92
714.918	-1.08
714.945	-11.08
714.972	7.92
714.999	9.92
715.026	-6.08
715.052	19.92
715.079	0.92
715.106	-10.08
715.133	-2.08
715.16	-1.08
715.187	-9.08
715.213	6.92
715.24	-12.08
715.267	-6.08
715.294	-5.08
715.321	-11.08
715.347	-8.08
715.374	-7.08
715.401	-4.08
715.428	0.92
715.455	2.92
715.481	-11.08
715.508	8.92
715.535	-4.08
715.562	1.92
715.588	5.92
715.615	4.92
715.642	8.92
715.669	18.92
715.695	-14.08
715.722	-5.08
715.749	9.92
715.776	0.92
715.802	0.92
715.829	3.92
715.856	-9.08
715.883	1.92
715.909	-10.08
715.936	1.92
715.963	-0.08
715.99	-3.08
716.016	-10.08
716.043	1.92
716.07	-4.08
716.096	-4.08
716.123	-10.08
716.15	-4.08
716.177	5.92
716.203	3.92
716.23	15.92
716.257	11.92
716.283	20.92
716.31	8.92
716.337	5.92
716.363	-7.08
716.39	4.92
716.417	17.92
716.443	16.92
716.47	21.92
716.497	-1.08
716.523	1.92
716.55	6.92
716.577	9.92
716.603	-27.08
716.63	-2.08
716.657	-0.08
716.683	-19.08
716.71	-21.08
716.737	-14.08
716.763	8.92
716.79	16.92
716.817	12.92
716.843	16.92
716.87	-9.08
716.897	-12.08
716.923	13.92
716.95	4.92
716.976	-8.08
717.003	-8.08
717.03	4.92
717.056	-5.08
717.083	-12.08
717.109	-6.08
717.136	17.92
717.163	-3.08
717.189	-4.08
717.216	15.92
717.242	1.92
717.269	3.92
717.296	7.92
717.322	7.92
717.349	-1.08
717.375	6.92
717.402	-7.08
717.428	8.92
717.455	7.92
717.481	7.92
717.508	8.92
717.535	6.92
717.561	-3.08
717.588	-5.08
717.614	-4.08
717.641	3.92
717.667	-0.08
717.694	0.92
717.72	1.92
717.747	-1.08
717.773	-7.08
717.8	-2.08
717.826	9.92
717.853	-8.08
717.88	14.92
717.906	6.92
717.933	8.92
717.959	-1.08
717.986	1.92
718.012	-0.08
718.039	11.92
718.065	-0.08
718.092	9.92
718.118	-12.08
718.144	-1.08
718.171	0.92
718.197	14.92
718.224	-8.08
718.25	-3.08
718.277	8.92
718.303	5.92
718.33	-6.08
718.356	-11.08
718.383	-5.08
718.409	-2.08
718.436	-6.08
718.462	-3.08
718.489	7.92
718.515	18.92
718.541	1.92
718.568	6.92
718.594	-4.08
718.621	-9.08
718.647	4.92
718.674	10.92
718.7	5.92
718.726	-4.08
718.753	-13.08
718.779	3.92
718.806	1.92
718.832	-1.08
718.858	0.92
718.885	-16.08
718.911	-3.08
718.938	11.92
718.964	-8.08
718.99	-1.08
719.017	0.92
719.043	-4.08
719.07	24.92
719.096	-6.08
719.122	14.92
719.149	8.92
719.175	13.92
719.201	-7.08
719.228	-9.08
719.254	7.92
719.281	-4.08
719.307	-12.08
719.333	-18.08
719.36	13.92
719.386	-3.08
719.412	-4.08
719.439	-5.08
719.465	-4.08
719.491	-1.08
719.518	7.92
719.544	8.92
719.57	8.92
719.597	-3.08
719.623	1.92
719.649	1.92
719.675	-11.08
719.702	-13.08
719.728	22.92
719.754	-4.08
719.781	0.92
719.807	-8.08
719.833	-10.08
719.86	-4.08
719.886	8.92
719.912	7.92
719.938	-11.08
719.965	0.92
719.991	15.92
720.017	-0.08
720.044	-8.08
720.07	-0.08
720.096	1.92
720.122	-8.08
720.149	11.92
720.175	23.92
720.201	-0.08
720.227	-15.08
720.254	-7.08
720.28	-3.08
720.306	-8.08
720.332	1.92
720.359	0.92
720.385	-3.08
720.411	-3.08
720.437	-18.08
720.463	-6.08
720.49	2.92
720.516	-11.08
720.542	-3.08
720.568	4.92
720.595	13.92
720.621	6.92
720.647	-2.08
720.673	0.92
720.699	-10.08
720.725	-3.08
720.752	-7.08
720.778	4.92
720.804	0.92
720.83	14.92
720.856	3.92
720.883	-2.08
720.909	-6.08
720.935	-7.08
720.961	17.92
720.987	14.92
721.013	8.92
721.04	-0.08
721.066	-7.08
721.092	-7.08
721.118	10.92
721.144	-8.08
721.17	-18.08
721.196	-6.08
721.223	-7.08
721.249	-11.08
721.275	19.92
721.301	-2.08
721.327	8.92
721.353	3.92
721.379	-9.08
721.405	2.92
721.432	13.92
721.458	-10.08
721.484	-1.08
721.51	-10.08
721.536	2.92
721.562	-14.08
721.588	-2.08
721.614	-8.08
721.64	4.92
721.666	-0.08
721.693	-7.08
721.719	-0.08
721.745	-4.08
721.771	-2.08
721.797	0.92
721.823	-25.08
721.849	25.92
721.875	18.92
721.901	-7.08
721.927	-7.08
721.953	-4.08
721.979	7.92
722.005	22.92
722.031	-2.08
722.057	-9.08
722.083	-8.08
722.109	-1.08
722.135	1.92
722.161	3.92
722.187	-14.08
722.214	-1.08
722.24	-6.08
722.266	-10.08
722.292	-7.08
722.318	3.92
722.344	-9.08
722.37	-7.08
722.396	6.92
722.422	-2.08
722.448	-4.08
722.474	-16.08
722.5	16.92
722.526	-6.08
722.552	-10.08
722.578	-5.08
722.603	-0.08
722.629	-0.08
722.655	-0.08
722.681	3.92
722.707	-2.08
722.733	-6.08
722.759	-16.08
722.785	-0.08
722.811	3.92
722.837	2.92
722.863	21.92
722.889	6.92
722.915	-3.08
722.941	1.92
722.967	15.92
722.993	15.92
723.019	-1.08
723.045	-7.08
723.071	4.92
723.097	10.92
723.122	17.92
723.148	-3.08
723.174	12.92
723.2	12.92
723.226	-9.08
723.252	-5.08
723.278	-6.08
723.304	-2.08
723.33	29.92
723.356	-0.08
723.381	-11.08
723.407	-15.08
723.433	7.92
723.459	-3.08
723.485	-4.08
723.511	25.92
723.537	1.92
723.563	-7.08
723.588	2.92
723.614	-0.08
723.64	1.92
723.666	3.92
723.692	9.92
723.718	-6.08
723.744	-3.08
723.769	-4.08
723.795	-8.08
723.821	11.92
723.847	-7.08
723.873	7.92
723.899	-0.08
723.924	-6.08
723.95	-6.08
723.976	-15.08
724.002	0.92
724.028	-12.08
724.053	-2.08
724.079	-1.08
724.105	6.92
724.131	4.92
724.157	-16.08
724.182	8.92
724.208	-16.08
724.234	-7.08
724.26	0.92
724.286	0.92
724.311	-8.08
724.337	-15.08
724.363	-8.08
724.389	-5.08
724.415	0.92
724.44	24.92
724.466	-9.08
724.492	3.92
724.518	14.92
724.543	-0.08
724.569	2.92
724.595	10.92
724.621	-0.08
724.646	-9.08
724.672	7.92
724.698	2.92
724.723	1.92
724.749	1.92
724.775	9.92
724.801	5.92
724.826	-14.08
724.852	-9.08
724.878	-0.08
724.904	-18.08
724.929	3.92
724.955	-14.08
724.981	1.92
725.006	10.92
725.032	-1.08
725.058	8.92
725.083	-6.08
725.109	-3.08
725.135	-1.08
725.161	-7.08
725.186	-3.08
725.212	-6.08
725.238	4.92
725.263	5.92
725.289	0.92
725.315	-4.08
725.34	-7.08
725.366	9.92
725.392	-8.08
725.417	-2.08
725.443	-12.08
725.468	-3.08
725.494	5.92
725.52	10.92
725.545	-7.08
725.571	-14.08
725.597	-22.08
725.622	2.92
725.648	1.92
725.674	16.92
725.699	12.92
725.725	22.92
725.75	27.92
725.776	0.92
725.802	6.92
725.827	3.92
725.853	3.92
725.878	-11.08
725.904	-5.08
725.93	-8.08
725.955	-6.08
725.981	-16.08
726.006	-7.08
726.032	-4.08
726.057	-2.08
726.083	7.92
726.109	-3.08
726.134	8.92
726.16	-0.08
726.185	0.92
726.211	-6.08
726.236	3.92
726.262	2.92
726.288	-2.08
726.313	-4.08
726.339	3.92
726.364	-2.08
726.39	17.92
726.415	-1.08
726.441	-1.08
726.466	-4.08
726.492	0.92
726.517	7.92
726.543	16.92
726.568	-3.08
726.594	4.92
726.619	2.92
726.645	5.92
726.67	-0.08
726.696	-8.08
726.721	-9.08
726.747	-8.08
726.772	-2.08
726.798	4.92
726.823	19.92
726.849	7.92
726.874	-7.08
726.9	23.92
726.925	7.92
726.951	4.92
726.976	-7.08
727.002	-13.08
727.027	-1.08
727.053	-5.08
727.078	0.92
727.104	1.92
727.129	-15.08
727.155	-8.08
727.18	2.92
727.205	-5.08
727.231	-16.08
727.256	-0.08
727.282	9.92
727.307	18.92
727.333	6.92
727.358	-10.08
727.383	4.92
727.409	6.92
727.434	10.92
727.46	-0.08
727.485	7.92
727.511	-0.08
727.536	-10.08
727.561	-4.08
727.587	0.92
727.612	0.92
727.637	-9.08
727.663	-10.08
727.688	16.92
727.714	-4.08
727.739	-7.08
727.764	-2.08
727.79	10.92
727.815	1.92
727.841	9.92
727.866	-2.08
727.891	-0.08
727.917	-19.08
727.942	3.92
727.967	8.92
727.993	-8.08
728.018	0.92
728.043	5.92
728.069	11.92
728.094	24.92
728.119	8.92
728.145	22.92
728.17	10.92
728.195	8.92
728.221	15.92
728.246	-4.08
728.271	-2.08
728.297	3.92
728.322	6.92
728.347	0.92
728.373	7.92
728.398	5.92
728.423	-9.08
728.448	8.92
728.474	-10.08
728.499	3.92
728.524	1.92
728.55	3.92
728.575	-15.08
728.6	4.92
728.625	2.92
728.651	3.92
728.676	-8.08
728.701	0.92
728.727	-4.08
728.752	-18.08
728.777	-0.08
728.802	13.92
728.828	0.92
728.853	-5.08
728.878	-7.08
728.903	-16.08
728.929	-7.08
728.954	-4.08
728.979	6.92
729.004	2.92
729.03	7.92
729.055	9.92
729.08	-7.08
729.105	-7.08
729.13	-7.08
729.156	0.92
729.181	-4.08
729.206	-18.08
729.231	-4.08
729.256	15.92
729.282	-5.08
729.307	-4.08
729.332	-1.08
729.357	-4.08
729.382	-9.08
729.408	8.92
729.433	-0.08
729.458	-7.08
729.483	15.92
729.508	12.92
729.533	3.92
729.559	-0.08
729.584	-15.08
729.609	6.92
729.634	11.92
729.659	9.92
729.684	-2.08
729.71	5.92
729.735	0.92
729.76	-14.08
729.785	0.92
729.81	21.92
729.835	4.92
729.86	-1.08
729.886	7.92
729.911	4.92
729.936	3.92
729.961	23.92
729.986	38.92
730.011	55.92
730.036	197.92
730.061	1018.92
730.086	2758.92
730.112	3429.92
730.137	2864.92
730.162	2150.92
730.187	1692.92
730.212	1289.92
730.237	820.92
730.262	461.92
730.287	229.92
730.312	147.92
730.337	78.92
730.362	50.92
730.387	27.92
730.413	22.92
730.438	11.92
730.463	4.92
730.488	10.92
730.513	5.92
730.538	-4.08
730.563	27.92
730.588	23.92
730.613	18.92
730.638	6.92
730.663	16.92
730.688	25.92
730.713	10.92
730.738	7.92
730.763	-7.08
730.788	-3.08
730.813	23.92
730.838	5.92
730.863	-1.08
730.888	3.92
730.913	-8.08
730.938	-12.08
730.963	33.92
730.988	134.92
731.013	405.92
731.038	619.92
731.063	599.92
731.088	460.92
731.113	353.92
731.138	272.92
731.163	201.92
731.188	100.92
731.213	79.92
731.238	61.92
731.263	19.92
731.288	15.92
731.313	8.92
731.338	0.92
731.363	-10.08
731.388	-0.08
731.413	6.92
731.438	27.92
731.463	4.92
731.487	12.92
731.512	-20.08
731.537	-10.08
731.562	-7.08
731.587	-4.08
731.612	-0.08
731.637	-11.08
731.662	2.92
731.687	6.92
731.712	-16.08
731.737	-2.08
731.762	17.92
731.786	10.92
731.811	-0.08
731.836	11.92
731.861	-10.08
731.886	-7.08
731.911	12.92
731.936	4.92
731.961	-16.08
731.986	-4.08
732.01	-2.08
732.035	18.92
732.06	14.92
732.085	7.92
732.11	12.92
732.135	-12.08
732.16	-1.08
732.184	-6.08
732.209	5.92
732.234	-1.08
732.259	-7.08
732.284	24.92
732.309	7.92
732.334	3.92
732.358	0.92
732.383	-10.08
732.408	-14.08
732.433	7.92
732.458	-8.08
732.482	4.92
732.507	-8.08
732.532	-4.08
732.557	28.92
732.582	10.92
732.607	23.92
732.631	40.92
732.656	76.92
732.681	154.92
732.706	337.92
732.73	463.92
732.755	380.92
732.78	290.92
732.805	246.92
732.83	199.92
732.854	132.92
732.879	77.92
732.904	45.92
732.929	11.92
732.953	11.92
732.978	25.92
733.003	-9.08
733.028	1.92
733.052	12.92
733.077	9.92
733.102	0.92
733.127	2.92
733.151	-2.08
733.176	20.92
733.201	-9.08
733.226	-0.08
733.25	12.92
733.275	1.92
733.3	-6.08
733.324	9.92
733.349	9.92
733.374	16.92
733.399	12.92
733.423	-6.08
733.448	0.92
733.473	-14.08
733.497	-10.08
733.522	-11.08
733.547	12.92
733.571	17.92
733.596	3.92
733.621	1.92
733.646	-16.08
733.67	2.92
733.695	-3.08
733.72	2.92
733.744	13.92
733.769	15.92
733.794	11.92
733.818	4.92
733.843	-2.08
733.867	-12.08
733.892	8.92
733.917	12.92
733.941	3.92
733.966	-4.08
733.991	-3.08
734.015	3.92
734.04	2.92
734.065	33.92
734.089	8.92
734.114	-4.08
734.138	-3.08
734.163	-4.08
734.188	2.92
734.212	12.92
734.237	-2.08
734.261	0.92
734.286	2.92
734.311	-10.08
734.335	-14.08
734.36	-0.08
734.384	-9.08
734.409	-7.08
734.434	-12.08
734.458	7.92
734.483	-3.08
734.507	-8.08
734.532	9.92
734.556	10.92
734.581	-6.08
734.606	-6.08
734.63	7.92
734.655	8.92
734.679	-4.08
734.704	-11.08
734.728	0.92
734.753	-0.08
734.777	12.92
734.802	-4.08
734.826	16.92
734.851	16.92
734.876	17.92
734.9	12.92
734.925	-5.08
734.949	2.92
734.974	6.92
734.998	1.92
735.023	-0.08
735.047	-9.08
735.072	12.92
735.096	4.92
735.121	12.92
735.145	-5.08
735.17	-8.08
735.194	5.92
735.219	-4.08
735.243	4.92
735.268	7.92
735.292	11.92
735.317	-8.08
735.341	-10.08
735.365	-18.08
735.39	12.92
735.414	11.92
735.439	-1.08
735.463	-2.08
735.488	10.92
735.512	13.92
735.537	9.92
735.561	5.92
735.586	4.92
735.61	0.92
735.634	-7.08
735.659	2.92
735.683	20.92
735.708	10.92
735.732	-6.08
735.757	0.92
735.781	7.92
735.805	-8.08
735.83	-20.08
735.854	-20.08
735.879	9.92
735.903	14.92
735.927	11.92
735.952	-7.08
735.976	4.92
736.001	0.92
736.025	-4.08
736.049	7.92
736.074	-0.08
736.098	6.92
736.123	0.92
736.147	-14.08
736.171	-0.08
736.196	13.92
736.22	-7.08
736.244	-8.08
736.269	-3.08
736.293	-10.08
736.317	6.92
736.342	4.92
736.366	23.92
736.39	4.92
736.415	17.92
736.439	-4.08
736.463	-5.08
736.488	-9.08
736.512	7.92
736.536	14.92
736.561	18.92
736.585	-3.08
736.609	14.92
736.634	-4.08
736.658	-7.08
736.682	3.92
736.707	-4.08
736.731	-6.08
736.755	-19.08
736.78	17.92
736.804	20.92
736.828	6.92
736.852	-0.08
736.877	-3.08
736.901	16.92
736.925	-8.08
736.949	-16.08
736.974	-0.08
736.998	-12.08
737.022	-0.08
737.047	9.92
737.071	8.92
737.095	19.92
737.119	23.92
737.144	13.92
737.168	-2.08
737.192	5.92
737.216	-2.08
737.241	-5.08
737.265	-1.08
737.289	2.92
737.313	-2.08
737.337	6.92
737.362	21.92
737.386	1.92
737.41	-8.08
737.434	7.92
737.459	6.92
737.483	14.92
737.507	24.92
737.531	20.92
737.555	-5.08
737.58	-6.08
737.604	0.92
737.628	-6.08
737.652	-5.08
737.676	-30.08
737.701	3.92
737.725	6.92
737.749	12.92
737.773	-6.08
737.797	-3.08
737.821	-4.08
737.846	-11.08
737.87	12.92
737.894	6.92
737.918	3.92
737.942	2.92
737.966	3.92
737.99	3.92
738.015	0.92
738.039	-12.08
738.063	-4.08
738.087	14.92
738.111	16.92
738.135	17.92
738.159	-3.08
738.184	6.92
738.208	-16.08
738.232	-2.08
738.256	9.92
738.28	11.92
738.304	17.92
738.328	9.92
738.352	11.92
738.376	-0.08
738.4	2.92
738.425	15.92
738.449	-7.08
738.473	13.92
738.497	14.92
738.521	9.92
738.545	7.92
738.569	6.92
738.593	4.92
738.617	7.92
738.641	-2.08
738.665	-3.08
738.689	11.92
738.713	-9.08
738.737	-2.08
738.762	19.92
738.786	-15.08
738.81	-19.08
738.834	7.92
738.858	5.92
738.882	9.92
738.906	3.92
738.93	4.92
738.954	2.92
738.978	13.92
739.002	1.92
739.026	13.92
739.05	5.92
739.074	-4.08
739.098	19.92
739.122	4.92
739.146	5.92
739.17	-11.08
739.194	3.92
739.218	-3.08
739.242	-4.08
739.266	-11.08
739.29	5.92
739.314	17.92
739.338	-0.08
739.362	-3.08
739.386	10.92
739.41	3.92
739.434	-15.08
739.458	18.92
739.482	7.92
739.506	3.92
739.53	-3.08
739.554	4.92
739.577	-15.08
739.601	-10.08
739.625	-7.08
739.649	-11.08
739.673	-4.08
739.697	13.92
739.721	-3.08
739.745	4.92
739.769	11.92
739.793	4.92
739.817	-2.08
739.841	-9.08
739.865	-0.08
739.889	-3.08
739.912	7.92
739.936	-7.08
739.96	11.92
739.984	23.92
740.008	-14.08
740.032	-16.08
740.056	-8.08
740.08	0.92
740.104	-15.08
740.127	17.92
740.151	-3.08
740.175	7.92
740.199	10.92
740.223	27.92
740.247	11.92
740.271	0.92
740.295	5.92
740.318	-11.08
740.342	-7.08
740.366	2.92
740.39	12.92
740.414	1.92
740.438	-3.08
740.461	12.92
740.485	2.92
740.509	-9.08
740.533	5.92
740.557	-4.08
740.581	-13.08
740.604	-13.08
740.628	-3.08
740.652	11.92
740.676	0.92
740.7	10.92
740.723	4.92
740.747	-11.08
740.771	-1.08
740.795	1.92
740.819	3.92
740.842	-10.08
740.866	-25.08
740.89	-1.08
740.914	2.92
740.938	-6.08
740.961	9.92
740.985	9.92
741.009	-10.08
741.033	7.92
741.056	10.92
741.08	-2.08
741.104	-3.08
741.128	-2.08
741.151	-0.08
741.175	4.92
741.199	-2.08
741.223	-4.08
741.246	-2.08
741.27	14.92
741.294	5.92
741.318	-14.08
741.341	-6.08
741.365	10.92
741.389	10.92
741.413	13.92
741.436	9.92
741.46	8.92
741.484	22.92
741.507	10.92
741.531	12.92
741.555	8.92
741.579	-0.08
741.602	2.92
741.626	10.92
741.65	-8.08
741.673	-4.08
741.697	-4.08
741.721	2.92
741.744	-15.08
741.768	16.92
741.792	-3.08
741.815	-0.08
741.839	1.92
741.863	15.92
741.886	9.92
741.91	-9.08
741.934	-1.08
741.957	-12.08
741.981	2.92
742.005	-3.08
742.028	-5.08
742.052	-0.08
742.075	10.92
742.099	7.92
742.123	4.92
742.146	16.92
742.17	7.92
742.194	-13.08
742.217	-1.08
742.241	5.92
742.264	8.92
742.288	20.92
742.312	9.92
742.335	1.92
742.359	-6.08
742.382	-2.08
742.406	0.92
742.43	-15.08
742.453	-4.08
742.477	-9.08
742.5	-12.08
742.524	-11.08
742.548	-9.08
742.571	12.92
742.595	-2.08
742.618	-4.08
742.642	-16.08
742.665	5.92
742.689	3.92
742.712	9.92
742.736	-6.08
742.76	0.92
742.783	0.92
742.807	12.92
742.83	10.92
742.854	-10.08
742.877	0.92
742.901	4.92
742.924	-9.08
742.948	9.92
742.971	-8.08
742.995	-4.08
743.018	-9.08
743.042	-2.08
743.065	-1.08
743.089	-2.08
743.112	7.92
743.136	1.92
743.159	0.92
743.183	0.92
743.206	2.92
743.23	0.92
743.253	-0.08
743.277	-2.08
743.3	3.92
743.324	-8.08
743.347	3.92
743.371	6.92
743.394	-1.08
743.418	15.92
743.441	1.92
743.465	1.92
743.488	-1.08
743.512	-4.08
743.535	-7.08
743.558	15.92
743.582	6.92
743.605	-6.08
743.629	8.92
743.652	-9.08
743.676	8.92
743.699	9.92
743.723	10.92
743.746	3.92
743.769	-7.08
743.793	8.92
743.816	8.92
743.84	9.92
743.863	0.92
743.886	11.92
743.91	0.92
743.933	1.92
743.957	9.92
743.98	9.92
744.003	5.92
744.027	-9.08
744.05	3.92
744.074	1.92
744.097	-17.08
744.12	-1.08
744.144	-3.08
744.167	4.92
744.19	-2.08
744.214	-7.08
744.237	-7.08
744.26	10.92
744.284	-8.08
744.307	6.92
744.331	1.92
744.354	-12.08
744.377	-15.08
744.401	11.92
744.424	4.92
744.447	-13.08
744.471	-7.08
