Data from HighRes_mercury_15_13_11_07_2024_HR4C61891__83__15-14-31-485.txt Node

Date: Thu Nov 07 15:14:31 EST 2024
User: crc00042
Spectrometer: HR4C6189
Trigger mode: 4
Integration Time (sec): 1.000000E-1
Scans to average: 1
Electric dark correction enabled: true
Nonlinearity correction enabled: false
Boxcar width: 0
XAxis mode: Wavelengths
Number of Pixels in Spectrum: 3648
>>>>>Begin Spectral Data<<<<<
639.567	-48.85
639.602	-48.85
639.636	-48.85
639.67	-43.85
639.704	-21.85
639.738	6.15
639.773	11.15
639.807	-9.85
639.841	-7.85
639.875	-0.85
639.909	-8.85
639.943	-6.85
639.978	-10.85
640.012	0.15
640.046	32.15
640.08	8.15
640.114	-3.85
640.148	-8.85
640.182	-2.85
640.217	4.15
640.251	-0.85
640.285	13.15
640.319	-2.85
640.353	-8.85
640.387	3.15
640.421	-7.85
640.455	-12.85
640.49	-4.85
640.524	-9.85
640.558	0.15
640.592	0.15
640.626	15.15
640.66	1.15
640.694	-12.85
640.728	14.15
640.762	13.15
640.796	13.15
640.83	10.15
640.865	-5.85
640.899	-1.85
640.933	1.15
640.967	-3.85
641.001	-15.85
641.035	13.15
641.069	15.15
641.103	-21.85
641.137	0.15
641.171	-3.85
641.205	0.15
641.239	6.15
641.273	4.15
641.307	12.15
641.341	4.15
641.375	-4.85
641.409	-16.85
641.443	-4.85
641.477	6.15
641.511	-6.85
641.545	-0.85
641.579	3.15
641.614	11.15
641.648	12.15
641.682	-12.85
641.716	13.15
641.75	19.15
641.784	-1.85
641.818	8.15
641.852	21.15
641.886	-28.85
641.919	21.15
641.953	10.15
641.987	-5.85
642.021	12.15
642.055	0.15
642.089	11.15
642.123	-6.85
642.157	-17.85
642.191	-1.85
642.225	10.15
642.259	1.15
642.293	17.15
642.327	20.15
642.361	7.15
642.395	11.15
642.429	6.15
642.463	1.15
642.497	7.15
642.531	3.15
642.565	0.15
642.599	-2.85
642.633	-12.85
642.666	1.15
642.7	23.15
642.734	8.15
642.768	-10.85
642.802	-6.85
642.836	-0.85
642.87	4.15
642.904	6.15
642.938	5.15
642.972	-6.85
643.005	-3.85
643.039	14.15
643.073	-2.85
643.107	19.15
643.141	6.15
643.175	7.15
643.209	10.15
643.243	19.15
643.276	7.15
643.31	-2.85
643.344	-2.85
643.378	8.15
643.412	14.15
643.446	-5.85
643.48	5.15
643.513	5.15
643.547	14.15
643.581	-11.85
643.615	16.15
643.649	3.15
643.683	-1.85
643.716	4.15
643.75	20.15
643.784	-10.85
643.818	-3.85
643.852	-8.85
643.886	1.15
643.919	2.15
643.953	4.15
643.987	-9.85
644.021	2.15
644.055	1.15
644.088	-3.85
644.122	-8.85
644.156	-14.85
644.19	7.15
644.224	10.15
644.257	9.15
644.291	6.15
644.325	-1.85
644.359	-18.85
644.392	0.15
644.426	11.15
644.46	-1.85
644.494	-6.85
644.527	-8.85
644.561	9.15
644.595	1.15
644.629	-3.85
644.662	17.15
644.696	13.15
644.73	4.15
644.764	-3.85
644.797	5.15
644.831	-2.85
644.865	26.15
644.899	9.15
644.932	16.15
644.966	-4.85
645	5.15
645.033	3.15
645.067	13.15
645.101	8.15
645.135	-7.85
645.168	7.15
645.202	-6.85
645.236	11.15
645.269	0.15
645.303	-1.85
645.337	-9.85
645.37	-1.85
645.404	1.15
645.438	-1.85
645.471	-3.85
645.505	11.15
645.539	-7.85
645.572	-12.85
645.606	-8.85
645.64	-1.85
645.673	-1.85
645.707	24.15
645.741	15.15
645.774	-19.85
645.808	-2.85
645.842	-8.85
645.875	2.15
645.909	-5.85
645.943	10.15
645.976	-0.85
646.01	-2.85
646.043	18.15
646.077	12.15
646.111	9.15
646.144	6.15
646.178	13.15
646.212	-12.85
646.245	-8.85
646.279	1.15
646.312	12.15
646.346	26.15
646.38	-3.85
646.413	-6.85
646.447	10.15
646.48	-4.85
646.514	4.15
646.547	6.15
646.581	6.15
646.615	11.15
646.648	-12.85
646.682	4.15
646.715	2.15
646.749	5.15
646.782	-4.85
646.816	-22.85
646.85	0.15
646.883	0.15
646.917	10.15
646.95	11.15
646.984	18.15
647.017	13.15
647.051	1.15
647.084	5.15
647.118	-8.85
647.151	-1.85
647.185	-4.85
647.218	-1.85
647.252	0.15
647.285	-9.85
647.319	-2.85
647.353	5.15
647.386	7.15
647.42	14.15
647.453	4.15
647.487	2.15
647.52	-2.85
647.553	3.15
647.587	8.15
647.62	7.15
647.654	-2.85
647.687	12.15
647.721	4.15
647.754	5.15
647.788	-1.85
647.821	-5.85
647.855	5.15
647.888	8.15
647.922	5.15
647.955	1.15
647.989	-5.85
648.022	3.15
648.055	-1.85
648.089	-1.85
648.122	26.15
648.156	3.15
648.189	0.15
648.223	0.15
648.256	20.15
648.29	20.15
648.323	25.15
648.356	28.15
648.39	10.15
648.423	-0.85
648.457	9.15
648.49	7.15
648.523	9.15
648.557	-1.85
648.59	15.15
648.624	0.15
648.657	1.15
648.69	17.15
648.724	5.15
648.757	12.15
648.791	12.15
648.824	3.15
648.857	11.15
648.891	-7.85
648.924	-2.85
648.957	24.15
648.991	-3.85
649.024	20.15
649.057	-0.85
649.091	-23.85
649.124	20.15
649.158	18.15
649.191	22.15
649.224	-5.85
649.258	12.15
649.291	9.15
649.324	6.15
649.358	-6.85
649.391	11.15
649.424	23.15
649.458	-1.85
649.491	-2.85
649.524	-16.85
649.557	-12.85
649.591	-28.85
649.624	10.15
649.657	-9.85
649.691	-4.85
649.724	2.15
649.757	5.15
649.791	-12.85
649.824	7.15
649.857	3.15
649.89	5.15
649.924	-10.85
649.957	-1.85
649.99	-7.85
650.023	-2.85
650.057	-16.85
650.09	6.15
650.123	4.15
650.157	12.15
650.19	-6.85
650.223	7.15
650.256	-25.85
650.29	-18.85
650.323	7.15
650.356	3.15
650.389	-8.85
650.423	-14.85
650.456	-1.85
650.489	2.15
650.522	11.15
650.555	16.15
650.589	4.15
650.622	3.15
650.655	-2.85
650.688	-5.85
650.721	-14.85
650.755	-4.85
650.788	5.15
650.821	1.15
650.854	9.15
650.887	2.15
650.921	4.15
650.954	-6.85
650.987	4.15
651.02	-0.85
651.053	0.15
651.087	-1.85
651.12	20.15
651.153	-0.85
651.186	3.15
651.219	-6.85
651.252	10.15
651.286	2.15
651.319	-10.85
651.352	2.15
651.385	14.15
651.418	-23.85
651.451	6.15
651.484	16.15
651.518	-11.85
651.551	3.15
651.584	-7.85
651.617	24.15
651.65	1.15
651.683	13.15
651.716	-4.85
651.749	-1.85
651.783	-3.85
651.816	-5.85
651.849	7.15
651.882	4.15
651.915	11.15
651.948	14.15
651.981	-12.85
652.014	-16.85
652.047	-13.85
652.08	0.15
652.114	11.15
652.147	-11.85
652.18	0.15
652.213	23.15
652.246	0.15
652.279	-6.85
652.312	15.15
652.345	-7.85
652.378	3.15
652.411	24.15
652.444	17.15
652.477	13.15
652.51	2.15
652.543	-22.85
652.576	-3.85
652.609	12.15
652.642	8.15
652.675	11.15
652.709	16.15
652.742	0.15
652.775	15.15
652.808	11.15
652.841	2.15
652.874	0.15
652.907	-3.85
652.94	-6.85
652.973	-14.85
653.006	-23.85
653.039	-3.85
653.072	9.15
653.105	-9.85
653.138	-8.85
653.171	-7.85
653.204	-6.85
653.237	2.15
653.27	6.15
653.303	5.15
653.336	11.15
653.368	-1.85
653.401	-4.85
653.434	-6.85
653.467	4.15
653.5	-2.85
653.533	-13.85
653.566	-7.85
653.599	-1.85
653.632	9.15
653.665	-2.85
653.698	-11.85
653.731	-12.85
653.764	14.15
653.797	0.15
653.83	2.15
653.863	8.15
653.896	1.15
653.929	-4.85
653.961	17.15
653.994	3.15
654.027	2.15
654.06	4.15
654.093	3.15
654.126	7.15
654.159	-8.85
654.192	12.15
654.225	-22.85
654.258	0.15
654.29	0.15
654.323	1.15
654.356	-6.85
654.389	2.15
654.422	-6.85
654.455	-2.85
654.488	-1.85
654.521	-10.85
654.553	-2.85
654.586	14.15
654.619	-24.85
654.652	1.15
654.685	-5.85
654.718	-2.85
654.751	-0.85
654.783	-2.85
654.816	27.15
654.849	8.15
654.882	-4.85
654.915	-22.85
654.948	-17.85
654.98	-2.85
655.013	-2.85
655.046	-10.85
655.079	-11.85
655.112	-4.85
655.144	-17.85
655.177	4.15
655.21	23.15
655.243	16.15
655.276	4.15
655.308	-3.85
655.341	-10.85
655.374	0.15
655.407	7.15
655.44	-3.85
655.472	13.15
655.505	-3.85
655.538	-6.85
655.571	1.15
655.603	-18.85
655.636	-15.85
655.669	8.15
655.702	1.15
655.734	-11.85
655.767	-12.85
655.8	-4.85
655.833	-12.85
655.865	-4.85
655.898	-7.85
655.931	-1.85
655.964	1.15
655.996	-7.85
656.029	8.15
656.062	1.15
656.095	0.15
656.127	-6.85
656.16	-12.85
656.193	5.15
656.225	3.15
656.258	1.15
656.291	5.15
656.324	-1.85
656.356	-4.85
656.389	-3.85
656.422	30.15
656.454	-2.85
656.487	6.15
656.52	8.15
656.552	-11.85
656.585	-13.85
656.618	-3.85
656.65	-12.85
656.683	-6.85
656.716	7.15
656.748	-1.85
656.781	-3.85
656.814	0.15
656.846	4.15
656.879	2.15
656.912	-2.85
656.944	-6.85
656.977	-12.85
657.01	2.15
657.042	12.15
657.075	11.15
657.108	-1.85
657.14	-1.85
657.173	17.15
657.205	8.15
657.238	1.15
657.271	8.15
657.303	-8.85
657.336	13.15
657.369	-4.85
657.401	-11.85
657.434	-15.85
657.466	-5.85
657.499	-0.85
657.532	3.15
657.564	11.15
657.597	-5.85
657.629	-1.85
657.662	-14.85
657.694	5.15
657.727	-11.85
657.76	0.15
657.792	-14.85
657.825	-0.85
657.857	-21.85
657.89	-3.85
657.922	5.15
657.955	-12.85
657.987	-7.85
658.02	7.15
658.053	-6.85
658.085	-4.85
658.118	3.15
658.15	6.15
658.183	18.15
658.215	2.15
658.248	-16.85
658.28	-6.85
658.313	14.15
658.345	6.15
658.378	-17.85
658.41	-3.85
658.443	2.15
658.475	5.15
658.508	-6.85
658.54	-5.85
658.573	-9.85
658.605	-9.85
658.638	1.15
658.67	-0.85
658.703	4.15
658.735	-1.85
658.768	4.15
658.8	0.15
658.833	7.15
658.865	-2.85
658.898	1.15
658.93	6.15
658.963	10.15
658.995	11.15
659.028	16.15
659.06	-7.85
659.092	-7.85
659.125	-9.85
659.157	4.15
659.19	-10.85
659.222	-23.85
659.255	13.15
659.287	14.15
659.32	-13.85
659.352	-9.85
659.384	-13.85
659.417	-6.85
659.449	-1.85
659.482	19.15
659.514	-6.85
659.546	1.15
659.579	-10.85
659.611	7.15
659.644	-3.85
659.676	-17.85
659.708	-14.85
659.741	-2.85
659.773	7.15
659.806	17.15
659.838	1.15
659.87	-4.85
659.903	-5.85
659.935	32.15
659.967	1.15
660	-0.85
660.032	-19.85
660.065	6.15
660.097	3.15
660.129	-6.85
660.162	-8.85
660.194	6.15
660.226	15.15
660.259	10.15
660.291	-6.85
660.323	-2.85
660.356	-3.85
660.388	0.15
660.42	2.15
660.453	6.15
660.485	10.15
660.517	-4.85
660.55	9.15
660.582	4.15
660.614	7.15
660.647	-9.85
660.679	-10.85
660.711	12.15
660.743	4.15
660.776	-0.85
660.808	-18.85
660.84	-8.85
660.873	4.15
660.905	-11.85
660.937	-4.85
660.969	16.15
661.002	4.15
661.034	25.15
661.066	11.15
661.099	3.15
661.131	4.15
661.163	-12.85
661.195	-22.85
661.228	21.15
661.26	3.15
661.292	3.15
661.324	-0.85
661.357	-2.85
661.389	5.15
661.421	1.15
661.453	-0.85
661.485	-10.85
661.518	-4.85
661.55	-10.85
661.582	-2.85
661.614	-3.85
661.647	1.15
661.679	-3.85
661.711	-5.85
661.743	-11.85
661.775	-11.85
661.808	10.15
661.84	-10.85
661.872	2.15
661.904	-9.85
661.936	7.15
661.969	-0.85
662.001	-15.85
662.033	-9.85
662.065	-12.85
662.097	-4.85
662.129	14.15
662.162	-7.85
662.194	-7.85
662.226	-10.85
662.258	3.15
662.29	-1.85
662.322	8.15
662.355	-18.85
662.387	22.15
662.419	5.15
662.451	13.15
662.483	8.15
662.515	-15.85
662.547	-7.85
662.58	10.15
662.612	-10.85
662.644	-14.85
662.676	-0.85
662.708	5.15
662.74	4.15
662.772	12.15
662.804	15.15
662.836	9.15
662.869	-6.85
662.901	-0.85
662.933	-2.85
662.965	16.15
662.997	22.15
663.029	3.15
663.061	-3.85
663.093	2.15
663.125	1.15
663.157	-0.85
663.189	4.15
663.221	9.15
663.254	0.15
663.286	7.15
663.318	-6.85
663.35	-2.85
663.382	2.15
663.414	5.15
663.446	9.15
663.478	-10.85
663.51	32.15
663.542	-11.85
663.574	1.15
663.606	1.15
663.638	3.15
663.67	-8.85
663.702	8.15
663.734	-1.85
663.766	3.15
663.798	-3.85
663.83	4.15
663.862	1.15
663.894	-12.85
663.926	-7.85
663.958	4.15
663.99	-9.85
664.022	-19.85
664.054	2.15
664.086	-7.85
664.118	-13.85
664.15	-12.85
664.182	2.15
664.214	-13.85
664.246	4.15
664.278	-0.85
664.31	3.15
664.342	5.15
664.374	-1.85
664.406	3.15
664.438	5.15
664.47	11.15
664.502	-13.85
664.534	-22.85
664.566	-3.85
664.598	16.15
664.63	-12.85
664.662	-0.85
664.693	-13.85
664.725	-3.85
664.757	3.15
664.789	-8.85
664.821	4.15
664.853	5.15
664.885	1.15
664.917	3.15
664.949	15.15
664.981	6.15
665.013	3.15
665.045	-5.85
665.076	-3.85
665.108	1.15
665.14	-8.85
665.172	0.15
665.204	-3.85
665.236	-4.85
665.268	9.15
665.3	-7.85
665.331	6.15
665.363	-2.85
665.395	-4.85
665.427	-4.85
665.459	-6.85
665.491	1.15
665.523	5.15
665.555	7.15
665.586	6.15
665.618	-2.85
665.65	-20.85
665.682	3.15
665.714	10.15
665.746	-10.85
665.777	-8.85
665.809	-14.85
665.841	-2.85
665.873	0.15
665.905	3.15
665.937	-6.85
665.968	-12.85
666	3.15
666.032	12.15
666.064	-9.85
666.096	-14.85
666.127	-7.85
666.159	18.15
666.191	13.15
666.223	4.15
666.255	4.15
666.286	2.15
666.318	-4.85
666.35	2.15
666.382	-17.85
666.413	-23.85
666.445	-13.85
666.477	-18.85
666.509	-2.85
666.54	1.15
666.572	-11.85
666.604	2.15
666.636	-5.85
666.667	2.15
666.699	14.15
666.731	3.15
666.763	-12.85
666.794	-14.85
666.826	4.15
666.858	-3.85
666.89	14.15
666.921	8.15
666.953	10.15
666.985	12.15
667.017	25.15
667.048	6.15
667.08	-15.85
667.112	-1.85
667.143	1.15
667.175	2.15
667.207	8.15
667.238	2.15
667.27	3.15
667.302	-9.85
667.334	-6.85
667.365	13.15
667.397	1.15
667.429	-15.85
667.46	16.15
667.492	17.15
667.524	4.15
667.555	-0.85
667.587	-5.85
667.619	0.15
667.65	-2.85
667.682	4.15
667.714	8.15
667.745	-6.85
667.777	11.15
667.808	-3.85
667.84	14.15
667.872	4.15
667.903	25.15
667.935	12.15
667.967	-3.85
667.998	-8.85
668.03	-4.85
668.061	5.15
668.093	-12.85
668.125	4.15
668.156	19.15
668.188	0.15
668.22	-27.85
668.251	18.15
668.283	21.15
668.314	29.15
668.346	14.15
668.377	18.15
668.409	27.15
668.441	18.15
668.472	-4.85
668.504	2.15
668.535	5.15
668.567	14.15
668.599	3.15
668.63	-8.85
668.662	1.15
668.693	28.15
668.725	9.15
668.756	0.15
668.788	1.15
668.819	7.15
668.851	10.15
668.882	-4.85
668.914	-14.85
668.946	4.15
668.977	-9.85
669.009	6.15
669.04	-18.85
669.072	-1.85
669.103	5.15
669.135	5.15
669.166	-6.85
669.198	15.15
669.229	12.15
669.261	-1.85
669.292	-12.85
669.324	7.15
669.355	16.15
669.387	-20.85
669.418	-4.85
669.45	-13.85
669.481	2.15
669.513	4.15
669.544	7.15
669.576	-14.85
669.607	13.15
669.639	13.15
669.67	-11.85
669.701	0.15
669.733	-9.85
669.764	-8.85
669.796	-9.85
669.827	-0.85
669.859	-14.85
669.89	-4.85
669.922	8.15
669.953	6.15
669.985	8.15
670.016	13.15
670.047	2.15
670.079	-1.85
670.11	8.15
670.142	-2.85
670.173	8.15
670.204	-2.85
670.236	0.15
670.267	-13.85
670.299	2.15
670.33	-6.85
670.362	12.15
670.393	-5.85
670.424	2.15
670.456	1.15
670.487	-15.85
670.518	-3.85
670.55	-12.85
670.581	-0.85
670.613	11.15
670.644	-15.85
670.675	-29.85
670.707	-1.85
670.738	9.15
670.769	7.15
670.801	-13.85
670.832	-12.85
670.864	0.15
670.895	10.15
670.926	-2.85
670.958	6.15
670.989	4.15
671.02	0.15
671.052	-8.85
671.083	-0.85
671.114	5.15
671.146	-5.85
671.177	2.15
671.208	-4.85
671.24	-9.85
671.271	-3.85
671.302	8.15
671.333	-0.85
671.365	-7.85
671.396	3.15
671.427	7.15
671.459	8.15
671.49	-2.85
671.521	-16.85
671.553	5.15
671.584	11.15
671.615	-0.85
671.646	7.15
671.678	12.15
671.709	-4.85
671.74	-18.85
671.771	-22.85
671.803	-3.85
671.834	-5.85
671.865	-4.85
671.896	3.15
671.928	5.15
671.959	-2.85
671.99	-8.85
672.021	4.15
672.053	-7.85
672.084	12.15
672.115	16.15
672.146	-2.85
672.178	-19.85
672.209	-2.85
672.24	2.15
672.271	20.15
672.303	2.15
672.334	-15.85
672.365	-22.85
672.396	0.15
672.427	1.15
672.459	5.15
672.49	17.15
672.521	3.15
672.552	3.15
672.583	7.15
672.615	11.15
672.646	-4.85
672.677	-1.85
672.708	-16.85
672.739	1.15
672.77	13.15
672.802	5.15
672.833	5.15
672.864	-4.85
672.895	-6.85
672.926	6.15
672.957	-12.85
672.989	2.15
673.02	4.15
673.051	13.15
673.082	15.15
673.113	-15.85
673.144	5.15
673.175	7.15
673.206	-17.85
673.238	0.15
673.269	-3.85
673.3	-17.85
673.331	0.15
673.362	10.15
673.393	6.15
673.424	19.15
673.455	23.15
673.487	14.15
673.518	12.15
673.549	-8.85
673.58	-0.85
673.611	1.15
673.642	10.15
673.673	-3.85
673.704	1.15
673.735	1.15
673.766	1.15
673.797	-5.85
673.828	-4.85
673.86	-7.85
673.891	-20.85
673.922	-14.85
673.953	-0.85
673.984	-14.85
674.015	19.15
674.046	-4.85
674.077	6.15
674.108	-1.85
674.139	-6.85
674.17	10.15
674.201	6.15
674.232	-0.85
674.263	-12.85
674.294	-0.85
674.325	-21.85
674.356	7.15
674.387	1.15
674.418	3.15
674.449	-16.85
674.48	-17.85
674.511	6.15
674.542	7.15
674.573	-3.85
674.604	3.15
674.635	5.15
674.666	-8.85
674.697	-9.85
674.728	5.15
674.759	3.15
674.79	-4.85
674.821	-2.85
674.852	-4.85
674.883	-11.85
674.914	1.15
674.945	6.15
674.976	12.15
675.007	-4.85
675.038	-15.85
675.069	-14.85
675.1	-5.85
675.131	11.15
675.162	-0.85
675.193	-7.85
675.224	-2.85
675.254	0.15
675.285	-8.85
675.316	4.15
675.347	-10.85
675.378	-9.85
675.409	-5.85
675.44	2.15
675.471	-2.85
675.502	-10.85
675.533	1.15
675.564	2.15
675.595	-12.85
675.625	14.15
675.656	6.15
675.687	5.15
675.718	-25.85
675.749	4.15
675.78	2.15
675.811	-13.85
675.842	7.15
675.873	2.15
675.903	-2.85
675.934	0.15
675.965	-4.85
675.996	-7.85
676.027	-3.85
676.058	-14.85
676.089	-22.85
676.119	-12.85
676.15	-11.85
676.181	-12.85
676.212	-6.85
676.243	-2.85
676.274	-1.85
676.304	19.15
676.335	-3.85
676.366	3.15
676.397	-9.85
676.428	-1.85
676.459	-0.85
676.489	9.15
676.52	13.15
676.551	-1.85
676.582	-26.85
676.613	6.15
676.643	-16.85
676.674	18.15
676.705	-4.85
676.736	5.15
676.767	0.15
676.797	14.15
676.828	-14.85
676.859	2.15
676.89	0.15
676.92	-1.85
676.951	0.15
676.982	8.15
677.013	2.15
677.044	21.15
677.074	19.15
677.105	-16.85
677.136	-0.85
677.167	-5.85
677.197	16.15
677.228	-16.85
677.259	-6.85
677.289	-17.85
677.32	-13.85
677.351	-11.85
677.382	-6.85
677.412	4.15
677.443	3.15
677.474	13.15
677.505	-6.85
677.535	2.15
677.566	4.15
677.597	-22.85
677.627	-14.85
677.658	-17.85
677.689	-10.85
677.72	7.15
677.75	-4.85
677.781	-2.85
677.812	2.15
677.842	-5.85
677.873	6.15
677.904	1.15
677.934	-5.85
677.965	-8.85
677.996	-15.85
678.026	0.15
678.057	-0.85
678.088	-23.85
678.118	11.15
678.149	-6.85
678.18	-6.85
678.21	0.15
678.241	-1.85
678.272	4.15
678.302	12.15
678.333	5.15
678.363	16.15
678.394	2.15
678.425	9.15
678.455	5.15
678.486	16.15
678.517	-0.85
678.547	11.15
678.578	12.15
678.608	2.15
678.639	8.15
678.67	8.15
678.7	-7.85
678.731	-8.85
678.761	1.15
678.792	-3.85
678.823	1.15
678.853	6.15
678.884	-2.85
678.914	-2.85
678.945	-6.85
678.975	-6.85
679.006	5.15
679.037	-9.85
679.067	20.15
679.098	-3.85
679.128	-11.85
679.159	-5.85
679.189	-0.85
679.22	-8.85
679.25	-0.85
679.281	8.15
679.312	7.15
679.342	3.15
679.373	31.15
679.403	-1.85
679.434	15.15
679.464	6.15
679.495	2.15
679.525	5.15
679.556	-4.85
679.586	7.15
679.617	7.15
679.647	-7.85
679.678	7.15
679.708	4.15
679.739	5.15
679.769	2.15
679.8	-0.85
679.83	-3.85
679.861	12.15
679.891	-20.85
679.922	-11.85
679.952	-15.85
679.983	10.15
680.013	0.15
680.044	-14.85
680.074	-11.85
680.105	10.15
680.135	0.15
680.165	25.15
680.196	1.15
680.226	0.15
680.257	8.15
680.287	5.15
680.318	25.15
680.348	1.15
680.379	13.15
680.409	14.15
680.439	-5.85
680.47	-7.85
680.5	-6.85
680.531	-8.85
680.561	0.15
680.592	2.15
680.622	3.15
680.652	-9.85
680.683	16.15
680.713	-4.85
680.744	-4.85
680.774	-23.85
680.804	-1.85
680.835	-13.85
680.865	-16.85
680.896	19.15
680.926	25.15
680.956	-5.85
680.987	-3.85
681.017	-1.85
681.047	7.15
681.078	-11.85
681.108	6.15
681.139	9.15
681.169	2.15
681.199	-10.85
681.23	11.15
681.26	5.15
681.29	13.15
681.321	-12.85
681.351	1.15
681.381	-11.85
681.412	8.15
681.442	4.15
681.472	1.15
681.503	8.15
681.533	-2.85
681.563	-19.85
681.594	7.15
681.624	-2.85
681.654	-10.85
681.685	6.15
681.715	-0.85
681.745	-3.85
681.775	-17.85
681.806	0.15
681.836	0.15
681.866	-9.85
681.897	1.15
681.927	-10.85
681.957	-17.85
681.987	0.15
682.018	-3.85
682.048	-2.85
682.078	-2.85
682.109	21.15
682.139	20.15
682.169	-3.85
682.199	-11.85
682.23	-12.85
682.26	4.15
682.29	-12.85
682.32	-1.85
682.351	-2.85
682.381	-3.85
682.411	1.15
682.441	-12.85
682.472	-7.85
682.502	11.15
682.532	0.15
682.562	0.15
682.592	11.15
682.623	-8.85
682.653	2.15
682.683	6.15
682.713	4.15
682.743	0.15
682.774	-12.85
682.804	-8.85
682.834	17.15
682.864	-10.85
682.894	-6.85
682.925	-7.85
682.955	3.15
682.985	-11.85
683.015	6.15
683.045	7.15
683.076	-13.85
683.106	-8.85
683.136	-10.85
683.166	-11.85
683.196	-14.85
683.226	-12.85
683.257	-23.85
683.287	-0.85
683.317	1.15
683.347	-16.85
683.377	10.15
683.407	10.15
683.437	1.15
683.468	-17.85
683.498	-15.85
683.528	-3.85
683.558	-4.85
683.588	-3.85
683.618	-8.85
683.648	-13.85
683.678	5.15
683.708	15.15
683.739	-10.85
683.769	-10.85
683.799	1.15
683.829	9.15
683.859	20.15
683.889	6.15
683.919	-1.85
683.949	-7.85
683.979	-8.85
684.009	-3.85
684.039	13.15
684.07	0.15
684.1	7.15
684.13	1.15
684.16	0.15
684.19	-3.85
684.22	-12.85
684.25	-3.85
684.28	-13.85
684.31	3.15
684.34	25.15
684.37	7.15
684.4	-27.85
684.43	-0.85
684.46	11.15
684.49	-2.85
684.52	-4.85
684.55	1.15
684.58	-6.85
684.61	-12.85
684.64	8.15
684.67	6.15
684.7	-4.85
684.73	-2.85
684.76	0.15
684.79	13.15
684.82	5.15
684.85	3.15
684.88	-23.85
684.91	1.15
684.94	1.15
684.97	-7.85
685	-13.85
685.03	-6.85
685.06	4.15
685.09	-2.85
685.12	17.15
685.15	-7.85
685.18	4.15
685.21	-1.85
685.24	14.15
685.27	19.15
685.3	5.15
685.33	8.15
685.36	-16.85
685.39	-7.85
685.42	-19.85
685.45	-8.85
685.48	-0.85
685.51	-15.85
685.54	7.15
685.569	-2.85
685.599	3.15
685.629	5.15
685.659	-8.85
685.689	-4.85
685.719	-8.85
685.749	-9.85
685.779	15.15
685.809	6.15
685.839	14.15
685.869	-0.85
685.898	10.15
685.928	3.15
685.958	0.15
685.988	12.15
686.018	0.15
686.048	-6.85
686.078	13.15
686.108	1.15
686.137	-12.85
686.167	3.15
686.197	-7.85
686.227	-0.85
686.257	23.15
686.287	25.15
686.317	4.15
686.346	-2.85
686.376	-0.85
686.406	-8.85
686.436	15.15
686.466	8.15
686.496	0.15
686.525	-0.85
686.555	6.15
686.585	8.15
686.615	32.15
686.645	17.15
686.675	-7.85
686.704	12.15
686.734	-9.85
686.764	-17.85
686.794	-6.85
686.824	-3.85
686.853	3.15
686.883	3.15
686.913	15.15
686.943	0.15
686.973	12.15
687.002	10.15
687.032	6.15
687.062	-0.85
687.092	9.15
687.121	-4.85
687.151	-5.85
687.181	-1.85
687.211	3.15
687.24	1.15
687.27	3.15
687.3	-2.85
687.33	17.15
687.359	-24.85
687.389	-5.85
687.419	0.15
687.449	13.15
687.478	0.15
687.508	-1.85
687.538	15.15
687.568	4.15
687.597	-9.85
687.627	11.15
687.657	-4.85
687.686	6.15
687.716	16.15
687.746	-3.85
687.776	-7.85
687.805	23.15
687.835	1.15
687.865	8.15
687.894	7.15
687.924	1.15
687.954	-3.85
687.983	-1.85
688.013	9.15
688.043	6.15
688.072	-3.85
688.102	8.15
688.132	-1.85
688.161	-12.85
688.191	-2.85
688.221	16.15
688.25	-12.85
688.28	-3.85
688.31	-23.85
688.339	2.15
688.369	3.15
688.399	-7.85
688.428	-14.85
688.458	9.15
688.488	-1.85
688.517	-3.85
688.547	-8.85
688.576	34.15
688.606	27.15
688.636	-19.85
688.665	-1.85
688.695	0.15
688.725	18.15
688.754	-3.85
688.784	-2.85
688.813	9.15
688.843	1.15
688.873	11.15
688.902	-6.85
688.932	-0.85
688.961	-18.85
688.991	1.15
689.02	25.15
689.05	-2.85
689.08	12.15
689.109	5.15
689.139	-1.85
689.168	4.15
689.198	0.15
689.227	-8.85
689.257	-7.85
689.287	7.15
689.316	-0.85
689.346	-0.85
689.375	-7.85
689.405	9.15
689.434	-14.85
689.464	-2.85
689.493	-6.85
689.523	-4.85
689.552	-10.85
689.582	1.15
689.611	-0.85
689.641	5.15
689.67	-0.85
689.7	8.15
689.73	1.15
689.759	15.15
689.789	19.15
689.818	8.15
689.848	4.15
689.877	21.15
689.906	4.15
689.936	-12.85
689.965	22.15
689.995	0.15
690.024	5.15
690.054	5.15
690.083	4.15
690.113	1.15
690.142	-15.85
690.172	-5.85
690.201	4.15
690.231	1.15
690.26	1.15
690.29	-0.85
690.319	6.15
690.348	-1.85
690.378	11.15
690.407	9.15
690.437	8.15
690.466	1.15
690.496	-3.85
690.525	6.15
690.555	10.15
690.584	-10.85
690.613	-2.85
690.643	-0.85
690.672	14.15
690.702	-4.85
690.731	-4.85
690.76	19.15
690.79	57.15
690.819	54.15
690.849	39.15
690.878	32.15
690.907	20.15
690.937	17.15
690.966	22.15
690.996	-3.85
691.025	5.15
691.054	3.15
691.084	20.15
691.113	3.15
691.142	9.15
691.172	22.15
691.201	6.15
691.23	-12.85
691.26	13.15
691.289	8.15
691.319	-1.85
691.348	1.15
691.377	0.15
691.407	-4.85
691.436	20.15
691.465	2.15
691.495	-4.85
691.524	-1.85
691.553	-0.85
691.583	-6.85
691.612	23.15
691.641	-4.85
691.67	5.15
691.7	7.15
691.729	-3.85
691.758	5.15
691.788	-8.85
691.817	-2.85
691.846	5.15
691.876	1.15
691.905	-0.85
691.934	-12.85
691.963	15.15
691.993	10.15
692.022	-12.85
692.051	-19.85
692.081	-1.85
692.11	20.15
692.139	7.15
692.168	0.15
692.198	6.15
692.227	0.15
692.256	11.15
692.285	0.15
692.315	-0.85
692.344	3.15
692.373	1.15
692.402	-12.85
692.432	-11.85
692.461	17.15
692.49	18.15
692.519	2.15
692.548	15.15
692.578	17.15
692.607	-4.85
692.636	-6.85
692.665	20.15
692.694	-1.85
692.724	1.15
692.753	9.15
692.782	9.15
692.811	-11.85
692.84	6.15
692.87	0.15
692.899	6.15
692.928	2.15
692.957	2.15
692.986	-0.85
693.016	0.15
693.045	0.15
693.074	11.15
693.103	7.15
693.132	-3.85
693.161	5.15
693.191	-11.85
693.22	-10.85
693.249	12.15
693.278	1.15
693.307	16.15
693.336	-16.85
693.365	-8.85
693.395	-1.85
693.424	7.15
693.453	26.15
693.482	15.15
693.511	-5.85
693.54	-1.85
693.569	-3.85
693.598	-1.85
693.628	8.15
693.657	8.15
693.686	13.15
693.715	22.15
693.744	2.15
693.773	2.15
693.802	9.15
693.831	0.15
693.86	14.15
693.889	-1.85
693.919	-0.85
693.948	-5.85
693.977	14.15
694.006	-10.85
694.035	5.15
694.064	-11.85
694.093	0.15
694.122	12.15
694.151	-6.85
694.18	14.15
694.209	20.15
694.238	0.15
694.267	11.15
694.296	12.15
694.325	8.15
694.354	2.15
694.383	-1.85
694.412	-2.85
694.441	6.15
694.471	-13.85
694.5	-6.85
694.529	5.15
694.558	12.15
694.587	10.15
694.616	-1.85
694.645	12.15
694.674	13.15
694.703	20.15
694.732	-3.85
694.761	17.15
694.79	12.15
694.819	-14.85
694.848	-3.85
694.877	32.15
694.906	24.15
694.935	1.15
694.963	25.15
694.992	8.15
695.021	16.15
695.05	16.15
695.079	16.15
695.108	-1.85
695.137	16.15
695.166	-1.85
695.195	-1.85
695.224	17.15
695.253	0.15
695.282	-0.85
695.311	16.15
695.34	-0.85
695.369	3.15
695.398	-2.85
695.427	12.15
695.456	5.15
695.485	1.15
695.513	-9.85
695.542	16.15
695.571	6.15
695.6	6.15
695.629	6.15
695.658	4.15
695.687	1.15
695.716	6.15
695.745	18.15
695.774	5.15
695.802	-2.85
695.831	-3.85
695.86	23.15
695.889	7.15
695.918	8.15
695.947	-5.85
695.976	-1.85
696.005	-6.85
696.033	-1.85
696.062	10.15
696.091	6.15
696.12	14.15
696.149	2.15
696.178	-0.85
696.207	6.15
696.235	-7.85
696.264	7.15
696.293	7.15
696.322	2.15
696.351	13.15
696.38	-3.85
696.408	-4.85
696.437	-5.85
696.466	4.15
696.495	24.15
696.524	19.15
696.553	12.15
696.581	7.15
696.61	-7.85
696.639	13.15
696.668	18.15
696.697	-5.85
696.725	16.15
696.754	28.15
696.783	2.15
696.812	-1.85
696.84	17.15
696.869	-0.85
696.898	-2.85
696.927	-1.85
696.956	19.15
696.984	-20.85
697.013	-5.85
697.042	7.15
697.071	6.15
697.099	3.15
697.128	12.15
697.157	12.15
697.186	12.15
697.214	-2.85
697.243	-2.85
697.272	0.15
697.301	4.15
697.329	13.15
697.358	-3.85
697.387	31.15
697.415	15.15
697.444	9.15
697.473	8.15
697.502	-10.85
697.53	2.15
697.559	2.15
697.588	11.15
697.616	-7.85
697.645	-0.85
697.674	19.15
697.703	-2.85
697.731	9.15
697.76	-3.85
697.789	7.15
697.817	1.15
697.846	13.15
697.875	3.15
697.903	16.15
697.932	6.15
697.961	24.15
697.989	13.15
698.018	15.15
698.047	0.15
698.075	4.15
698.104	-7.85
698.133	4.15
698.161	10.15
698.19	2.15
698.218	-8.85
698.247	4.15
698.276	-2.85
698.304	4.15
698.333	7.15
698.362	6.15
698.39	10.15
698.419	2.15
698.447	-0.85
698.476	-14.85
698.505	8.15
698.533	0.15
698.562	14.15
698.591	-0.85
698.619	-8.85
698.648	-17.85
698.676	5.15
698.705	3.15
698.733	-10.85
698.762	4.15
698.791	5.15
698.819	7.15
698.848	-14.85
698.876	11.15
698.905	-4.85
698.933	15.15
698.962	-19.85
698.991	3.15
699.019	12.15
699.048	-3.85
699.076	10.15
699.105	2.15
699.133	-21.85
699.162	15.15
699.19	11.15
699.219	1.15
699.248	1.15
699.276	2.15
699.305	-0.85
699.333	27.15
699.362	1.15
699.39	14.15
699.419	-3.85
699.447	24.15
699.476	15.15
699.504	5.15
699.533	19.15
699.561	-0.85
699.59	-4.85
699.618	13.15
699.647	-0.85
699.675	4.15
699.704	17.15
699.732	-2.85
699.761	-8.85
699.789	-2.85
699.818	0.15
699.846	-0.85
699.874	0.15
699.903	5.15
699.931	8.15
699.96	8.15
699.988	7.15
700.017	0.15
700.045	11.15
700.074	-1.85
700.102	17.15
700.13	-18.85
700.159	-7.85
700.187	7.15
700.216	-7.85
700.244	-11.85
700.273	-8.85
700.301	5.15
700.329	13.15
700.358	10.15
700.386	8.15
700.415	5.15
700.443	-7.85
700.472	-0.85
700.5	10.15
700.528	18.15
700.557	-5.85
700.585	-0.85
700.614	-2.85
700.642	-0.85
700.67	9.15
700.699	12.15
700.727	-6.85
700.755	-6.85
700.784	4.15
700.812	-13.85
700.841	0.15
700.869	-5.85
700.897	-21.85
700.926	7.15
700.954	3.15
700.982	1.15
701.011	6.15
701.039	12.15
701.067	10.15
701.096	6.15
701.124	4.15
701.152	11.15
701.181	-4.85
701.209	-11.85
701.237	-5.85
701.266	3.15
701.294	1.15
701.322	8.15
701.351	12.15
701.379	-6.85
701.407	-14.85
701.435	9.15
701.464	14.15
701.492	19.15
701.52	-6.85
701.549	5.15
701.577	-14.85
701.605	-8.85
701.634	-4.85
701.662	3.15
701.69	-11.85
701.718	-14.85
701.747	14.15
701.775	-11.85
701.803	-4.85
701.831	-2.85
701.86	-8.85
701.888	6.15
701.916	5.15
701.944	-0.85
701.973	3.15
702.001	-9.85
702.029	-12.85
702.057	-6.85
702.086	-25.85
702.114	-21.85
702.142	1.15
702.17	-5.85
702.199	3.15
702.227	-2.85
702.255	-7.85
702.283	5.15
702.311	2.15
702.34	-6.85
702.368	3.15
702.396	0.15
702.424	-6.85
702.452	7.15
702.481	5.15
702.509	-16.85
702.537	-1.85
702.565	4.15
702.593	-9.85
702.621	-10.85
702.65	3.15
702.678	-4.85
702.706	5.15
702.734	-3.85
702.762	-1.85
702.79	-6.85
702.819	0.15
702.847	-4.85
702.875	6.15
702.903	12.15
702.931	-6.85
702.959	1.15
702.988	4.15
703.016	-6.85
703.044	17.15
703.072	2.15
703.1	1.15
703.128	-2.85
703.156	-0.85
703.184	-2.85
703.212	-3.85
703.241	-3.85
703.269	9.15
703.297	-7.85
703.325	-1.85
703.353	-14.85
703.381	4.15
703.409	6.15
703.437	-4.85
703.465	-16.85
703.493	-27.85
703.522	-3.85
703.55	2.15
703.578	1.15
703.606	-2.85
703.634	-2.85
703.662	-3.85
703.69	-0.85
703.718	-1.85
703.746	19.15
703.774	5.15
703.802	9.15
703.83	-3.85
703.858	6.15
703.886	-3.85
703.914	5.15
703.942	0.15
703.97	-3.85
703.998	-1.85
704.027	12.15
704.055	12.15
704.083	-8.85
704.111	-20.85
704.139	-1.85
704.167	-3.85
704.195	1.15
704.223	1.15
704.251	-14.85
704.279	4.15
704.307	-0.85
704.335	-3.85
704.363	-0.85
704.391	-15.85
704.419	-3.85
704.447	-7.85
704.475	1.15
704.503	-10.85
704.531	1.15
704.558	12.15
704.586	5.15
704.614	-1.85
704.642	5.15
704.67	-8.85
704.698	-4.85
704.726	2.15
704.754	-0.85
704.782	0.15
704.81	-3.85
704.838	19.15
704.866	8.15
704.894	-17.85
704.922	-4.85
704.95	-2.85
704.978	4.15
705.006	-4.85
705.034	12.15
705.061	0.15
705.089	4.15
705.117	-18.85
705.145	-11.85
705.173	-3.85
705.201	-10.85
705.229	21.15
705.257	3.15
705.285	-0.85
705.313	10.15
705.34	12.15
705.368	3.15
705.396	12.15
705.424	6.15
705.452	4.15
705.48	6.15
705.508	-3.85
705.536	-2.85
705.563	-3.85
705.591	3.15
705.619	1.15
705.647	-24.85
705.675	-0.85
705.703	2.15
705.731	11.15
705.758	4.15
705.786	22.15
705.814	23.15
705.842	12.15
705.87	10.15
705.898	21.15
705.925	-15.85
705.953	-2.85
705.981	-10.85
706.009	-1.85
706.037	14.15
706.065	0.15
706.092	-6.85
706.12	-1.85
706.148	-8.85
706.176	-9.85
706.204	12.15
706.231	2.15
706.259	-0.85
706.287	-14.85
706.315	15.15
706.342	-9.85
706.37	19.15
706.398	5.15
706.426	-3.85
706.454	-10.85
706.481	4.15
706.509	-11.85
706.537	2.15
706.565	-4.85
706.592	21.15
706.62	1.15
706.648	11.15
706.676	-10.85
706.703	-0.85
706.731	-3.85
706.759	-15.85
706.787	-10.85
706.814	4.15
706.842	-2.85
706.87	-1.85
706.897	-6.85
706.925	-0.85
706.953	23.15
706.981	13.15
707.008	-0.85
707.036	-9.85
707.064	-15.85
707.091	-19.85
707.119	7.15
707.147	1.15
707.174	-6.85
707.202	2.15
707.23	-15.85
707.258	4.15
707.285	-5.85
707.313	5.15
707.341	9.15
707.368	-7.85
707.396	1.15
707.424	7.15
707.451	-3.85
707.479	-0.85
707.507	6.15
707.534	-5.85
707.562	-10.85
707.59	-8.85
707.617	-2.85
707.645	-10.85
707.672	1.15
707.7	0.15
707.728	0.15
707.755	8.15
707.783	1.15
707.811	8.15
707.838	-3.85
707.866	-16.85
707.893	-10.85
707.921	-12.85
707.949	-9.85
707.976	-3.85
708.004	5.15
708.031	7.15
708.059	-8.85
708.087	0.15
708.114	-18.85
708.142	-8.85
708.169	-1.85
708.197	-14.85
708.225	12.15
708.252	15.15
708.28	27.15
708.307	-6.85
708.335	-8.85
708.362	-10.85
708.39	-8.85
708.418	-3.85
708.445	-1.85
708.473	-13.85
708.5	-11.85
708.528	-6.85
708.555	-8.85
708.583	1.15
708.61	-18.85
708.638	-5.85
708.665	-14.85
708.693	-6.85
708.72	-15.85
708.748	-16.85
708.776	-9.85
708.803	30.15
708.831	19.15
708.858	9.15
708.886	4.15
708.913	-6.85
708.941	-13.85
708.968	23.15
708.996	-1.85
709.023	31.15
709.051	6.15
709.078	-0.85
709.105	0.15
709.133	-4.85
709.16	4.15
709.188	4.15
709.215	8.15
709.243	9.15
709.27	-10.85
709.298	1.15
709.325	2.15
709.353	-1.85
709.38	-1.85
709.408	22.15
709.435	5.15
709.462	-3.85
709.49	-5.85
709.517	-1.85
709.545	-7.85
709.572	-11.85
709.6	-9.85
709.627	2.15
709.655	-11.85
709.682	-6.85
709.709	12.15
709.737	10.15
709.764	-13.85
709.792	-0.85
709.819	17.15
709.846	1.15
709.874	0.15
709.901	15.15
709.929	26.15
709.956	12.15
709.983	-0.85
710.011	-3.85
710.038	-15.85
710.066	-0.85
710.093	1.15
710.12	8.15
710.148	-3.85
710.175	-3.85
710.202	-0.85
710.23	7.15
710.257	7.15
710.284	1.15
710.312	0.15
710.339	-0.85
710.366	-3.85
710.394	-1.85
710.421	-11.85
710.448	-3.85
710.476	-6.85
710.503	7.15
710.53	11.15
710.558	0.15
710.585	12.15
710.612	-8.85
710.64	-6.85
710.667	-9.85
710.694	-20.85
710.722	-5.85
710.749	-5.85
710.776	4.15
710.804	30.15
710.831	14.15
710.858	6.15
710.885	-16.85
710.913	-17.85
710.94	18.15
710.967	6.15
710.995	-3.85
711.022	-16.85
711.049	6.15
711.076	-0.85
711.104	-5.85
711.131	-5.85
711.158	8.15
711.185	7.15
711.213	-3.85
711.24	-5.85
711.267	-27.85
711.294	-12.85
711.322	13.15
711.349	6.15
711.376	7.15
711.403	6.15
711.431	-0.85
711.458	-7.85
711.485	0.15
711.512	12.15
711.54	-3.85
711.567	-2.85
711.594	5.15
711.621	-3.85
711.648	3.15
711.676	-0.85
711.703	5.15
711.73	-2.85
711.757	1.15
711.784	2.15
711.812	-0.85
711.839	-8.85
711.866	-9.85
711.893	-13.85
711.92	-7.85
711.947	-1.85
711.975	17.15
712.002	6.15
712.029	1.15
712.056	7.15
712.083	11.15
712.11	-12.85
712.138	4.15
712.165	-1.85
712.192	-1.85
712.219	4.15
712.246	3.15
712.273	-3.85
712.3	-5.85
712.328	-6.85
712.355	3.15
712.382	-23.85
712.409	3.15
712.436	-12.85
712.463	16.15
712.49	13.15
712.517	-0.85
712.544	4.15
712.572	-4.85
712.599	-8.85
712.626	0.15
712.653	-0.85
712.68	-24.85
712.707	-4.85
712.734	14.15
712.761	5.15
712.788	7.15
712.815	11.15
712.842	15.15
712.87	-2.85
712.897	-7.85
712.924	-7.85
712.951	-2.85
712.978	5.15
713.005	8.15
713.032	21.15
713.059	-5.85
713.086	-6.85
713.113	-4.85
713.14	-17.85
713.167	-7.85
713.194	0.15
713.221	2.15
713.248	-1.85
713.275	1.15
713.302	-11.85
713.329	3.15
713.356	19.15
713.383	7.15
713.41	6.15
713.437	0.15
713.464	-7.85
713.491	-1.85
713.518	12.15
713.545	-8.85
713.572	-0.85
713.599	4.15
713.626	-11.85
713.653	0.15
713.68	-3.85
713.707	-8.85
713.734	9.15
713.761	-0.85
713.788	-3.85
713.815	6.15
713.842	2.15
713.869	-11.85
713.896	-6.85
713.923	3.15
713.95	-3.85
713.977	-0.85
714.004	6.15
714.031	-7.85
714.058	-23.85
714.085	-12.85
714.112	0.15
714.139	3.15
714.165	-15.85
714.192	-7.85
714.219	7.15
714.246	1.15
714.273	2.15
714.3	-1.85
714.327	-1.85
714.354	7.15
714.381	-3.85
714.408	-6.85
714.435	-12.85
714.461	6.15
714.488	5.15
714.515	-9.85
714.542	-6.85
714.569	-6.85
714.596	-16.85
714.623	-7.85
714.65	-1.85
714.677	-0.85
714.703	0.15
714.73	3.15
714.757	-0.85
714.784	-4.85
714.811	-2.85
714.838	9.15
714.865	-6.85
714.891	16.15
714.918	21.15
714.945	-6.85
714.972	-3.85
714.999	1.15
715.026	-9.85
715.052	7.15
715.079	0.15
715.106	-6.85
715.133	6.15
715.16	-9.85
715.187	3.15
715.213	9.15
715.24	-2.85
715.267	-8.85
715.294	-2.85
715.321	-10.85
715.347	-3.85
715.374	-12.85
715.401	-9.85
715.428	-6.85
715.455	17.15
715.481	0.15
715.508	17.15
715.535	-11.85
715.562	17.15
715.588	5.15
715.615	2.15
715.642	-9.85
715.669	13.15
715.695	-0.85
715.722	6.15
715.749	-3.85
715.776	-0.85
715.802	0.15
715.829	2.15
715.856	-12.85
715.883	11.15
715.909	3.15
715.936	-18.85
715.963	3.15
715.99	-9.85
716.016	-4.85
716.043	-3.85
716.07	-7.85
716.096	-16.85
716.123	-3.85
716.15	-2.85
716.177	-4.85
716.203	6.15
716.23	8.15
716.257	21.15
716.283	16.15
716.31	2.15
716.337	-7.85
716.363	-26.85
716.39	16.15
716.417	17.15
716.443	-8.85
716.47	25.15
716.497	10.15
716.523	9.15
716.55	1.15
716.577	5.15
716.603	1.15
716.63	5.15
716.657	1.15
716.683	-10.85
716.71	2.15
716.737	-17.85
716.763	-4.85
716.79	8.15
716.817	5.15
716.843	-3.85
716.87	-8.85
716.897	-6.85
716.923	4.15
716.95	4.15
716.976	-0.85
717.003	-7.85
717.03	13.15
717.056	-0.85
717.083	-6.85
717.109	17.15
717.136	16.15
717.163	-4.85
717.189	5.15
717.216	-9.85
717.242	-15.85
717.269	-7.85
717.296	-1.85
717.322	0.15
717.349	25.15
717.375	14.15
717.402	5.15
717.428	-2.85
717.455	0.15
717.481	8.15
717.508	3.15
717.535	8.15
717.561	6.15
717.588	3.15
717.614	9.15
717.641	5.15
717.667	8.15
717.694	-7.85
717.72	-0.85
717.747	2.15
717.773	-9.85
717.8	16.15
717.826	-0.85
717.853	5.15
717.88	30.15
717.906	15.15
717.933	20.15
717.959	19.15
717.986	13.15
718.012	0.15
718.039	4.15
718.065	-2.85
718.092	6.15
718.118	0.15
718.144	-6.85
718.171	3.15
718.197	20.15
718.224	11.15
718.25	-8.85
718.277	2.15
718.303	14.15
718.33	2.15
718.356	-24.85
718.383	-23.85
718.409	-2.85
718.436	-17.85
718.462	-1.85
718.489	1.15
718.515	13.15
718.541	15.15
718.568	-2.85
718.594	8.15
718.621	5.15
718.647	-2.85
718.674	-1.85
718.7	14.15
718.726	5.15
718.753	1.15
718.779	-2.85
718.806	-9.85
718.832	-1.85
718.858	5.15
718.885	-10.85
718.911	-2.85
718.938	6.15
718.964	-12.85
718.99	1.15
719.017	3.15
719.043	-6.85
719.07	5.15
719.096	-3.85
719.122	11.15
719.149	0.15
719.175	10.15
719.201	5.15
719.228	3.15
719.254	-0.85
719.281	2.15
719.307	-17.85
719.333	-5.85
719.36	13.15
719.386	-13.85
719.412	3.15
719.439	-9.85
719.465	5.15
719.491	-4.85
719.518	10.15
719.544	-0.85
719.57	10.15
719.597	7.15
719.623	-3.85
719.649	-1.85
719.675	3.15
719.702	9.15
719.728	16.15
719.754	-4.85
719.781	-16.85
719.807	-1.85
719.833	-6.85
719.86	-0.85
719.886	6.15
719.912	-6.85
719.938	0.15
719.965	16.15
719.991	9.15
720.017	0.15
720.044	-9.85
720.07	3.15
720.096	8.15
720.122	8.15
720.149	0.15
720.175	23.15
720.201	8.15
720.227	-2.85
720.254	-8.85
720.28	-3.85
720.306	-11.85
720.332	5.15
720.359	7.15
720.385	17.15
720.411	-3.85
720.437	3.15
720.463	-6.85
720.49	14.15
720.516	-2.85
720.542	1.15
720.568	4.15
720.595	-3.85
720.621	-2.85
720.647	-1.85
720.673	-1.85
720.699	2.15
720.725	9.15
720.752	13.15
720.778	1.15
720.804	14.15
720.83	16.15
720.856	3.15
720.883	-14.85
720.909	-2.85
720.935	24.15
720.961	8.15
720.987	-4.85
721.013	9.15
721.04	2.15
721.066	7.15
721.092	-7.85
721.118	3.15
721.144	5.15
721.17	-5.85
721.196	-9.85
721.223	-5.85
721.249	-7.85
721.275	2.15
721.301	-8.85
721.327	9.15
721.353	12.15
721.379	6.15
721.405	10.15
721.432	8.15
721.458	-2.85
721.484	-7.85
721.51	-15.85
721.536	-4.85
721.562	3.15
721.588	-5.85
721.614	-4.85
721.64	-1.85
721.666	10.15
721.693	-5.85
721.719	-6.85
721.745	-16.85
721.771	0.15
721.797	9.15
721.823	6.15
721.849	4.15
721.875	-6.85
721.901	13.15
721.927	-6.85
721.953	0.15
721.979	5.15
722.005	2.15
722.031	-0.85
722.057	9.15
722.083	6.15
722.109	0.15
722.135	-0.85
722.161	-6.85
722.187	-9.85
722.214	4.15
722.24	2.15
722.266	-6.85
722.292	12.15
722.318	9.15
722.344	15.15
722.37	25.15
722.396	23.15
722.422	-8.85
722.448	-3.85
722.474	-9.85
722.5	-2.85
722.526	7.15
722.552	9.15
722.578	-4.85
722.603	3.15
722.629	-0.85
722.655	1.15
722.681	-11.85
722.707	-0.85
722.733	-9.85
722.759	-0.85
722.785	7.15
722.811	-7.85
722.837	-0.85
722.863	14.15
722.889	12.15
722.915	1.15
722.941	-6.85
722.967	-10.85
722.993	12.15
723.019	-0.85
723.045	-7.85
723.071	2.15
723.097	4.15
723.122	-3.85
723.148	-9.85
723.174	5.15
723.2	11.15
723.226	9.15
723.252	11.15
723.278	-5.85
723.304	-0.85
723.33	8.15
723.356	-22.85
723.381	9.15
723.407	-18.85
723.433	3.15
723.459	-11.85
723.485	6.15
723.511	3.15
723.537	-8.85
723.563	3.15
723.588	11.15
723.614	20.15
723.64	-4.85
723.666	6.15
723.692	16.15
723.718	-10.85
723.744	-8.85
723.769	-16.85
723.795	-16.85
723.821	4.15
723.847	-0.85
723.873	3.15
723.899	-3.85
723.924	-7.85
723.95	-0.85
723.976	-2.85
724.002	-0.85
724.028	-5.85
724.053	-4.85
724.079	-14.85
724.105	9.15
724.131	-2.85
724.157	3.15
724.182	2.15
724.208	-0.85
724.234	5.15
724.26	-9.85
724.286	-11.85
724.311	9.15
724.337	-2.85
724.363	5.15
724.389	7.15
724.415	5.15
724.44	16.15
724.466	-5.85
724.492	2.15
724.518	4.15
724.543	5.15
724.569	-6.85
724.595	6.15
724.621	-10.85
724.646	2.15
724.672	4.15
724.698	-13.85
724.723	-4.85
724.749	4.15
724.775	8.15
724.801	6.15
724.826	-9.85
724.852	0.15
724.878	-8.85
724.904	-27.85
724.929	4.15
724.955	-16.85
724.981	-0.85
725.006	3.15
725.032	0.15
725.058	-2.85
725.083	-10.85
725.109	-8.85
725.135	-2.85
725.161	3.15
725.186	7.15
725.212	3.15
725.238	-4.85
725.263	-6.85
725.289	-8.85
725.315	-2.85
725.34	7.15
725.366	2.15
725.392	-14.85
725.417	7.15
725.443	-2.85
725.468	7.15
725.494	-2.85
725.52	5.15
725.545	1.15
725.571	-0.85
725.597	0.15
725.622	1.15
725.648	5.15
725.674	5.15
725.699	2.15
725.725	-10.85
725.75	14.15
725.776	7.15
725.802	-7.85
725.827	-10.85
725.853	-12.85
725.878	10.15
725.904	12.15
725.93	-4.85
725.955	-20.85
725.981	-18.85
726.006	-3.85
726.032	16.15
726.057	0.15
726.083	-5.85
726.109	-9.85
726.134	8.15
726.16	3.15
726.185	-8.85
726.211	-7.85
726.236	8.15
726.262	-2.85
726.288	7.15
726.313	6.15
726.339	-4.85
726.364	5.15
726.39	15.15
726.415	-7.85
726.441	-10.85
726.466	-8.85
726.492	-4.85
726.517	-3.85
726.543	-4.85
726.568	-6.85
726.594	-0.85
726.619	11.15
726.645	7.15
726.67	7.15
726.696	4.15
726.721	11.15
726.747	-15.85
726.772	-1.85
726.798	-2.85
726.823	21.15
726.849	8.15
726.874	1.15
726.9	32.15
726.925	5.15
726.951	-3.85
726.976	11.15
727.002	-0.85
727.027	5.15
727.053	1.15
727.078	-11.85
727.104	-4.85
727.129	-16.85
727.155	2.15
727.18	5.15
727.205	-10.85
727.231	-0.85
727.256	-6.85
727.282	5.15
727.307	20.15
727.333	8.15
727.358	-4.85
727.383	-6.85
727.409	-14.85
727.434	-3.85
727.46	-11.85
727.485	-3.85
727.511	13.15
727.536	-19.85
727.561	-15.85
727.587	-0.85
727.612	0.15
727.637	3.15
727.663	-7.85
727.688	17.15
727.714	-7.85
727.739	-9.85
727.764	-18.85
727.79	-5.85
727.815	5.15
727.841	9.15
727.866	-7.85
727.891	4.15
727.917	-10.85
727.942	-1.85
727.967	-2.85
727.993	-13.85
728.018	-11.85
728.043	0.15
728.069	12.15
728.094	-1.85
728.119	-1.85
728.145	19.15
728.17	0.15
728.195	9.15
728.221	14.15
728.246	5.15
728.271	-7.85
728.297	7.15
728.322	5.15
728.347	1.15
728.373	-2.85
728.398	6.15
728.423	-14.85
728.448	6.15
728.474	-11.85
728.499	19.15
728.524	-4.85
728.55	-17.85
728.575	-7.85
728.6	-4.85
728.625	-3.85
728.651	13.15
728.676	0.15
728.701	1.15
728.727	1.15
728.752	-10.85
728.777	-8.85
728.802	4.15
728.828	12.15
728.853	3.15
728.878	-19.85
728.903	-17.85
728.929	-8.85
728.954	-8.85
728.979	7.15
729.004	-13.85
729.03	-12.85
729.055	3.15
729.08	-7.85
729.105	-7.85
729.13	8.15
729.156	6.15
729.181	2.15
729.206	-15.85
729.231	6.15
729.256	15.15
729.282	-0.85
729.307	-17.85
729.332	4.15
729.357	0.15
729.382	0.15
729.408	8.15
729.433	-5.85
729.458	14.15
729.483	13.15
729.508	8.15
729.533	6.15
729.559	-4.85
729.584	-12.85
729.609	3.15
729.634	17.15
729.659	3.15
729.684	-7.85
729.71	20.15
729.735	13.15
729.76	1.15
729.785	-2.85
729.81	2.15
729.835	3.15
729.86	-13.85
729.886	7.15
729.911	16.15
729.936	4.15
729.961	46.15
729.986	25.15
730.011	75.15
730.036	197.15
730.061	1018.15
730.086	2674.15
730.112	3380.15
730.137	2806.15
730.162	2056.15
730.187	1588.15
730.212	1241.15
730.237	805.15
730.262	437.15
730.287	238.15
730.312	147.15
730.337	82.15
730.362	63.15
730.387	30.15
730.413	8.15
730.438	23.15
730.463	20.15
730.488	12.15
730.513	25.15
730.538	-0.85
730.563	9.15
730.588	10.15
730.613	6.15
730.638	-6.85
730.663	-1.85
730.688	35.15
730.713	2.15
730.738	2.15
730.763	-12.85
730.788	-1.85
730.813	12.15
730.838	2.15
730.863	10.15
730.888	-4.85
730.913	6.15
730.938	5.15
730.963	23.15
730.988	119.15
731.013	404.15
731.038	620.15
731.063	597.15
731.088	447.15
731.113	329.15
731.138	265.15
731.163	190.15
731.188	108.15
731.213	59.15
731.238	42.15
731.263	28.15
731.288	7.15
731.313	1.15
731.338	14.15
731.363	5.15
731.388	-11.85
731.413	5.15
731.438	17.15
731.463	7.15
731.487	10.15
731.512	-9.85
731.537	-15.85
731.562	0.15
731.587	6.15
731.612	-1.85
731.637	-3.85
731.662	1.15
731.687	-4.85
731.712	-2.85
731.737	-5.85
731.762	1.15
731.786	2.15
731.811	13.15
731.836	12.15
731.861	8.15
731.886	9.15
731.911	10.15
731.936	10.15
731.961	-7.85
731.986	-8.85
732.01	-14.85
732.035	-12.85
732.06	1.15
732.085	-6.85
732.11	-9.85
732.135	-12.85
732.16	-9.85
732.184	-0.85
732.209	-1.85
732.234	4.15
732.259	3.15
732.284	-4.85
732.309	-8.85
732.334	-1.85
732.358	-13.85
732.383	-7.85
732.408	-1.85
732.433	-2.85
732.458	6.15
732.482	0.15
732.507	-3.85
732.532	4.15
732.557	3.15
732.582	12.15
732.607	11.15
732.631	50.15
732.656	87.15
732.681	148.15
732.706	317.15
732.73	440.15
732.755	404.15
732.78	293.15
732.805	240.15
732.83	166.15
732.854	130.15
732.879	82.15
732.904	26.15
732.929	20.15
732.953	34.15
732.978	16.15
733.003	-4.85
733.028	-0.85
733.052	6.15
733.077	-6.85
733.102	7.15
733.127	-7.85
733.151	-0.85
733.176	2.15
733.201	-4.85
733.226	-6.85
733.25	-9.85
733.275	-20.85
733.3	0.15
733.324	15.15
733.349	8.15
733.374	15.15
733.399	10.15
733.423	-1.85
733.448	0.15
733.473	6.15
733.497	9.15
733.522	-1.85
733.547	8.15
733.571	20.15
733.596	1.15
733.621	3.15
733.646	-6.85
733.67	3.15
733.695	-3.85
733.72	-3.85
733.744	2.15
733.769	12.15
733.794	18.15
733.818	-4.85
733.843	-8.85
733.867	-8.85
733.892	-8.85
733.917	-8.85
733.941	5.15
733.966	-2.85
733.991	-0.85
734.015	11.15
734.04	12.15
734.065	-6.85
734.089	2.15
734.114	0.15
734.138	-2.85
734.163	-17.85
734.188	-12.85
734.212	-3.85
734.237	1.15
734.261	8.15
734.286	-15.85
734.311	-6.85
734.335	-3.85
734.36	8.15
734.384	4.15
734.409	-7.85
734.434	-10.85
734.458	-8.85
734.483	0.15
734.507	-13.85
734.532	-5.85
734.556	10.15
734.581	-2.85
734.606	12.15
734.63	-12.85
734.655	16.15
734.679	0.15
734.704	-6.85
734.728	-0.85
734.753	-8.85
734.777	7.15
734.802	7.15
734.826	-0.85
734.851	5.15
734.876	7.15
734.9	0.15
734.925	2.15
734.949	-0.85
734.974	-11.85
734.998	3.15
735.023	-16.85
735.047	-8.85
735.072	24.15
735.096	1.15
735.121	3.15
735.145	4.15
735.17	-3.85
735.194	2.15
735.219	7.15
735.243	2.15
735.268	15.15
735.292	2.15
735.317	11.15
735.341	11.15
735.365	-12.85
735.39	7.15
735.414	6.15
735.439	5.15
735.463	-1.85
735.488	-3.85
735.512	1.15
735.537	-11.85
735.561	-6.85
735.586	-3.85
735.61	-4.85
735.634	-3.85
735.659	4.15
735.683	28.15
735.708	-2.85
735.732	-7.85
735.757	-12.85
735.781	-7.85
735.805	11.15
735.83	-4.85
735.854	-12.85
735.879	-3.85
735.903	5.15
735.927	13.15
735.952	8.15
735.976	-0.85
736.001	-3.85
736.025	-4.85
736.049	-3.85
736.074	1.15
736.098	1.15
736.123	4.15
736.147	1.15
736.171	-10.85
736.196	8.15
736.22	-10.85
736.244	-2.85
736.269	-0.85
736.293	-13.85
736.317	-1.85
736.342	7.15
736.366	19.15
736.39	19.15
736.415	3.15
736.439	-0.85
736.463	0.15
736.488	10.15
736.512	3.15
736.536	13.15
736.561	4.15
736.585	5.15
736.609	6.15
736.634	-9.85
736.658	15.15
736.682	-11.85
736.707	-4.85
736.731	-6.85
736.755	-5.85
736.78	16.15
736.804	-1.85
736.828	5.15
736.852	-18.85
736.877	5.15
736.901	5.15
736.925	-0.85
736.949	-0.85
736.974	-10.85
736.998	-8.85
737.022	2.15
737.047	-0.85
737.071	-9.85
737.095	12.15
737.119	25.15
737.144	7.15
737.168	5.15
737.192	6.15
737.216	-5.85
737.241	-0.85
737.265	-2.85
737.289	-7.85
737.313	-11.85
737.337	-2.85
737.362	1.15
737.386	-2.85
737.41	-12.85
737.434	7.15
737.459	-2.85
737.483	11.15
737.507	8.15
737.531	10.15
737.555	1.15
737.58	6.15
737.604	-2.85
737.628	-6.85
737.652	-3.85
737.676	3.15
737.701	-3.85
737.725	-0.85
737.749	0.15
737.773	1.15
737.797	-6.85
737.821	0.15
737.846	-3.85
737.87	24.15
737.894	1.15
737.918	3.15
737.942	-16.85
737.966	3.15
737.99	3.15
738.015	10.15
738.039	4.15
738.063	-10.85
738.087	6.15
738.111	12.15
738.135	31.15
738.159	12.15
738.184	9.15
738.208	8.15
738.232	1.15
738.256	5.15
738.28	0.15
738.304	21.15
738.328	-7.85
738.352	9.15
738.376	-8.85
738.4	8.15
738.425	1.15
738.449	-10.85
738.473	7.15
738.497	-4.85
738.521	19.15
738.545	9.15
738.569	11.15
738.593	15.15
738.617	13.15
738.641	2.15
738.665	-4.85
738.689	5.15
738.713	4.15
738.737	8.15
738.762	4.15
738.786	5.15
738.81	-8.85
738.834	-4.85
738.858	-9.85
738.882	17.15
738.906	-4.85
738.93	1.15
738.954	-2.85
738.978	4.15
739.002	-1.85
739.026	4.15
739.05	10.15
739.074	-1.85
739.098	19.15
739.122	7.15
739.146	7.15
739.17	13.15
739.194	12.15
739.218	-9.85
739.242	-0.85
739.266	1.15
739.29	6.15
739.314	9.15
739.338	-3.85
739.362	-5.85
739.386	-4.85
739.41	-1.85
739.434	-3.85
739.458	5.15
739.482	5.15
739.506	8.15
739.53	-11.85
739.554	1.15
739.577	-4.85
739.601	7.15
739.625	-15.85
739.649	-1.85
739.673	-9.85
739.697	7.15
739.721	-10.85
739.745	-1.85
739.769	4.15
739.793	1.15
739.817	-11.85
739.841	-8.85
739.865	0.15
739.889	-7.85
739.912	23.15
739.936	16.15
739.96	-1.85
739.984	27.15
740.008	-4.85
740.032	-0.85
740.056	-0.85
740.08	4.15
740.104	4.15
740.127	4.15
740.151	9.15
740.175	23.15
740.199	8.15
740.223	35.15
740.247	13.15
740.271	3.15
740.295	-11.85
740.318	-25.85
740.342	-8.85
740.366	-0.85
740.39	4.15
740.414	1.15
740.438	-5.85
740.461	12.15
740.485	4.15
740.509	4.15
740.533	19.15
740.557	0.15
740.581	4.15
740.604	-6.85
740.628	5.15
740.652	16.15
740.676	3.15
740.7	2.15
740.723	-3.85
740.747	-15.85
740.771	-16.85
740.795	-16.85
740.819	3.15
740.842	3.15
740.866	11.15
740.89	-3.85
740.914	1.15
740.938	-15.85
740.961	-1.85
740.985	0.15
741.009	-4.85
741.033	3.15
741.056	-0.85
741.08	0.15
741.104	0.15
741.128	-9.85
741.151	5.15
741.175	-3.85
741.199	6.15
741.223	8.15
741.246	1.15
741.27	11.15
741.294	2.15
741.318	0.15
741.341	5.15
741.365	0.15
741.389	1.15
741.413	8.15
741.436	16.15
741.46	3.15
741.484	18.15
741.507	-8.85
741.531	18.15
741.555	19.15
741.579	7.15
741.602	8.15
741.626	9.15
741.65	0.15
741.673	16.15
741.697	9.15
741.721	6.15
741.744	-15.85
741.768	2.15
741.792	-6.85
741.815	-12.85
741.839	21.15
741.863	5.15
741.886	15.15
741.91	10.15
741.934	-2.85
741.957	-2.85
741.981	10.15
742.005	4.15
742.028	-13.85
742.052	-12.85
742.075	-3.85
742.099	11.15
742.123	-17.85
742.146	-1.85
742.17	16.15
742.194	-10.85
742.217	-5.85
742.241	3.15
742.264	6.15
742.288	12.15
742.312	5.15
742.335	12.15
742.359	5.15
742.382	11.15
742.406	20.15
742.43	-8.85
742.453	-5.85
742.477	-11.85
742.5	-4.85
742.524	-7.85
742.548	-12.85
742.571	9.15
742.595	2.15
742.618	-16.85
742.642	-13.85
742.665	15.15
742.689	-7.85
742.712	3.15
742.736	-3.85
742.76	8.15
742.783	2.15
742.807	16.15
742.83	21.15
742.854	-7.85
742.877	-12.85
742.901	11.15
742.924	-1.85
742.948	-3.85
742.971	1.15
742.995	-2.85
743.018	-10.85
743.042	8.15
743.065	-6.85
743.089	-2.85
743.112	7.15
743.136	-7.85
743.159	-16.85
743.183	-11.85
743.206	12.15
743.23	-14.85
743.253	5.15
743.277	16.15
743.3	20.15
743.324	3.15
743.347	-16.85
743.371	17.15
743.394	12.15
743.418	22.15
743.441	5.15
743.465	-9.85
743.488	-3.85
743.512	-8.85
743.535	-2.85
743.558	-6.85
743.582	8.15
743.605	14.15
743.629	17.15
743.652	21.15
743.676	-3.85
743.699	3.15
743.723	9.15
743.746	6.15
743.769	-9.85
743.793	-0.85
743.816	-1.85
743.84	11.15
743.863	4.15
743.886	-4.85
743.91	7.15
743.933	-11.85
743.957	-6.85
743.98	-7.85
744.003	4.15
744.027	0.15
744.05	1.15
744.074	-2.85
744.097	-21.85
744.12	-20.85
744.144	-1.85
744.167	3.15
744.19	-1.85
744.214	-4.85
744.237	-10.85
744.26	9.15
744.284	-1.85
744.307	-1.85
744.331	4.15
744.354	8.15
744.377	-11.85
744.401	-20.85
744.424	-8.85
744.447	-20.85
744.471	-10.85
