Data from HighRes_mercury_15_13_11_07_2024_HR4C61891__54__15-14-28-586.txt Node

Date: Thu Nov 07 15:14:28 EST 2024
User: crc00042
Spectrometer: HR4C6189
Trigger mode: 4
Integration Time (sec): 1.000000E-1
Scans to average: 1
Electric dark correction enabled: true
Nonlinearity correction enabled: false
Boxcar width: 0
XAxis mode: Wavelengths
Number of Pixels in Spectrum: 3648
>>>>>Begin Spectral Data<<<<<
639.567	-47.62
639.602	-47.62
639.636	-47.62
639.67	-44.62
639.704	-15.62
639.738	-8.62
639.773	18.38
639.807	-20.62
639.841	1.38
639.875	11.38
639.909	1.38
639.943	-5.62
639.978	-1.62
640.012	5.38
640.046	11.38
640.08	-2.62
640.114	1.38
640.148	-11.62
640.182	-12.62
640.217	-9.62
640.251	14.38
640.285	4.38
640.319	0.38
640.353	5.38
640.387	7.38
640.421	-5.62
640.455	-11.62
640.49	-1.62
640.524	-5.62
640.558	13.38
640.592	-4.62
640.626	-4.62
640.66	5.38
640.694	1.38
640.728	3.38
640.762	9.38
640.796	11.38
640.83	15.38
640.865	-11.62
640.899	-13.62
640.933	2.38
640.967	-7.62
641.001	-1.62
641.035	9.38
641.069	-2.62
641.103	-2.62
641.137	-8.62
641.171	-31.62
641.205	-4.62
641.239	-6.62
641.273	5.38
641.307	-6.62
641.341	-12.62
641.375	-1.62
641.409	-13.62
641.443	-5.62
641.477	-0.62
641.511	7.38
641.545	5.38
641.579	-21.62
641.614	11.38
641.648	10.38
641.682	-3.62
641.716	15.38
641.75	16.38
641.784	3.38
641.818	-0.62
641.852	-2.62
641.886	11.38
641.919	12.38
641.953	1.38
641.987	-8.62
642.021	16.38
642.055	0.38
642.089	5.38
642.123	-25.62
642.157	-21.62
642.191	-6.62
642.225	4.38
642.259	-12.62
642.293	-2.62
642.327	-0.62
642.361	4.38
642.395	0.38
642.429	-2.62
642.463	16.38
642.497	17.38
642.531	3.38
642.565	-3.62
642.599	-6.62
642.633	-14.62
642.666	-5.62
642.7	0.38
642.734	0.38
642.768	-10.62
642.802	-20.62
642.836	-4.62
642.87	-1.62
642.904	4.38
642.938	19.38
642.972	-9.62
643.005	-2.62
643.039	17.38
643.073	5.38
643.107	17.38
643.141	-11.62
643.175	-5.62
643.209	2.38
643.243	-6.62
643.276	9.38
643.31	-8.62
643.344	-3.62
643.378	4.38
643.412	-5.62
643.446	-18.62
643.48	-13.62
643.513	-16.62
643.547	-7.62
643.581	-0.62
643.615	-4.62
643.649	-10.62
643.683	-13.62
643.716	-9.62
643.75	4.38
643.784	-10.62
643.818	-5.62
643.852	-13.62
643.886	6.38
643.919	6.38
643.953	-7.62
643.987	-13.62
644.021	-5.62
644.055	-14.62
644.088	-4.62
644.122	-17.62
644.156	-7.62
644.19	-10.62
644.224	-18.62
644.257	2.38
644.291	0.38
644.325	-6.62
644.359	-9.62
644.392	2.38
644.426	5.38
644.46	-14.62
644.494	-15.62
644.527	-18.62
644.561	-6.62
644.595	-3.62
644.629	-5.62
644.662	-9.62
644.696	17.38
644.73	8.38
644.764	4.38
644.797	-11.62
644.831	1.38
644.865	5.38
644.899	-7.62
644.932	15.38
644.966	4.38
645	-0.62
645.033	13.38
645.067	9.38
645.101	15.38
645.135	-10.62
645.168	-13.62
645.202	-12.62
645.236	0.38
645.269	8.38
645.303	-11.62
645.337	-8.62
645.37	2.38
645.404	-0.62
645.438	-4.62
645.471	1.38
645.505	6.38
645.539	-10.62
645.572	-11.62
645.606	-9.62
645.64	8.38
645.673	2.38
645.707	20.38
645.741	-12.62
645.774	-13.62
645.808	-1.62
645.842	-2.62
645.875	-11.62
645.909	-15.62
645.943	-8.62
645.976	-3.62
646.01	-8.62
646.043	-5.62
646.077	4.38
646.111	-8.62
646.144	-3.62
646.178	-8.62
646.212	-21.62
646.245	0.38
646.279	20.38
646.312	-3.62
646.346	0.38
646.38	-0.62
646.413	-1.62
646.447	-0.62
646.48	-9.62
646.514	-9.62
646.547	-2.62
646.581	-1.62
646.615	7.38
646.648	-11.62
646.682	-12.62
646.715	-2.62
646.749	3.38
646.782	-31.62
646.816	-17.62
646.85	8.38
646.883	-8.62
646.917	2.38
646.95	12.38
646.984	-4.62
647.017	-1.62
647.051	5.38
647.084	4.38
647.118	-3.62
647.151	8.38
647.185	-4.62
647.218	-19.62
647.252	-3.62
647.285	-14.62
647.319	-30.62
647.353	3.38
647.386	15.38
647.42	0.38
647.453	-18.62
647.487	4.38
647.52	-1.62
647.553	15.38
647.587	-17.62
647.62	-9.62
647.654	-6.62
647.687	-3.62
647.721	-7.62
647.754	-12.62
647.788	0.38
647.821	-18.62
647.855	-28.62
647.888	-8.62
647.922	8.38
647.955	-2.62
647.989	-7.62
648.022	-4.62
648.055	9.38
648.089	-4.62
648.122	8.38
648.156	-11.62
648.189	-3.62
648.223	-3.62
648.256	17.38
648.29	-6.62
648.323	7.38
648.356	12.38
648.39	2.38
648.423	-0.62
648.457	-2.62
648.49	-6.62
648.523	-0.62
648.557	-2.62
648.59	-0.62
648.624	1.38
648.657	-0.62
648.69	6.38
648.724	-1.62
648.757	-12.62
648.791	4.38
648.824	0.38
648.857	1.38
648.891	0.38
648.924	11.38
648.957	5.38
648.991	-14.62
649.024	6.38
649.057	-2.62
649.091	-15.62
649.124	7.38
649.158	-0.62
649.191	5.38
649.224	-0.62
649.258	-15.62
649.291	-10.62
649.324	3.38
649.358	-13.62
649.391	2.38
649.424	1.38
649.458	-15.62
649.491	-15.62
649.524	-17.62
649.557	-3.62
649.591	-11.62
649.624	4.38
649.657	-17.62
649.691	-8.62
649.724	0.38
649.757	-4.62
649.791	-4.62
649.824	17.38
649.857	-3.62
649.89	2.38
649.924	-18.62
649.957	-4.62
649.99	-2.62
650.023	5.38
650.057	3.38
650.09	4.38
650.123	-9.62
650.157	-6.62
650.19	20.38
650.223	-14.62
650.256	-13.62
650.29	2.38
650.323	6.38
650.356	1.38
650.389	-6.62
650.423	-20.62
650.456	-7.62
650.489	-1.62
650.522	3.38
650.555	0.38
650.589	17.38
650.622	-8.62
650.655	1.38
650.688	-8.62
650.721	-4.62
650.755	-7.62
650.788	-3.62
650.821	-3.62
650.854	-7.62
650.887	-0.62
650.921	-13.62
650.954	4.38
650.987	-20.62
651.02	-6.62
651.053	-14.62
651.087	-22.62
651.12	-3.62
651.153	6.38
651.186	-15.62
651.219	-21.62
651.252	-15.62
651.286	-11.62
651.319	-19.62
651.352	-5.62
651.385	5.38
651.418	11.38
651.451	10.38
651.484	6.38
651.518	0.38
651.551	13.38
651.584	0.38
651.617	8.38
651.65	3.38
651.683	11.38
651.716	-4.62
651.749	-10.62
651.783	0.38
651.816	0.38
651.849	-3.62
651.882	-13.62
651.915	-13.62
651.948	-3.62
651.981	-10.62
652.014	-18.62
652.047	-17.62
652.08	-27.62
652.114	-20.62
652.147	-14.62
652.18	-16.62
652.213	13.38
652.246	5.38
652.279	-22.62
652.312	12.38
652.345	-5.62
652.378	6.38
652.411	4.38
652.444	-3.62
652.477	-0.62
652.51	4.38
652.543	-22.62
652.576	-2.62
652.609	-7.62
652.642	2.38
652.675	10.38
652.709	-3.62
652.742	-3.62
652.775	0.38
652.808	-2.62
652.841	-12.62
652.874	4.38
652.907	10.38
652.94	-1.62
652.973	-20.62
653.006	-16.62
653.039	-13.62
653.072	-4.62
653.105	-1.62
653.138	-11.62
653.171	-15.62
653.204	-3.62
653.237	8.38
653.27	-18.62
653.303	-4.62
653.336	4.38
653.368	-22.62
653.401	-7.62
653.434	-16.62
653.467	9.38
653.5	-23.62
653.533	-16.62
653.566	-0.62
653.599	-10.62
653.632	-3.62
653.665	2.38
653.698	-9.62
653.731	-6.62
653.764	8.38
653.797	-5.62
653.83	1.38
653.863	-0.62
653.896	-7.62
653.929	0.38
653.961	4.38
653.994	-1.62
654.027	-6.62
654.06	-0.62
654.093	10.38
654.126	-3.62
654.159	-16.62
654.192	2.38
654.225	-1.62
654.258	-16.62
654.29	-23.62
654.323	-16.62
654.356	10.38
654.389	-8.62
654.422	-8.62
654.455	-5.62
654.488	-0.62
654.521	-25.62
654.553	-13.62
654.586	-3.62
654.619	-20.62
654.652	-14.62
654.685	2.38
654.718	-0.62
654.751	-5.62
654.783	-22.62
654.816	2.38
654.849	-4.62
654.882	-17.62
654.915	-4.62
654.948	-3.62
654.98	-11.62
655.013	-2.62
655.046	-16.62
655.079	-18.62
655.112	0.38
655.144	-7.62
655.177	-8.62
655.21	-6.62
655.243	19.38
655.276	-3.62
655.308	-14.62
655.341	-5.62
655.374	-4.62
655.407	-12.62
655.44	-18.62
655.472	5.38
655.505	-3.62
655.538	-0.62
655.571	-5.62
655.603	-13.62
655.636	-2.62
655.669	4.38
655.702	-8.62
655.734	-3.62
655.767	-7.62
655.8	-7.62
655.833	-7.62
655.865	-4.62
655.898	-10.62
655.931	4.38
655.964	-24.62
655.996	-16.62
656.029	-4.62
656.062	-9.62
656.095	-10.62
656.127	-8.62
656.16	0.38
656.193	-7.62
656.225	-4.62
656.258	18.38
656.291	-2.62
656.324	-3.62
656.356	-1.62
656.389	-5.62
656.422	9.38
656.454	-0.62
656.487	-0.62
656.52	-9.62
656.552	-1.62
656.585	-1.62
656.618	13.38
656.65	21.38
656.683	8.38
656.716	4.38
656.748	-18.62
656.781	-15.62
656.814	-16.62
656.846	3.38
656.879	-11.62
656.912	-0.62
656.944	-23.62
656.977	-5.62
657.01	-2.62
657.042	5.38
657.075	4.38
657.108	2.38
657.14	-4.62
657.173	9.38
657.205	25.38
657.238	3.38
657.271	-1.62
657.303	-3.62
657.336	-11.62
657.369	-8.62
657.401	-10.62
657.434	-4.62
657.466	0.38
657.499	3.38
657.532	-6.62
657.564	-3.62
657.597	-24.62
657.629	1.38
657.662	-1.62
657.694	15.38
657.727	-10.62
657.76	3.38
657.792	-14.62
657.825	-24.62
657.857	-16.62
657.89	-4.62
657.922	13.38
657.955	-19.62
657.987	-4.62
658.02	8.38
658.053	-1.62
658.085	2.38
658.118	-7.62
658.15	9.38
658.183	8.38
658.215	-9.62
658.248	-13.62
658.28	-3.62
658.313	2.38
658.345	-11.62
658.378	-10.62
658.41	-14.62
658.443	-7.62
658.475	-5.62
658.508	5.38
658.54	-7.62
658.573	-5.62
658.605	-2.62
658.638	-11.62
658.67	-7.62
658.703	2.38
658.735	-10.62
658.768	-10.62
658.8	-13.62
658.833	-2.62
658.865	10.38
658.898	-18.62
658.93	-24.62
658.963	-30.62
658.995	-8.62
659.028	3.38
659.06	1.38
659.092	-5.62
659.125	-12.62
659.157	-0.62
659.19	-1.62
659.222	-5.62
659.255	-9.62
659.287	0.38
659.32	-7.62
659.352	-3.62
659.384	-3.62
659.417	-6.62
659.449	-3.62
659.482	12.38
659.514	-18.62
659.546	-6.62
659.579	-15.62
659.611	-7.62
659.644	-9.62
659.676	-17.62
659.708	-21.62
659.741	-11.62
659.773	-3.62
659.806	-14.62
659.838	-6.62
659.87	-8.62
659.903	-9.62
659.935	2.38
659.967	-0.62
660	-0.62
660.032	-29.62
660.065	-0.62
660.097	-13.62
660.129	-2.62
660.162	-23.62
660.194	0.38
660.226	13.38
660.259	7.38
660.291	-11.62
660.323	3.38
660.356	-13.62
660.388	-13.62
660.42	-2.62
660.453	-4.62
660.485	-3.62
660.517	-0.62
660.55	4.38
660.582	3.38
660.614	1.38
660.647	-21.62
660.679	-21.62
660.711	1.38
660.743	-23.62
660.776	-6.62
660.808	-14.62
660.84	-19.62
660.873	-3.62
660.905	-8.62
660.937	-13.62
660.969	-6.62
661.002	-3.62
661.034	10.38
661.066	-2.62
661.099	-6.62
661.131	-4.62
661.163	-1.62
661.195	-2.62
661.228	4.38
661.26	-1.62
661.292	-7.62
661.324	11.38
661.357	9.38
661.389	0.38
661.421	7.38
661.453	-10.62
661.485	0.38
661.518	-2.62
661.55	-18.62
661.582	-25.62
661.614	-2.62
661.647	-5.62
661.679	9.38
661.711	-1.62
661.743	-18.62
661.775	-8.62
661.808	29.38
661.84	-0.62
661.872	-5.62
661.904	-7.62
661.936	-10.62
661.969	-8.62
662.001	-8.62
662.033	6.38
662.065	-3.62
662.097	12.38
662.129	3.38
662.162	-4.62
662.194	-0.62
662.226	-2.62
662.258	-1.62
662.29	-10.62
662.322	3.38
662.355	-22.62
662.387	28.38
662.419	-5.62
662.451	2.38
662.483	-3.62
662.515	-10.62
662.547	-7.62
662.58	-14.62
662.612	-18.62
662.644	-16.62
662.676	-0.62
662.708	20.38
662.74	-16.62
662.772	3.38
662.804	2.38
662.836	8.38
662.869	-4.62
662.901	3.38
662.933	-17.62
662.965	5.38
662.997	-3.62
663.029	-7.62
663.061	-4.62
663.093	0.38
663.125	4.38
663.157	-2.62
663.189	-11.62
663.221	15.38
663.254	2.38
663.286	-8.62
663.318	-9.62
663.35	-3.62
663.382	-7.62
663.414	4.38
663.446	-4.62
663.478	-3.62
663.51	6.38
663.542	-12.62
663.574	-13.62
663.606	-15.62
663.638	-13.62
663.67	-14.62
663.702	-14.62
663.734	-11.62
663.766	15.38
663.798	-17.62
663.83	-1.62
663.862	9.38
663.894	11.38
663.926	-1.62
663.958	5.38
663.99	1.38
664.022	-3.62
664.054	10.38
664.086	-5.62
664.118	-11.62
664.15	-14.62
664.182	-12.62
664.214	0.38
664.246	8.38
664.278	-3.62
664.31	6.38
664.342	-15.62
664.374	2.38
664.406	-0.62
664.438	-25.62
664.47	1.38
664.502	7.38
664.534	-6.62
664.566	-13.62
664.598	7.38
664.63	-25.62
664.662	9.38
664.693	-0.62
664.725	-6.62
664.757	-10.62
664.789	-6.62
664.821	9.38
664.853	-2.62
664.885	-7.62
664.917	-9.62
664.949	-3.62
664.981	17.38
665.013	-1.62
665.045	-12.62
665.076	-8.62
665.108	-0.62
665.14	-11.62
665.172	-1.62
665.204	5.38
665.236	-12.62
665.268	-0.62
665.3	-6.62
665.331	-18.62
665.363	-8.62
665.395	-16.62
665.427	-0.62
665.459	0.38
665.491	-10.62
665.523	-6.62
665.555	-10.62
665.586	-5.62
665.618	-17.62
665.65	-20.62
665.682	1.38
665.714	-5.62
665.746	0.38
665.777	3.38
665.809	1.38
665.841	-1.62
665.873	-6.62
665.905	0.38
665.937	5.38
665.968	-2.62
666	-9.62
666.032	11.38
666.064	-6.62
666.096	-20.62
666.127	4.38
666.159	-4.62
666.191	2.38
666.223	-6.62
666.255	0.38
666.286	16.38
666.318	-16.62
666.35	-0.62
666.382	1.38
666.413	-14.62
666.445	-16.62
666.477	1.38
666.509	4.38
666.54	-0.62
666.572	3.38
666.604	2.38
666.636	-28.62
666.667	-0.62
666.699	9.38
666.731	-9.62
666.763	-18.62
666.794	-3.62
666.826	-5.62
666.858	-4.62
666.89	9.38
666.921	-0.62
666.953	0.38
666.985	-7.62
667.017	-4.62
667.048	-3.62
667.08	-4.62
667.112	-16.62
667.143	-22.62
667.175	1.38
667.207	-10.62
667.238	1.38
667.27	1.38
667.302	-7.62
667.334	4.38
667.365	5.38
667.397	2.38
667.429	-17.62
667.46	6.38
667.492	-3.62
667.524	-8.62
667.555	-1.62
667.587	-6.62
667.619	-11.62
667.65	-11.62
667.682	6.38
667.714	10.38
667.745	4.38
667.777	4.38
667.808	12.38
667.84	5.38
667.872	-5.62
667.903	30.38
667.935	-5.62
667.967	-15.62
667.998	-2.62
668.03	-11.62
668.061	-17.62
668.093	-20.62
668.125	-0.62
668.156	3.38
668.188	-13.62
668.22	-13.62
668.251	4.38
668.283	6.38
668.314	16.38
668.346	11.38
668.377	18.38
668.409	6.38
668.441	3.38
668.472	19.38
668.504	4.38
668.535	-14.62
668.567	4.38
668.599	6.38
668.63	-16.62
668.662	-7.62
668.693	14.38
668.725	7.38
668.756	4.38
668.788	3.38
668.819	-11.62
668.851	-4.62
668.882	-12.62
668.914	-7.62
668.946	4.38
668.977	-24.62
669.009	3.38
669.04	-13.62
669.072	-19.62
669.103	-9.62
669.135	-8.62
669.166	-17.62
669.198	-4.62
669.229	-5.62
669.261	4.38
669.292	-9.62
669.324	-9.62
669.355	12.38
669.387	-4.62
669.418	-2.62
669.45	-7.62
669.481	-1.62
669.513	-0.62
669.544	7.38
669.576	1.38
669.607	9.38
669.639	6.38
669.67	-31.62
669.701	1.38
669.733	-13.62
669.764	-10.62
669.796	-18.62
669.827	-8.62
669.859	-2.62
669.89	3.38
669.922	0.38
669.953	8.38
669.985	-3.62
670.016	-0.62
670.047	-11.62
670.079	-11.62
670.11	-3.62
670.142	10.38
670.173	2.38
670.204	-1.62
670.236	-1.62
670.267	-0.62
670.299	-2.62
670.33	-6.62
670.362	10.38
670.393	-18.62
670.424	-6.62
670.456	-8.62
670.487	-10.62
670.518	-10.62
670.55	3.38
670.581	-14.62
670.613	4.38
670.644	-13.62
670.675	-9.62
670.707	-13.62
670.738	-10.62
670.769	3.38
670.801	-0.62
670.832	11.38
670.864	-5.62
670.895	-9.62
670.926	-3.62
670.958	-2.62
670.989	-7.62
671.02	-6.62
671.052	0.38
671.083	0.38
671.114	-11.62
671.146	0.38
671.177	-4.62
671.208	-16.62
671.24	-9.62
671.271	8.38
671.302	2.38
671.333	-1.62
671.365	-20.62
671.396	-8.62
671.427	3.38
671.459	9.38
671.49	3.38
671.521	-9.62
671.553	8.38
671.584	-6.62
671.615	-4.62
671.646	-2.62
671.678	-9.62
671.709	-24.62
671.74	-23.62
671.771	-4.62
671.803	-16.62
671.834	-2.62
671.865	-11.62
671.896	-4.62
671.928	-6.62
671.959	-12.62
671.99	-12.62
672.021	-4.62
672.053	-19.62
672.084	10.38
672.115	-5.62
672.146	-3.62
672.178	-11.62
672.209	-15.62
672.24	-1.62
672.271	15.38
672.303	12.38
672.334	-2.62
672.365	-8.62
672.396	-7.62
672.427	8.38
672.459	3.38
672.49	5.38
672.521	-6.62
672.552	3.38
672.583	-11.62
672.615	-5.62
672.646	-4.62
672.677	-30.62
672.708	-18.62
672.739	-3.62
672.77	5.38
672.802	-4.62
672.833	-12.62
672.864	-5.62
672.895	-10.62
672.926	-1.62
672.957	-4.62
672.989	-18.62
673.02	-8.62
673.051	-6.62
673.082	-1.62
673.113	-0.62
673.144	15.38
673.175	-7.62
673.206	-9.62
673.238	-7.62
673.269	-5.62
673.3	-19.62
673.331	10.38
673.362	2.38
673.393	-0.62
673.424	3.38
673.455	11.38
673.487	8.38
673.518	8.38
673.549	-2.62
673.58	1.38
673.611	-6.62
673.642	-0.62
673.673	-20.62
673.704	-1.62
673.735	-3.62
673.766	-5.62
673.797	-10.62
673.828	-8.62
673.86	-12.62
673.891	-20.62
673.922	-6.62
673.953	0.38
673.984	6.38
674.015	-11.62
674.046	-2.62
674.077	-8.62
674.108	-0.62
674.139	-5.62
674.17	-13.62
674.201	-2.62
674.232	-6.62
674.263	-7.62
674.294	-9.62
674.325	-12.62
674.356	-3.62
674.387	17.38
674.418	-10.62
674.449	-8.62
674.48	-12.62
674.511	-11.62
674.542	1.38
674.573	-16.62
674.604	0.38
674.635	-7.62
674.666	3.38
674.697	-2.62
674.728	1.38
674.759	-9.62
674.79	-17.62
674.821	-9.62
674.852	-20.62
674.883	-12.62
674.914	-19.62
674.945	-12.62
674.976	-3.62
675.007	-16.62
675.038	-7.62
675.069	-11.62
675.1	-16.62
675.131	5.38
675.162	-26.62
675.193	-7.62
675.224	-19.62
675.254	3.38
675.285	11.38
675.316	8.38
675.347	-8.62
675.378	-14.62
675.409	-20.62
675.44	1.38
675.471	2.38
675.502	-16.62
675.533	-5.62
675.564	-2.62
675.595	-4.62
675.625	11.38
675.656	2.38
675.687	-0.62
675.718	-7.62
675.749	-8.62
675.78	-5.62
675.811	-13.62
675.842	-3.62
675.873	-19.62
675.903	-3.62
675.934	-8.62
675.965	-11.62
675.996	-6.62
676.027	7.38
676.058	2.38
676.089	-29.62
676.119	-0.62
676.15	-8.62
676.181	-0.62
676.212	-1.62
676.243	-10.62
676.274	-16.62
676.304	3.38
676.335	-12.62
676.366	3.38
676.397	-14.62
676.428	-2.62
676.459	-2.62
676.489	-1.62
676.52	4.38
676.551	13.38
676.582	-14.62
676.613	-0.62
676.643	-26.62
676.674	2.38
676.705	-10.62
676.736	-4.62
676.767	11.38
676.797	3.38
676.828	-6.62
676.859	-19.62
676.89	5.38
676.92	8.38
676.951	8.38
676.982	5.38
677.013	-14.62
677.044	8.38
677.074	15.38
677.105	-20.62
677.136	3.38
677.167	1.38
677.197	10.38
677.228	-5.62
677.259	-4.62
677.289	-5.62
677.32	-14.62
677.351	-4.62
677.382	-3.62
677.412	-2.62
677.443	1.38
677.474	-0.62
677.505	-7.62
677.535	-10.62
677.566	-3.62
677.597	-19.62
677.627	-1.62
677.658	3.38
677.689	2.38
677.72	1.38
677.75	-11.62
677.781	-8.62
677.812	-6.62
677.842	-0.62
677.873	-10.62
677.904	8.38
677.934	0.38
677.965	-2.62
677.996	-18.62
678.026	-4.62
678.057	6.38
678.088	-18.62
678.118	-14.62
678.149	-14.62
678.18	-15.62
678.21	1.38
678.241	-9.62
678.272	4.38
678.302	-0.62
678.333	-0.62
678.363	11.38
678.394	-0.62
678.425	-1.62
678.455	-3.62
678.486	1.38
678.517	-2.62
678.547	-3.62
678.578	-5.62
678.608	-18.62
678.639	0.38
678.67	-2.62
678.7	-11.62
678.731	0.38
678.761	-11.62
678.792	-20.62
678.823	-4.62
678.853	11.38
678.884	-19.62
678.914	3.38
678.945	-10.62
678.975	-7.62
679.006	-3.62
679.037	-16.62
679.067	6.38
679.098	-13.62
679.128	-0.62
679.159	1.38
679.189	-3.62
679.22	-13.62
679.25	-4.62
679.281	-9.62
679.312	-13.62
679.342	-4.62
679.373	10.38
679.403	0.38
679.434	3.38
679.464	-13.62
679.495	9.38
679.525	-1.62
679.556	0.38
679.586	0.38
679.617	0.38
679.647	-5.62
679.678	-0.62
679.708	1.38
679.739	4.38
679.769	-4.62
679.8	-7.62
679.83	2.38
679.861	18.38
679.891	-5.62
679.922	-0.62
679.952	0.38
679.983	3.38
680.013	1.38
680.044	-1.62
680.074	2.38
680.105	19.38
680.135	8.38
680.165	1.38
680.196	0.38
680.226	-14.62
680.257	2.38
680.287	-10.62
680.318	-5.62
680.348	-15.62
680.379	-4.62
680.409	-1.62
680.439	-13.62
680.47	-6.62
680.5	2.38
680.531	-0.62
680.561	14.38
680.592	-2.62
680.622	12.38
680.652	-5.62
680.683	-1.62
680.713	-16.62
680.744	1.38
680.774	-12.62
680.804	14.38
680.835	-13.62
680.865	-18.62
680.896	20.38
680.926	3.38
680.956	2.38
680.987	5.38
681.017	-2.62
681.047	3.38
681.078	-16.62
681.108	-5.62
681.139	-1.62
681.169	-22.62
681.199	-15.62
681.23	9.38
681.26	-14.62
681.29	3.38
681.321	-11.62
681.351	-6.62
681.381	-23.62
681.412	-2.62
681.442	-8.62
681.472	5.38
681.503	-7.62
681.533	1.38
681.563	-15.62
681.594	2.38
681.624	20.38
681.654	14.38
681.685	-10.62
681.715	-12.62
681.745	1.38
681.775	0.38
681.806	-1.62
681.836	4.38
681.866	-4.62
681.897	14.38
681.927	0.38
681.957	-16.62
681.987	-18.62
682.018	-7.62
682.048	-6.62
682.078	-0.62
682.109	7.38
682.139	2.38
682.169	3.38
682.199	-18.62
682.23	-13.62
682.26	-14.62
682.29	-8.62
682.32	-10.62
682.351	4.38
682.381	2.38
682.411	-5.62
682.441	0.38
682.472	-13.62
682.502	-10.62
682.532	-9.62
682.562	1.38
682.592	-1.62
682.623	9.38
682.653	-4.62
682.683	-5.62
682.713	10.38
682.743	-0.62
682.774	-4.62
682.804	-9.62
682.834	1.38
682.864	-3.62
682.894	2.38
682.925	2.38
682.955	17.38
682.985	-11.62
683.015	-1.62
683.045	16.38
683.076	-8.62
683.106	7.38
683.136	-13.62
683.166	-7.62
683.196	-7.62
683.226	-3.62
683.257	-8.62
683.287	-27.62
683.317	-17.62
683.347	-14.62
683.377	-13.62
683.407	-21.62
683.437	-0.62
683.468	-17.62
683.498	-23.62
683.528	-2.62
683.558	0.38
683.588	-6.62
683.618	-8.62
683.648	-10.62
683.678	-1.62
683.708	1.38
683.739	-15.62
683.769	4.38
683.799	7.38
683.829	7.38
683.859	-0.62
683.889	-8.62
683.919	4.38
683.949	6.38
683.979	0.38
684.009	-14.62
684.039	-2.62
684.07	-6.62
684.1	4.38
684.13	0.38
684.16	16.38
684.19	-13.62
684.22	-8.62
684.25	-4.62
684.28	-2.62
684.31	10.38
684.34	10.38
684.37	4.38
684.4	-21.62
684.43	1.38
684.46	-0.62
684.49	-10.62
684.52	0.38
684.55	4.38
684.58	-2.62
684.61	-15.62
684.64	4.38
684.67	28.38
684.7	-5.62
684.73	2.38
684.76	-13.62
684.79	14.38
684.82	4.38
684.85	-18.62
684.88	-1.62
684.91	-8.62
684.94	-2.62
684.97	-4.62
685	-13.62
685.03	-11.62
685.06	-15.62
685.09	1.38
685.12	18.38
685.15	-16.62
685.18	2.38
685.21	-16.62
685.24	8.38
685.27	12.38
685.3	1.38
685.33	15.38
685.36	-13.62
685.39	-24.62
685.42	-5.62
685.45	-2.62
685.48	-13.62
685.51	-4.62
685.54	3.38
685.569	-0.62
685.599	1.38
685.629	-3.62
685.659	0.38
685.689	-8.62
685.719	-5.62
685.749	-8.62
685.779	11.38
685.809	-18.62
685.839	-6.62
685.869	-3.62
685.898	1.38
685.928	-10.62
685.958	-5.62
685.988	16.38
686.018	-18.62
686.048	5.38
686.078	3.38
686.108	-8.62
686.137	-5.62
686.167	22.38
686.197	-4.62
686.227	10.38
686.257	23.38
686.287	13.38
686.317	-4.62
686.346	-5.62
686.376	0.38
686.406	1.38
686.436	7.38
686.466	-20.62
686.496	-5.62
686.525	-1.62
686.555	-7.62
686.585	6.38
686.615	30.38
686.645	10.38
686.675	-7.62
686.704	-7.62
686.734	2.38
686.764	-13.62
686.794	-13.62
686.824	1.38
686.853	11.38
686.883	-10.62
686.913	-4.62
686.943	-13.62
686.973	-16.62
687.002	-3.62
687.032	-2.62
687.062	-4.62
687.092	10.38
687.121	-1.62
687.151	-1.62
687.181	-3.62
687.211	20.38
687.24	-2.62
687.27	-6.62
687.3	-2.62
687.33	0.38
687.359	-19.62
687.389	-13.62
687.419	-15.62
687.449	-5.62
687.478	5.38
687.508	0.38
687.538	-5.62
687.568	-8.62
687.597	-8.62
687.627	-3.62
687.657	-7.62
687.686	12.38
687.716	18.38
687.746	-8.62
687.776	-11.62
687.805	-1.62
687.835	-0.62
687.865	12.38
687.894	2.38
687.924	3.38
687.954	-1.62
687.983	0.38
688.013	1.38
688.043	-0.62
688.072	0.38
688.102	13.38
688.132	-11.62
688.161	-15.62
688.191	4.38
688.221	15.38
688.25	-12.62
688.28	2.38
688.31	-0.62
688.339	-8.62
688.369	-28.62
688.399	-18.62
688.428	-13.62
688.458	1.38
688.488	-3.62
688.517	3.38
688.547	3.38
688.576	15.38
688.606	13.38
688.636	-14.62
688.665	8.38
688.695	2.38
688.725	-1.62
688.754	0.38
688.784	0.38
688.813	4.38
688.843	-0.62
688.873	-2.62
688.902	-1.62
688.932	-6.62
688.961	5.38
688.991	12.38
689.02	-0.62
689.05	-19.62
689.08	0.38
689.109	-3.62
689.139	-25.62
689.168	-6.62
689.198	-16.62
689.227	-3.62
689.257	0.38
689.287	2.38
689.316	-17.62
689.346	-9.62
689.375	-1.62
689.405	0.38
689.434	-7.62
689.464	-0.62
689.493	-4.62
689.523	-12.62
689.552	-13.62
689.582	-1.62
689.611	-1.62
689.641	4.38
689.67	-5.62
689.7	8.38
689.73	0.38
689.759	13.38
689.789	15.38
689.818	-1.62
689.848	-2.62
689.877	12.38
689.906	-1.62
689.936	-9.62
689.965	20.38
689.995	-3.62
690.024	2.38
690.054	11.38
690.083	3.38
690.113	-3.62
690.142	14.38
690.172	-0.62
690.201	14.38
690.231	2.38
690.26	4.38
690.29	10.38
690.319	7.38
690.348	-6.62
690.378	3.38
690.407	-15.62
690.437	-8.62
690.466	1.38
690.496	-7.62
690.525	8.38
690.555	-24.62
690.584	-10.62
690.613	8.38
690.643	9.38
690.672	11.38
690.702	9.38
690.731	21.38
690.76	17.38
690.79	50.38
690.819	48.38
690.849	50.38
690.878	23.38
690.907	23.38
690.937	11.38
690.966	13.38
690.996	5.38
691.025	-2.62
691.054	15.38
691.084	-18.62
691.113	-8.62
691.142	-4.62
691.172	12.38
691.201	-0.62
691.23	0.38
691.26	11.38
691.289	3.38
691.319	-12.62
691.348	-2.62
691.377	21.38
691.407	-0.62
691.436	14.38
691.465	-0.62
691.495	-19.62
691.524	-16.62
691.553	1.38
691.583	-13.62
691.612	4.38
691.641	0.38
691.67	0.38
691.7	4.38
691.729	-15.62
691.758	-14.62
691.788	-1.62
691.817	-9.62
691.846	-0.62
691.876	0.38
691.905	5.38
691.934	-10.62
691.963	4.38
691.993	-0.62
692.022	-15.62
692.051	-9.62
692.081	-7.62
692.11	3.38
692.139	1.38
692.168	9.38
692.198	6.38
692.227	6.38
692.256	-8.62
692.285	-1.62
692.315	6.38
692.344	3.38
692.373	-9.62
692.402	-3.62
692.432	-4.62
692.461	7.38
692.49	6.38
692.519	-8.62
692.548	-3.62
692.578	6.38
692.607	-3.62
692.636	-13.62
692.665	1.38
692.694	-2.62
692.724	-18.62
692.753	-2.62
692.782	15.38
692.811	-0.62
692.84	-1.62
692.87	-0.62
692.899	-3.62
692.928	-11.62
692.957	12.38
692.986	-15.62
693.016	4.38
693.045	-5.62
693.074	-10.62
693.103	-3.62
693.132	-0.62
693.161	2.38
693.191	5.38
693.22	-11.62
693.249	-4.62
693.278	-22.62
693.307	-8.62
693.336	-6.62
693.365	-9.62
693.395	-16.62
693.424	-2.62
693.453	12.38
693.482	8.38
693.511	6.38
693.54	0.38
693.569	4.38
693.598	8.38
693.628	3.38
693.657	23.38
693.686	11.38
693.715	8.38
693.744	3.38
693.773	4.38
693.802	-13.62
693.831	6.38
693.86	8.38
693.889	1.38
693.919	-6.62
693.948	-0.62
693.977	-8.62
694.006	-1.62
694.035	-6.62
694.064	-1.62
694.093	2.38
694.122	7.38
694.151	-13.62
694.18	4.38
694.209	21.38
694.238	18.38
694.267	13.38
694.296	16.38
694.325	3.38
694.354	11.38
694.383	-11.62
694.412	-6.62
694.441	-0.62
694.471	-4.62
694.5	-34.62
694.529	-6.62
694.558	24.38
694.587	2.38
694.616	11.38
694.645	1.38
694.674	4.38
694.703	-1.62
694.732	-13.62
694.761	-1.62
694.79	-5.62
694.819	-24.62
694.848	-0.62
694.877	13.38
694.906	25.38
694.935	-2.62
694.963	-4.62
694.992	-2.62
695.021	3.38
695.05	14.38
695.079	-0.62
695.108	13.38
695.137	13.38
695.166	-1.62
695.195	-10.62
695.224	0.38
695.253	-0.62
695.282	19.38
695.311	7.38
695.34	-8.62
695.369	22.38
695.398	8.38
695.427	8.38
695.456	11.38
695.485	-15.62
695.513	-1.62
695.542	-8.62
695.571	-14.62
695.6	19.38
695.629	-0.62
695.658	6.38
695.687	2.38
695.716	-2.62
695.745	18.38
695.774	-7.62
695.802	8.38
695.831	10.38
695.86	-0.62
695.889	4.38
695.918	-0.62
695.947	-18.62
695.976	0.38
696.005	-2.62
696.033	-3.62
696.062	3.38
696.091	-4.62
696.12	-7.62
696.149	7.38
696.178	-11.62
696.207	-3.62
696.235	-20.62
696.264	-0.62
696.293	2.38
696.322	-6.62
696.351	11.38
696.38	-5.62
696.408	8.38
696.437	-8.62
696.466	1.38
696.495	18.38
696.524	-2.62
696.553	6.38
696.581	8.38
696.61	6.38
696.639	-3.62
696.668	-3.62
696.697	-6.62
696.725	4.38
696.754	-11.62
696.783	-9.62
696.812	-8.62
696.84	-1.62
696.869	-2.62
696.898	-2.62
696.927	-7.62
696.956	9.38
696.984	-10.62
697.013	-4.62
697.042	-6.62
697.071	0.38
697.099	26.38
697.128	11.38
697.157	0.38
697.186	0.38
697.214	-3.62
697.243	-9.62
697.272	6.38
697.301	11.38
697.329	13.38
697.358	-3.62
697.387	17.38
697.415	-2.62
697.444	-3.62
697.473	-5.62
697.502	-19.62
697.53	7.38
697.559	-16.62
697.588	2.38
697.616	-8.62
697.645	-7.62
697.674	10.38
697.703	5.38
697.731	5.38
697.76	-17.62
697.789	-3.62
697.817	5.38
697.846	19.38
697.875	0.38
697.903	21.38
697.932	3.38
697.961	-7.62
697.989	-0.62
698.018	3.38
698.047	17.38
698.075	18.38
698.104	11.38
698.133	5.38
698.161	-3.62
698.19	-8.62
698.218	-5.62
698.247	-1.62
698.276	-1.62
698.304	-2.62
698.333	-7.62
698.362	11.38
698.39	9.38
698.419	9.38
698.447	4.38
698.476	-3.62
698.505	1.38
698.533	14.38
698.562	0.38
698.591	2.38
698.619	-18.62
698.648	-2.62
698.676	3.38
698.705	-16.62
698.733	-16.62
698.762	2.38
698.791	11.38
698.819	1.38
698.848	-2.62
698.876	2.38
698.905	9.38
698.933	3.38
698.962	9.38
698.991	-0.62
699.019	20.38
699.048	-4.62
699.076	-3.62
699.105	-15.62
699.133	-1.62
699.162	-2.62
699.19	2.38
699.219	8.38
699.248	1.38
699.276	5.38
699.305	-3.62
699.333	0.38
699.362	-8.62
699.39	3.38
699.419	1.38
699.447	2.38
699.476	-4.62
699.504	0.38
699.533	-8.62
699.561	-11.62
699.59	-0.62
699.618	2.38
699.647	4.38
699.675	-2.62
699.704	1.38
699.732	-14.62
699.761	18.38
699.789	-14.62
699.818	-5.62
699.846	-4.62
699.874	-2.62
699.903	-9.62
699.931	11.38
699.96	3.38
699.988	4.38
700.017	-6.62
700.045	1.38
700.074	-0.62
700.102	-3.62
700.13	-7.62
700.159	21.38
700.187	3.38
700.216	0.38
700.244	-12.62
700.273	-14.62
700.301	3.38
700.329	8.38
700.358	5.38
700.386	-2.62
700.415	0.38
700.443	-1.62
700.472	13.38
700.5	10.38
700.528	7.38
700.557	-1.62
700.585	-7.62
700.614	-11.62
700.642	-5.62
700.67	7.38
700.699	-3.62
700.727	0.38
700.755	5.38
700.784	-8.62
700.812	-16.62
700.841	0.38
700.869	-5.62
700.897	-12.62
700.926	1.38
700.954	-0.62
700.982	4.38
701.011	-11.62
701.039	-2.62
701.067	-6.62
701.096	-0.62
701.124	-9.62
701.152	-11.62
701.181	-10.62
701.209	-12.62
701.237	-7.62
701.266	-16.62
701.294	-22.62
701.322	-0.62
701.351	10.38
701.379	-8.62
701.407	-16.62
701.435	-6.62
701.464	-0.62
701.492	16.38
701.52	-20.62
701.549	-8.62
701.577	-3.62
701.605	-12.62
701.634	0.38
701.662	10.38
701.69	-9.62
701.718	-20.62
701.747	15.38
701.775	-8.62
701.803	4.38
701.831	15.38
701.86	5.38
701.888	2.38
701.916	-17.62
701.944	-11.62
701.973	-12.62
702.001	-7.62
702.029	2.38
702.057	-16.62
702.086	-20.62
702.114	-26.62
702.142	7.38
702.17	-11.62
702.199	-0.62
702.227	-7.62
702.255	-4.62
702.283	-2.62
702.311	2.38
702.34	-12.62
702.368	-28.62
702.396	8.38
702.424	3.38
702.452	-7.62
702.481	0.38
702.509	-11.62
702.537	9.38
702.565	6.38
702.593	-22.62
702.621	-6.62
702.65	10.38
702.678	12.38
702.706	12.38
702.734	-18.62
702.762	1.38
702.79	1.38
702.819	-5.62
702.847	-0.62
702.875	11.38
702.903	3.38
702.931	-11.62
702.959	-9.62
702.988	-10.62
703.016	-19.62
703.044	-4.62
703.072	-18.62
703.1	5.38
703.128	-2.62
703.156	-4.62
703.184	-13.62
703.212	-7.62
703.241	-4.62
703.269	-4.62
703.297	6.38
703.325	-14.62
703.353	-17.62
703.381	-23.62
703.409	0.38
703.437	3.38
703.465	-2.62
703.493	-13.62
703.522	-6.62
703.55	2.38
703.578	-5.62
703.606	-7.62
703.634	-6.62
703.662	-11.62
703.69	-12.62
703.718	-12.62
703.746	5.38
703.774	-5.62
703.802	9.38
703.83	2.38
703.858	-0.62
703.886	-2.62
703.914	-3.62
703.942	10.38
703.97	-12.62
703.998	-6.62
704.027	18.38
704.055	8.38
704.083	-2.62
704.111	-22.62
704.139	-18.62
704.167	-15.62
704.195	-15.62
704.223	-21.62
704.251	-14.62
704.279	2.38
704.307	6.38
704.335	-13.62
704.363	-4.62
704.391	-9.62
704.419	-1.62
704.447	-16.62
704.475	5.38
704.503	-11.62
704.531	2.38
704.558	-2.62
704.586	-0.62
704.614	-4.62
704.642	-9.62
704.67	-12.62
704.698	3.38
704.726	-7.62
704.754	2.38
704.782	-1.62
704.81	-13.62
704.838	19.38
704.866	-0.62
704.894	-18.62
704.922	-11.62
704.95	7.38
704.978	9.38
705.006	5.38
705.034	11.38
705.061	-0.62
705.089	-6.62
705.117	-14.62
705.145	-1.62
705.173	-4.62
705.201	1.38
705.229	-5.62
705.257	-9.62
705.285	-0.62
705.313	2.38
705.34	2.38
705.368	-15.62
705.396	3.38
705.424	0.38
705.452	-4.62
705.48	-5.62
705.508	-15.62
705.536	-7.62
705.563	-6.62
705.591	-1.62
705.619	-4.62
705.647	-5.62
705.675	8.38
705.703	-3.62
705.731	-10.62
705.758	0.38
705.786	13.38
705.814	35.38
705.842	-11.62
705.87	-1.62
705.898	12.38
705.925	-9.62
705.953	1.38
705.981	-11.62
706.009	1.38
706.037	0.38
706.065	4.38
706.092	-11.62
706.12	-11.62
706.148	-7.62
706.176	-5.62
706.204	-2.62
706.231	-10.62
706.259	-8.62
706.287	-13.62
706.315	2.38
706.342	-3.62
706.37	0.38
706.398	-4.62
706.426	-5.62
706.454	0.38
706.481	11.38
706.509	-1.62
706.537	-13.62
706.565	-23.62
706.592	-4.62
706.62	-2.62
706.648	-3.62
706.676	-8.62
706.703	0.38
706.731	-0.62
706.759	-8.62
706.787	5.38
706.814	21.38
706.842	-13.62
706.87	-8.62
706.897	-9.62
706.925	-6.62
706.953	-2.62
706.981	-6.62
707.008	-5.62
707.036	9.38
707.064	-13.62
707.091	-24.62
707.119	7.38
707.147	11.38
707.174	-14.62
707.202	-2.62
707.23	-7.62
707.258	5.38
707.285	-16.62
707.313	-4.62
707.341	-9.62
707.368	-3.62
707.396	4.38
707.424	12.38
707.451	-5.62
707.479	16.38
707.507	-12.62
707.534	-14.62
707.562	-10.62
707.59	-21.62
707.617	-10.62
707.645	5.38
707.672	-16.62
707.7	0.38
707.728	-10.62
707.755	0.38
707.783	-9.62
707.811	0.38
707.838	-7.62
707.866	-5.62
707.893	-10.62
707.921	-5.62
707.949	-2.62
707.976	1.38
708.004	-4.62
708.031	-8.62
708.059	-3.62
708.087	6.38
708.114	-20.62
708.142	-5.62
708.169	-12.62
708.197	-24.62
708.225	-15.62
708.252	6.38
708.28	30.38
708.307	9.38
708.335	3.38
708.362	2.38
708.39	-14.62
708.418	-13.62
708.445	-7.62
708.473	-9.62
708.5	-2.62
708.528	1.38
708.555	11.38
708.583	0.38
708.61	-9.62
708.638	-7.62
708.665	-10.62
708.693	-3.62
708.72	-7.62
708.748	-22.62
708.776	-7.62
708.803	5.38
708.831	12.38
708.858	5.38
708.886	-8.62
708.913	-6.62
708.941	3.38
708.968	12.38
708.996	2.38
709.023	32.38
709.051	-4.62
709.078	-19.62
709.105	-13.62
709.133	-0.62
709.16	1.38
709.188	10.38
709.215	-12.62
709.243	4.38
709.27	-9.62
709.298	-0.62
709.325	-16.62
709.353	-5.62
709.38	-0.62
709.408	9.38
709.435	1.38
709.462	6.38
709.49	0.38
709.517	-2.62
709.545	-13.62
709.572	-13.62
709.6	-0.62
709.627	6.38
709.655	-11.62
709.682	-2.62
709.709	-3.62
709.737	-8.62
709.764	-16.62
709.792	2.38
709.819	-14.62
709.846	-3.62
709.874	-2.62
709.901	0.38
709.929	16.38
709.956	1.38
709.983	-12.62
710.011	-2.62
710.038	0.38
710.066	-1.62
710.093	-0.62
710.12	-16.62
710.148	-8.62
710.175	-8.62
710.202	-10.62
710.23	4.38
710.257	-8.62
710.284	11.38
710.312	-6.62
710.339	-8.62
710.366	-5.62
710.394	-7.62
710.421	11.38
710.448	-8.62
710.476	-21.62
710.503	-5.62
710.53	4.38
710.558	2.38
710.585	9.38
710.612	-15.62
710.64	-0.62
710.667	0.38
710.694	-12.62
710.722	1.38
710.749	5.38
710.776	4.38
710.804	27.38
710.831	15.38
710.858	-7.62
710.885	-11.62
710.913	-11.62
710.94	5.38
710.967	-10.62
710.995	-4.62
711.022	-3.62
711.049	-0.62
711.076	-16.62
711.104	-11.62
711.131	-30.62
711.158	-5.62
711.185	0.38
711.213	-22.62
711.24	-15.62
711.267	-16.62
711.294	-2.62
711.322	17.38
711.349	0.38
711.376	0.38
711.403	-3.62
711.431	-3.62
711.458	-5.62
711.485	12.38
711.512	0.38
711.54	-17.62
711.567	-2.62
711.594	-16.62
711.621	-6.62
711.648	1.38
711.676	-5.62
711.703	-3.62
711.73	-30.62
711.757	-4.62
711.784	3.38
711.812	-5.62
711.839	-0.62
711.866	-10.62
711.893	-9.62
711.92	-2.62
711.947	-3.62
711.975	2.38
712.002	-6.62
712.029	4.38
712.056	8.38
712.083	2.38
712.11	-8.62
712.138	-14.62
712.165	-0.62
712.192	-13.62
712.219	-13.62
712.246	-14.62
712.273	-9.62
712.3	-3.62
712.328	-0.62
712.355	-8.62
712.382	-14.62
712.409	12.38
712.436	-8.62
712.463	18.38
712.49	16.38
712.517	-15.62
712.544	-23.62
712.572	-9.62
712.599	-12.62
712.626	7.38
712.653	-20.62
712.68	-26.62
712.707	13.38
712.734	-13.62
712.761	-13.62
712.788	-0.62
712.815	-2.62
712.842	21.38
712.87	-4.62
712.897	-20.62
712.924	-7.62
712.951	-1.62
712.978	10.38
713.005	3.38
713.032	18.38
713.059	-3.62
713.086	-9.62
713.113	-9.62
713.14	-19.62
713.167	3.38
713.194	15.38
713.221	-11.62
713.248	16.38
713.275	3.38
713.302	-12.62
713.329	1.38
713.356	10.38
713.383	7.38
713.41	6.38
713.437	-15.62
713.464	9.38
713.491	6.38
713.518	-7.62
713.545	-8.62
713.572	-4.62
713.599	31.38
713.626	8.38
713.653	-7.62
713.68	-17.62
713.707	-8.62
713.734	-1.62
713.761	-0.62
713.788	-2.62
713.815	21.38
713.842	-7.62
713.869	-5.62
713.896	4.38
713.923	-12.62
713.95	-7.62
713.977	-20.62
714.004	-6.62
714.031	-7.62
714.058	-12.62
714.085	-8.62
714.112	5.38
714.139	-5.62
714.165	1.38
714.192	-3.62
714.219	25.38
714.246	-0.62
714.273	-11.62
714.3	-12.62
714.327	-6.62
714.354	13.38
714.381	-9.62
714.408	-18.62
714.435	-12.62
714.461	-4.62
714.488	3.38
714.515	-20.62
714.542	-11.62
714.569	-19.62
714.596	-11.62
714.623	1.38
714.65	-15.62
714.677	-11.62
714.703	-3.62
714.73	-4.62
714.757	0.38
714.784	3.38
714.811	-24.62
714.838	9.38
714.865	-20.62
714.891	-7.62
714.918	-21.62
714.945	-11.62
714.972	-12.62
714.999	8.38
715.026	10.38
715.052	5.38
715.079	-4.62
715.106	12.38
715.133	-6.62
715.16	-23.62
715.187	-5.62
715.213	10.38
715.24	-18.62
715.267	-14.62
715.294	-7.62
715.321	-21.62
715.347	-11.62
715.374	-12.62
715.401	-2.62
715.428	-6.62
715.455	1.38
715.481	-13.62
715.508	18.38
715.535	-8.62
715.562	16.38
715.588	3.38
715.615	-18.62
715.642	-7.62
715.669	-7.62
715.695	5.38
715.722	-15.62
715.749	-6.62
715.776	-2.62
715.802	-0.62
715.829	-0.62
715.856	-20.62
715.883	6.38
715.909	-3.62
715.936	-3.62
715.963	-11.62
715.99	-25.62
716.016	-6.62
716.043	-8.62
716.07	-13.62
716.096	-8.62
716.123	5.38
716.15	7.38
716.177	-10.62
716.203	19.38
716.23	13.38
716.257	-6.62
716.283	14.38
716.31	-2.62
716.337	-10.62
716.363	2.38
716.39	-10.62
716.417	-0.62
716.443	-0.62
716.47	0.38
716.497	9.38
716.523	4.38
716.55	-2.62
716.577	2.38
716.603	-14.62
716.63	4.38
716.657	13.38
716.683	-10.62
716.71	-15.62
716.737	0.38
716.763	0.38
716.79	5.38
716.817	-2.62
716.843	-10.62
716.87	-12.62
716.897	3.38
716.923	-11.62
716.95	-23.62
716.976	-29.62
717.003	-11.62
717.03	-11.62
717.056	3.38
717.083	-13.62
717.109	4.38
717.136	-0.62
717.163	-7.62
717.189	-5.62
717.216	-3.62
717.242	0.38
717.269	6.38
717.296	0.38
717.322	-9.62
717.349	-8.62
717.375	-5.62
717.402	-12.62
717.428	-11.62
717.455	6.38
717.481	-15.62
717.508	10.38
717.535	6.38
717.561	-3.62
717.588	-7.62
717.614	-8.62
717.641	-4.62
717.667	-0.62
717.694	-6.62
717.72	-11.62
717.747	-8.62
717.773	-7.62
717.8	8.38
717.826	-9.62
717.853	-0.62
717.88	-7.62
717.906	-13.62
717.933	-11.62
717.959	0.38
717.986	12.38
718.012	-18.62
718.039	6.38
718.065	17.38
718.092	4.38
718.118	-22.62
718.144	-8.62
718.171	22.38
718.197	14.38
718.224	-3.62
718.25	-5.62
718.277	2.38
718.303	-3.62
718.33	-0.62
718.356	-13.62
718.383	-19.62
718.409	-14.62
718.436	-3.62
718.462	-8.62
718.489	-16.62
718.515	7.38
718.541	0.38
718.568	-7.62
718.594	18.38
718.621	-4.62
718.647	-14.62
718.674	1.38
718.7	-0.62
718.726	-19.62
718.753	5.38
718.779	5.38
718.806	-3.62
718.832	-14.62
718.858	1.38
718.885	-2.62
718.911	-11.62
718.938	-4.62
718.964	-3.62
718.99	12.38
719.017	-16.62
719.043	-7.62
719.07	-0.62
719.096	-13.62
719.122	2.38
719.149	-18.62
719.175	-11.62
719.201	3.38
719.228	-4.62
719.254	3.38
719.281	-2.62
719.307	-10.62
719.333	-1.62
719.36	0.38
719.386	13.38
719.412	0.38
719.439	-5.62
719.465	-12.62
719.491	-21.62
719.518	10.38
719.544	1.38
719.57	-7.62
719.597	-2.62
719.623	-22.62
719.649	2.38
719.675	-3.62
719.702	-12.62
719.728	5.38
719.754	-12.62
719.781	-5.62
719.807	-1.62
719.833	7.38
719.86	-14.62
719.886	7.38
719.912	1.38
719.938	3.38
719.965	4.38
719.991	-5.62
720.017	-4.62
720.044	3.38
720.07	3.38
720.096	-2.62
720.122	-3.62
720.149	1.38
720.175	18.38
720.201	-5.62
720.227	-12.62
720.254	-12.62
720.28	-8.62
720.306	-3.62
720.332	-12.62
720.359	-4.62
720.385	-1.62
720.411	0.38
720.437	9.38
720.463	1.38
720.49	14.38
720.516	-5.62
720.542	-4.62
720.568	-3.62
720.595	-6.62
720.621	-14.62
720.647	-0.62
720.673	11.38
720.699	-5.62
720.725	-6.62
720.752	5.38
720.778	-0.62
720.804	11.38
720.83	19.38
720.856	-6.62
720.883	-12.62
720.909	0.38
720.935	-12.62
720.961	12.38
720.987	-5.62
721.013	-0.62
721.04	-16.62
721.066	-9.62
721.092	-0.62
721.118	3.38
721.144	4.38
721.17	3.38
721.196	3.38
721.223	-13.62
721.249	-14.62
721.275	-3.62
721.301	0.38
721.327	7.38
721.353	17.38
721.379	6.38
721.405	-7.62
721.432	4.38
721.458	-12.62
721.484	0.38
721.51	-18.62
721.536	4.38
721.562	-3.62
721.588	1.38
721.614	-6.62
721.64	2.38
721.666	-14.62
721.693	-10.62
721.719	-8.62
721.745	-14.62
721.771	-8.62
721.797	11.38
721.823	-0.62
721.849	7.38
721.875	-1.62
721.901	-6.62
721.927	-11.62
721.953	-3.62
721.979	1.38
722.005	16.38
722.031	-7.62
722.057	3.38
722.083	-4.62
722.109	-4.62
722.135	-2.62
722.161	11.38
722.187	-5.62
722.214	1.38
722.24	-6.62
722.266	-11.62
722.292	4.38
722.318	-0.62
722.344	-0.62
722.37	-2.62
722.396	11.38
722.422	-10.62
722.448	-6.62
722.474	-8.62
722.5	18.38
722.526	3.38
722.552	0.38
722.578	-5.62
722.603	8.38
722.629	-24.62
722.655	-5.62
722.681	-6.62
722.707	-3.62
722.733	-6.62
722.759	-6.62
722.785	-7.62
722.811	-5.62
722.837	-11.62
722.863	0.38
722.889	15.38
722.915	-18.62
722.941	1.38
722.967	-4.62
722.993	-3.62
723.019	-8.62
723.045	-5.62
723.071	2.38
723.097	12.38
723.122	-6.62
723.148	-20.62
723.174	-7.62
723.2	-9.62
723.226	-16.62
723.252	-8.62
723.278	-16.62
723.304	-18.62
723.33	-9.62
723.356	-14.62
723.381	-4.62
723.407	-8.62
723.433	1.38
723.459	-13.62
723.485	3.38
723.511	4.38
723.537	-6.62
723.563	-6.62
723.588	-1.62
723.614	13.38
723.64	2.38
723.666	-7.62
723.692	-4.62
723.718	-2.62
723.744	-16.62
723.769	-12.62
723.795	-10.62
723.821	12.38
723.847	-7.62
723.873	0.38
723.899	-0.62
723.924	-19.62
723.95	-9.62
723.976	-17.62
724.002	-4.62
724.028	7.38
724.053	4.38
724.079	-9.62
724.105	12.38
724.131	-11.62
724.157	-6.62
724.182	5.38
724.208	-6.62
724.234	-0.62
724.26	-6.62
724.286	6.38
724.311	9.38
724.337	-0.62
724.363	-15.62
724.389	4.38
724.415	3.38
724.44	5.38
724.466	-2.62
724.492	-3.62
724.518	-3.62
724.543	9.38
724.569	2.38
724.595	1.38
724.621	-9.62
724.646	-0.62
724.672	-9.62
724.698	-10.62
724.723	-10.62
724.749	-7.62
724.775	12.38
724.801	6.38
724.826	-0.62
724.852	8.38
724.878	-2.62
724.904	-33.62
724.929	-16.62
724.955	-11.62
724.981	-1.62
725.006	-7.62
725.032	15.38
725.058	14.38
725.083	4.38
725.109	7.38
725.135	-17.62
725.161	-6.62
725.186	-7.62
725.212	-0.62
725.238	-4.62
725.263	-16.62
725.289	4.38
725.315	-8.62
725.34	-4.62
725.366	-4.62
725.392	-3.62
725.417	-16.62
725.443	0.38
725.468	-11.62
725.494	-5.62
725.52	2.38
725.545	-1.62
725.571	-19.62
725.597	-6.62
725.622	-4.62
725.648	-12.62
725.674	-1.62
725.699	14.38
725.725	8.38
725.75	27.38
725.776	-6.62
725.802	-5.62
725.827	4.38
725.853	-1.62
725.878	1.38
725.904	0.38
725.93	0.38
725.955	-14.62
725.981	-7.62
726.006	-11.62
726.032	2.38
726.057	-4.62
726.083	-0.62
726.109	-7.62
726.134	4.38
726.16	15.38
726.185	0.38
726.211	-22.62
726.236	9.38
726.262	0.38
726.288	3.38
726.313	1.38
726.339	-10.62
726.364	-4.62
726.39	2.38
726.415	8.38
726.441	-21.62
726.466	-18.62
726.492	0.38
726.517	7.38
726.543	-0.62
726.568	-11.62
726.594	-8.62
726.619	11.38
726.645	15.38
726.67	-4.62
726.696	-3.62
726.721	-6.62
726.747	-10.62
726.772	-2.62
726.798	-3.62
726.823	7.38
726.849	-21.62
726.874	-11.62
726.9	15.38
726.925	3.38
726.951	-11.62
726.976	7.38
727.002	-13.62
727.027	11.38
727.053	26.38
727.078	-11.62
727.104	-8.62
727.129	-30.62
727.155	-24.62
727.18	8.38
727.205	-2.62
727.231	-20.62
727.256	-13.62
727.282	-15.62
727.307	11.38
727.333	-2.62
727.358	-7.62
727.383	-12.62
727.409	2.38
727.434	8.38
727.46	-3.62
727.485	-15.62
727.511	3.38
727.536	-33.62
727.561	-9.62
727.587	-2.62
727.612	-15.62
727.637	-7.62
727.663	-3.62
727.688	10.38
727.714	-3.62
727.739	-5.62
727.764	-12.62
727.79	-0.62
727.815	-3.62
727.841	-6.62
727.866	6.38
727.891	-6.62
727.917	-6.62
727.942	-11.62
727.967	-7.62
727.993	-12.62
728.018	-11.62
728.043	-15.62
728.069	2.38
728.094	6.38
728.119	-7.62
728.145	12.38
728.17	-10.62
728.195	-7.62
728.221	-2.62
728.246	-3.62
728.271	-20.62
728.297	-7.62
728.322	11.38
728.347	-5.62
728.373	-5.62
728.398	1.38
728.423	-20.62
728.448	0.38
728.474	-3.62
728.499	13.38
728.524	-2.62
728.55	-11.62
728.575	-11.62
728.6	1.38
728.625	-11.62
728.651	-1.62
728.676	-5.62
728.701	-13.62
728.727	-6.62
728.752	-12.62
728.777	-7.62
728.802	-11.62
728.828	-9.62
728.853	-3.62
728.878	-8.62
728.903	-5.62
728.929	-8.62
728.954	-8.62
728.979	7.38
729.004	-14.62
729.03	-2.62
729.055	4.38
729.08	-8.62
729.105	-10.62
729.13	16.38
729.156	0.38
729.181	-8.62
729.206	-27.62
729.231	-20.62
729.256	11.38
729.282	6.38
729.307	-18.62
729.332	-12.62
729.357	-11.62
729.382	-14.62
729.408	-3.62
729.433	3.38
729.458	-0.62
729.483	9.38
729.508	9.38
729.533	4.38
729.559	6.38
729.584	-12.62
729.609	-6.62
729.634	16.38
729.659	-9.62
729.684	-5.62
729.71	4.38
729.735	-1.62
729.76	1.38
729.785	6.38
729.81	1.38
729.835	-6.62
729.86	-7.62
729.886	15.38
729.911	4.38
729.936	15.38
729.961	21.38
729.986	2.38
730.011	35.38
730.036	199.38
730.061	970.38
730.086	2582.38
730.112	3263.38
730.137	2730.38
730.162	2034.38
730.187	1559.38
730.212	1219.38
730.237	776.38
730.262	419.38
730.287	214.38
730.312	136.38
730.337	61.38
730.362	61.38
730.387	31.38
730.413	12.38
730.438	14.38
730.463	15.38
730.488	-2.62
730.513	-3.62
730.538	3.38
730.563	8.38
730.588	2.38
730.613	1.38
730.638	-5.62
730.663	0.38
730.688	20.38
730.713	12.38
730.738	5.38
730.763	-14.62
730.788	-24.62
730.813	10.38
730.838	4.38
730.863	7.38
730.888	-2.62
730.913	-16.62
730.938	-2.62
730.963	25.38
730.988	124.38
731.013	400.38
731.038	597.38
731.063	598.38
731.088	439.38
731.113	330.38
731.138	259.38
731.163	187.38
731.188	97.38
731.213	43.38
731.238	42.38
731.263	19.38
731.288	0.38
731.313	0.38
731.338	-8.62
731.363	-1.62
731.388	8.38
731.413	-12.62
731.438	10.38
731.463	-1.62
731.487	1.38
731.512	-7.62
731.537	-0.62
731.562	-10.62
731.587	8.38
731.612	-11.62
731.637	-1.62
731.662	-4.62
731.687	-10.62
731.712	-14.62
731.737	-1.62
731.762	3.38
731.786	3.38
731.811	1.38
731.836	-2.62
731.861	3.38
731.886	-1.62
731.911	11.38
731.936	9.38
731.961	0.38
731.986	-14.62
732.01	8.38
732.035	4.38
732.06	4.38
732.085	4.38
732.11	15.38
732.135	-13.62
732.16	-12.62
732.184	1.38
732.209	0.38
732.234	-0.62
732.259	0.38
732.284	9.38
732.309	-19.62
732.334	-4.62
732.358	-22.62
732.383	-7.62
732.408	-21.62
732.433	7.38
732.458	-9.62
732.482	-14.62
732.507	-14.62
732.532	1.38
732.557	3.38
732.582	8.38
732.607	18.38
732.631	37.38
732.656	84.38
732.681	152.38
732.706	320.38
732.73	431.38
732.755	355.38
732.78	293.38
732.805	216.38
732.83	170.38
732.854	130.38
732.879	80.38
732.904	39.38
732.929	8.38
732.953	3.38
732.978	-0.62
733.003	-2.62
733.028	-7.62
733.052	0.38
733.077	-5.62
733.102	10.38
733.127	-15.62
733.151	-15.62
733.176	1.38
733.201	-4.62
733.226	-21.62
733.25	-6.62
733.275	-11.62
733.3	0.38
733.324	6.38
733.349	-8.62
733.374	16.38
733.399	-2.62
733.423	-11.62
733.448	-12.62
733.473	-17.62
733.497	-2.62
733.522	-8.62
733.547	1.38
733.571	6.38
733.596	4.38
733.621	10.38
733.646	-8.62
733.67	-6.62
733.695	-7.62
733.72	-4.62
733.744	3.38
733.769	8.38
733.794	9.38
733.818	0.38
733.843	7.38
733.867	-14.62
733.892	-11.62
733.917	-8.62
733.941	-3.62
733.966	-7.62
733.991	-1.62
734.015	5.38
734.04	-4.62
734.065	1.38
734.089	8.38
734.114	-3.62
734.138	-8.62
734.163	-16.62
734.188	-7.62
734.212	3.38
734.237	5.38
734.261	2.38
734.286	0.38
734.311	-10.62
734.335	-10.62
734.36	-21.62
734.384	1.38
734.409	-7.62
734.434	-8.62
734.458	8.38
734.483	3.38
734.507	-18.62
734.532	-2.62
734.556	6.38
734.581	-3.62
734.606	-8.62
734.63	-1.62
734.655	-7.62
734.679	0.38
734.704	2.38
734.728	-8.62
734.753	-17.62
734.777	-1.62
734.802	-10.62
734.826	5.38
734.851	-6.62
734.876	5.38
734.9	-4.62
734.925	0.38
734.949	16.38
734.974	-0.62
734.998	5.38
735.023	-6.62
735.047	-20.62
735.072	4.38
735.096	-3.62
735.121	-4.62
735.145	-3.62
735.17	7.38
735.194	1.38
735.219	-5.62
735.243	-4.62
735.268	1.38
735.292	2.38
735.317	-4.62
735.341	1.38
735.365	-24.62
735.39	-12.62
735.414	4.38
735.439	4.38
735.463	-2.62
735.488	4.38
735.512	-12.62
735.537	-8.62
735.561	-16.62
735.586	-0.62
735.61	-12.62
735.634	-12.62
735.659	8.38
735.683	10.38
735.708	-12.62
735.732	-4.62
735.757	4.38
735.781	-13.62
735.805	-6.62
735.83	-16.62
735.854	-0.62
735.879	-10.62
735.903	5.38
735.927	11.38
735.952	8.38
735.976	4.38
736.001	1.38
736.025	-1.62
736.049	-1.62
736.074	-17.62
736.098	-6.62
736.123	-4.62
736.147	-13.62
736.171	-3.62
736.196	-3.62
736.22	-16.62
736.244	-2.62
736.269	-17.62
736.293	-13.62
736.317	-3.62
736.342	-0.62
736.366	3.38
736.39	15.38
736.415	-14.62
736.439	-4.62
736.463	-1.62
736.488	10.38
736.512	-14.62
736.536	-4.62
736.561	21.38
736.585	6.38
736.609	3.38
736.634	-17.62
736.658	-14.62
736.682	-6.62
736.707	-6.62
736.731	3.38
736.755	-11.62
736.78	13.38
736.804	20.38
736.828	-0.62
736.852	-7.62
736.877	4.38
736.901	1.38
736.925	-8.62
736.949	-10.62
736.974	-15.62
736.998	-13.62
737.022	-2.62
737.047	-10.62
737.071	-10.62
737.095	10.38
737.119	11.38
737.144	-6.62
737.168	-19.62
737.192	-11.62
737.216	10.38
737.241	0.38
737.265	-6.62
737.289	7.38
737.313	4.38
737.337	4.38
737.362	2.38
737.386	0.38
737.41	-3.62
737.434	6.38
737.459	-13.62
737.483	-2.62
737.507	8.38
737.531	19.38
737.555	5.38
737.58	5.38
737.604	-4.62
737.628	-19.62
737.652	-0.62
737.676	-7.62
737.701	3.38
737.725	-1.62
737.749	-4.62
737.773	-3.62
737.797	-7.62
737.821	-1.62
737.846	-10.62
737.87	24.38
737.894	-13.62
737.918	-17.62
737.942	-15.62
737.966	13.38
737.99	-1.62
738.015	8.38
738.039	6.38
738.063	-10.62
738.087	-9.62
738.111	-12.62
738.135	15.38
738.159	-5.62
738.184	-6.62
738.208	1.38
738.232	-7.62
738.256	4.38
738.28	-7.62
738.304	8.38
738.328	-19.62
738.352	-5.62
738.376	1.38
738.4	3.38
738.425	4.38
738.449	-8.62
738.473	2.38
738.497	-13.62
738.521	-4.62
738.545	17.38
738.569	6.38
738.593	11.38
738.617	-0.62
738.641	0.38
738.665	-0.62
738.689	14.38
738.713	0.38
738.737	-13.62
738.762	13.38
738.786	-8.62
738.81	-9.62
738.834	4.38
738.858	-18.62
738.882	-12.62
738.906	-7.62
738.93	3.38
738.954	-0.62
738.978	7.38
739.002	0.38
739.026	2.38
739.05	7.38
739.074	-3.62
739.098	16.38
739.122	16.38
739.146	8.38
739.17	14.38
739.194	13.38
739.218	12.38
739.242	0.38
739.266	-0.62
739.29	11.38
739.314	1.38
739.338	-7.62
739.362	-8.62
739.386	-0.62
739.41	-23.62
739.434	-7.62
739.458	13.38
739.482	5.38
739.506	-1.62
739.53	-16.62
739.554	13.38
739.577	-11.62
739.601	-8.62
739.625	-19.62
739.649	-5.62
739.673	-15.62
739.697	4.38
739.721	0.38
739.745	6.38
739.769	21.38
739.793	5.38
739.817	8.38
739.841	-23.62
739.865	-2.62
739.889	-18.62
739.912	-5.62
739.936	-14.62
739.96	-7.62
739.984	-2.62
740.008	6.38
740.032	-4.62
740.056	10.38
740.08	10.38
740.104	-12.62
740.127	3.38
740.151	6.38
740.175	4.38
740.199	4.38
740.223	45.38
740.247	4.38
740.271	13.38
740.295	-15.62
740.318	-17.62
740.342	-13.62
740.366	-5.62
740.39	4.38
740.414	-9.62
740.438	-19.62
740.461	0.38
740.485	3.38
740.509	6.38
740.533	3.38
740.557	0.38
740.581	-3.62
740.604	-5.62
740.628	-6.62
740.652	1.38
740.676	-4.62
740.7	1.38
740.723	-15.62
740.747	-12.62
740.771	-3.62
740.795	-7.62
740.819	6.38
740.842	-11.62
740.866	0.38
740.89	-13.62
740.914	-6.62
740.938	-0.62
740.961	-3.62
740.985	-7.62
741.009	-11.62
741.033	10.38
741.056	8.38
741.08	-7.62
741.104	4.38
741.128	-5.62
741.151	12.38
741.175	7.38
741.199	19.38
741.223	-1.62
741.246	-10.62
741.27	-3.62
741.294	-6.62
741.318	-5.62
741.341	-6.62
741.365	-2.62
741.389	4.38
741.413	16.38
741.436	14.38
741.46	-1.62
741.484	11.38
741.507	2.38
741.531	18.38
741.555	3.38
741.579	12.38
741.602	5.38
741.626	8.38
741.65	-14.62
741.673	4.38
741.697	16.38
741.721	-6.62
741.744	-15.62
741.768	-7.62
741.792	3.38
741.815	11.38
741.839	7.38
741.863	2.38
741.886	6.38
741.91	-8.62
741.934	-4.62
741.957	-12.62
741.981	6.38
742.005	4.38
742.028	-4.62
742.052	-6.62
742.075	10.38
742.099	13.38
742.123	-15.62
742.146	-5.62
742.17	6.38
742.194	-0.62
742.217	-21.62
742.241	-20.62
742.264	-1.62
742.288	15.38
742.312	11.38
742.335	-4.62
742.359	-1.62
742.382	7.38
742.406	19.38
742.43	-4.62
742.453	-4.62
742.477	-24.62
742.5	-3.62
742.524	-1.62
742.548	-18.62
742.571	3.38
742.595	-16.62
742.618	-8.62
742.642	1.38
742.665	4.38
742.689	-15.62
742.712	-3.62
742.736	-6.62
742.76	-7.62
742.783	-13.62
742.807	10.38
742.83	11.38
742.854	-15.62
742.877	-4.62
742.901	-5.62
742.924	-10.62
742.948	-3.62
742.971	0.38
742.995	3.38
743.018	-21.62
743.042	-13.62
743.065	-4.62
743.089	-2.62
743.112	5.38
743.136	-10.62
743.159	-14.62
743.183	-11.62
743.206	15.38
743.23	-13.62
743.253	10.38
743.277	-2.62
743.3	-3.62
743.324	-8.62
743.347	-16.62
743.371	1.38
743.394	-3.62
743.418	4.38
743.441	-9.62
743.465	9.38
743.488	3.38
743.512	-0.62
743.535	-7.62
743.558	-4.62
743.582	-1.62
743.605	-6.62
743.629	6.38
743.652	5.38
743.676	9.38
743.699	7.38
743.723	9.38
743.746	5.38
743.769	-5.62
743.793	-9.62
743.816	-17.62
743.84	5.38
743.863	-4.62
743.886	0.38
743.91	20.38
743.933	18.38
743.957	10.38
743.98	-6.62
744.003	-2.62
744.027	-17.62
744.05	-21.62
744.074	-16.62
744.097	-25.62
744.12	-0.62
744.144	-19.62
744.167	0.38
744.19	-16.62
744.214	3.38
744.237	1.38
744.26	19.38
744.284	-7.62
744.307	-7.62
744.331	0.38
744.354	-4.62
744.377	-10.62
744.401	-1.62
744.424	-21.62
744.447	-8.62
744.471	-14.62
