Data from HighRes_mercury_15_13_11_07_2024_HR4C61891__89__15-14-32-085.txt Node

Date: Thu Nov 07 15:14:32 EST 2024
User: crc00042
Spectrometer: HR4C6189
Trigger mode: 4
Integration Time (sec): 1.000000E-1
Scans to average: 1
Electric dark correction enabled: true
Nonlinearity correction enabled: false
Boxcar width: 0
XAxis mode: Wavelengths
Number of Pixels in Spectrum: 3648
>>>>>Begin Spectral Data<<<<<
639.567	-44.85
639.602	-44.85
639.636	-44.85
639.67	-30.85
639.704	-17.85
639.738	-1.85
639.773	-2.85
639.807	-11.85
639.841	14.15
639.875	9.15
639.909	-2.85
639.943	-6.85
639.978	-9.85
640.012	4.15
640.046	25.15
640.08	1.15
640.114	-0.85
640.148	-16.85
640.182	-11.85
640.217	-0.85
640.251	28.15
640.285	15.15
640.319	-6.85
640.353	1.15
640.387	2.15
640.421	-6.85
640.455	-8.85
640.49	-8.85
640.524	3.15
640.558	7.15
640.592	-2.85
640.626	8.15
640.66	12.15
640.694	1.15
640.728	-2.85
640.762	18.15
640.796	21.15
640.83	10.15
640.865	-18.85
640.899	-5.85
640.933	10.15
640.967	-4.85
641.001	2.15
641.035	0.15
641.069	9.15
641.103	0.15
641.137	-4.85
641.171	-1.85
641.205	0.15
641.239	-1.85
641.273	11.15
641.307	4.15
641.341	5.15
641.375	10.15
641.409	-0.85
641.443	-1.85
641.477	1.15
641.511	20.15
641.545	7.15
641.579	3.15
641.614	2.15
641.648	12.15
641.682	-5.85
641.716	16.15
641.75	14.15
641.784	2.15
641.818	-0.85
641.852	-4.85
641.886	-7.85
641.919	14.15
641.953	-1.85
641.987	-5.85
642.021	3.15
642.055	2.15
642.089	0.15
642.123	11.15
642.157	2.15
642.191	-4.85
642.225	11.15
642.259	-14.85
642.293	11.15
642.327	0.15
642.361	0.15
642.395	1.15
642.429	19.15
642.463	-0.85
642.497	14.15
642.531	7.15
642.565	-5.85
642.599	4.15
642.633	-12.85
642.666	24.15
642.7	13.15
642.734	11.15
642.768	-3.85
642.802	9.15
642.836	-3.85
642.87	-3.85
642.904	8.15
642.938	-0.85
642.972	10.15
643.005	0.15
643.039	10.15
643.073	-5.85
643.107	3.15
643.141	7.15
643.175	-3.85
643.209	-0.85
643.243	-2.85
643.276	-5.85
643.31	-2.85
643.344	-7.85
643.378	-1.85
643.412	-1.85
643.446	8.15
643.48	-3.85
643.513	13.15
643.547	-3.85
643.581	-13.85
643.615	18.15
643.649	-7.85
643.683	-0.85
643.716	11.15
643.75	-3.85
643.784	-10.85
643.818	1.15
643.852	-14.85
643.886	0.15
643.919	1.15
643.953	-15.85
643.987	-5.85
644.021	22.15
644.055	1.15
644.088	-10.85
644.122	-12.85
644.156	-5.85
644.19	6.15
644.224	-14.85
644.257	14.15
644.291	21.15
644.325	-2.85
644.359	-10.85
644.392	6.15
644.426	-0.85
644.46	3.15
644.494	4.15
644.527	-20.85
644.561	-0.85
644.595	-12.85
644.629	-14.85
644.662	-13.85
644.696	9.15
644.73	-10.85
644.764	4.15
644.797	-1.85
644.831	-0.85
644.865	22.15
644.899	4.15
644.932	16.15
644.966	-6.85
645	16.15
645.033	3.15
645.067	-2.85
645.101	3.15
645.135	18.15
645.168	10.15
645.202	1.15
645.236	-16.85
645.269	-1.85
645.303	-0.85
645.337	-16.85
645.37	-11.85
645.404	0.15
645.438	-11.85
645.471	-14.85
645.505	-8.85
645.539	1.15
645.572	-13.85
645.606	-6.85
645.64	-0.85
645.673	7.15
645.707	30.15
645.741	-2.85
645.774	-0.85
645.808	16.15
645.842	-8.85
645.875	11.15
645.909	-10.85
645.943	-20.85
645.976	-9.85
646.01	8.15
646.043	4.15
646.077	-11.85
646.111	3.15
646.144	8.15
646.178	13.15
646.212	4.15
646.245	-5.85
646.279	3.15
646.312	10.15
646.346	6.15
646.38	7.15
646.413	-16.85
646.447	2.15
646.48	-0.85
646.514	13.15
646.547	-4.85
646.581	-13.85
646.615	1.15
646.648	-4.85
646.682	-4.85
646.715	-9.85
646.749	7.15
646.782	-3.85
646.816	-6.85
646.85	-7.85
646.883	-19.85
646.917	8.15
646.95	-7.85
646.984	-0.85
647.017	-0.85
647.051	3.15
647.084	-5.85
647.118	1.15
647.151	1.15
647.185	7.15
647.218	-9.85
647.252	0.15
647.285	-15.85
647.319	3.15
647.353	-5.85
647.386	27.15
647.42	-4.85
647.453	3.15
647.487	-1.85
647.52	2.15
647.553	2.15
647.587	-6.85
647.62	-5.85
647.654	-0.85
647.687	-6.85
647.721	3.15
647.754	-0.85
647.788	6.15
647.821	0.15
647.855	6.15
647.888	20.15
647.922	6.15
647.955	10.15
647.989	-1.85
648.022	-3.85
648.055	2.15
648.089	-8.85
648.122	19.15
648.156	-8.85
648.189	-8.85
648.223	-3.85
648.256	15.15
648.29	6.15
648.323	0.15
648.356	5.15
648.39	-3.85
648.423	23.15
648.457	7.15
648.49	18.15
648.523	-1.85
648.557	-0.85
648.59	-3.85
648.624	4.15
648.657	-9.85
648.69	20.15
648.724	8.15
648.757	24.15
648.791	0.15
648.824	1.15
648.857	15.15
648.891	18.15
648.924	0.15
648.957	17.15
648.991	-9.85
649.024	3.15
649.057	-15.85
649.091	-2.85
649.124	-1.85
649.158	6.15
649.191	29.15
649.224	15.15
649.258	16.15
649.291	18.15
649.324	2.15
649.358	-2.85
649.391	-5.85
649.424	0.15
649.458	-2.85
649.491	11.15
649.524	-8.85
649.557	-13.85
649.591	-23.85
649.624	6.15
649.657	-12.85
649.691	-3.85
649.724	7.15
649.757	5.15
649.791	8.15
649.824	9.15
649.857	6.15
649.89	-10.85
649.924	-24.85
649.957	-0.85
649.99	-2.85
650.023	-0.85
650.057	-8.85
650.09	-6.85
650.123	-4.85
650.157	2.15
650.19	22.15
650.223	-0.85
650.256	-10.85
650.29	-6.85
650.323	0.15
650.356	9.15
650.389	-10.85
650.423	-8.85
650.456	-14.85
650.489	-10.85
650.522	10.15
650.555	16.15
650.589	3.15
650.622	-3.85
650.655	14.15
650.688	12.15
650.721	-13.85
650.755	3.15
650.788	0.15
650.821	-7.85
650.854	-4.85
650.887	1.15
650.921	6.15
650.954	-8.85
650.987	-2.85
651.02	-11.85
651.053	-5.85
651.087	-5.85
651.12	24.15
651.153	10.15
651.186	0.15
651.219	-2.85
651.252	-0.85
651.286	7.15
651.319	-0.85
651.352	0.15
651.385	11.15
651.418	8.15
651.451	6.15
651.484	5.15
651.518	-18.85
651.551	15.15
651.584	-6.85
651.617	15.15
651.65	0.15
651.683	12.15
651.716	-14.85
651.749	-28.85
651.783	-7.85
651.816	-5.85
651.849	1.15
651.882	5.15
651.915	-6.85
651.948	-1.85
651.981	-7.85
652.014	-37.85
652.047	-14.85
652.08	-8.85
652.114	4.15
652.147	1.15
652.18	11.15
652.213	32.15
652.246	10.15
652.279	-11.85
652.312	2.15
652.345	-10.85
652.378	4.15
652.411	24.15
652.444	-1.85
652.477	-5.85
652.51	-6.85
652.543	-11.85
652.576	-8.85
652.609	-16.85
652.642	-23.85
652.675	8.15
652.709	2.15
652.742	2.15
652.775	-6.85
652.808	10.15
652.841	4.15
652.874	-5.85
652.907	8.15
652.94	-4.85
652.973	-16.85
653.006	-5.85
653.039	-6.85
653.072	-3.85
653.105	2.15
653.138	-13.85
653.171	-2.85
653.204	2.15
653.237	-1.85
653.27	-9.85
653.303	7.15
653.336	4.15
653.368	-22.85
653.401	3.15
653.434	-1.85
653.467	-9.85
653.5	0.15
653.533	-11.85
653.566	-4.85
653.599	-2.85
653.632	11.15
653.665	2.15
653.698	-9.85
653.731	-17.85
653.764	-3.85
653.797	-7.85
653.83	-9.85
653.863	0.15
653.896	-10.85
653.929	0.15
653.961	-2.85
653.994	2.15
654.027	-14.85
654.06	-6.85
654.093	0.15
654.126	3.15
654.159	-18.85
654.192	-1.85
654.225	-3.85
654.258	-0.85
654.29	-9.85
654.323	-14.85
654.356	0.15
654.389	-3.85
654.422	-6.85
654.455	-3.85
654.488	10.15
654.521	-5.85
654.553	2.15
654.586	0.15
654.619	-8.85
654.652	-21.85
654.685	-8.85
654.718	5.15
654.751	-0.85
654.783	2.15
654.816	2.15
654.849	-3.85
654.882	3.15
654.915	-18.85
654.948	-3.85
654.98	-13.85
655.013	-1.85
655.046	-13.85
655.079	-17.85
655.112	-8.85
655.144	-16.85
655.177	0.15
655.21	12.15
655.243	16.15
655.276	-5.85
655.308	-2.85
655.341	-26.85
655.374	-20.85
655.407	-11.85
655.44	-2.85
655.472	-0.85
655.505	-15.85
655.538	-3.85
655.571	-3.85
655.603	-0.85
655.636	-20.85
655.669	13.15
655.702	-7.85
655.734	-3.85
655.767	-23.85
655.8	9.15
655.833	2.15
655.865	10.15
655.898	-9.85
655.931	-9.85
655.964	-10.85
655.996	-11.85
656.029	19.15
656.062	-6.85
656.095	-4.85
656.127	-8.85
656.16	-0.85
656.193	-6.85
656.225	3.15
656.258	1.15
656.291	3.15
656.324	-2.85
656.356	9.15
656.389	4.15
656.422	3.15
656.454	-1.85
656.487	0.15
656.52	3.15
656.552	4.15
656.585	10.15
656.618	15.15
656.65	11.15
656.683	-9.85
656.716	-1.85
656.748	-3.85
656.781	-15.85
656.814	-13.85
656.846	19.15
656.879	-2.85
656.912	-2.85
656.944	-20.85
656.977	-12.85
657.01	-1.85
657.042	2.15
657.075	0.15
657.108	-9.85
657.14	6.15
657.173	28.15
657.205	31.15
657.238	6.15
657.271	9.15
657.303	-18.85
657.336	6.15
657.369	9.15
657.401	6.15
657.434	7.15
657.466	0.15
657.499	3.15
657.532	-4.85
657.564	-7.85
657.597	-11.85
657.629	2.15
657.662	-12.85
657.694	7.15
657.727	-18.85
657.76	8.15
657.792	-7.85
657.825	-13.85
657.857	-8.85
657.89	-12.85
657.922	-1.85
657.955	-13.85
657.987	-1.85
658.02	9.15
658.053	4.15
658.085	10.15
658.118	6.15
658.15	-0.85
658.183	19.15
658.215	-4.85
658.248	2.15
658.28	4.15
658.313	11.15
658.345	3.15
658.378	-9.85
658.41	-11.85
658.443	11.15
658.475	-1.85
658.508	-8.85
658.54	-11.85
658.573	-12.85
658.605	6.15
658.638	-12.85
658.67	3.15
658.703	-0.85
658.735	-12.85
658.768	12.15
658.8	-2.85
658.833	8.15
658.865	8.15
658.898	1.15
658.93	-13.85
658.963	-1.85
658.995	-33.85
659.028	6.15
659.06	-9.85
659.092	3.15
659.125	-9.85
659.157	0.15
659.19	-4.85
659.222	-10.85
659.255	4.15
659.287	-7.85
659.32	-11.85
659.352	-4.85
659.384	8.15
659.417	-9.85
659.449	4.15
659.482	-4.85
659.514	-13.85
659.546	-8.85
659.579	-15.85
659.611	-6.85
659.644	-10.85
659.676	-9.85
659.708	-9.85
659.741	-7.85
659.773	5.15
659.806	-0.85
659.838	-6.85
659.87	-0.85
659.903	-1.85
659.935	14.15
659.967	-0.85
660	-4.85
660.032	-13.85
660.065	8.15
660.097	10.15
660.129	-0.85
660.162	-19.85
660.194	18.15
660.226	-6.85
660.259	3.15
660.291	9.15
660.323	-0.85
660.356	-13.85
660.388	-3.85
660.42	-4.85
660.453	15.15
660.485	5.15
660.517	12.15
660.55	15.15
660.582	0.15
660.614	9.15
660.647	-3.85
660.679	-19.85
660.711	14.15
660.743	-6.85
660.776	-15.85
660.808	-8.85
660.84	-4.85
660.873	-0.85
660.905	-1.85
660.937	2.15
660.969	16.15
661.002	-7.85
661.034	5.15
661.066	4.15
661.099	-3.85
661.131	13.15
661.163	6.15
661.195	-8.85
661.228	-4.85
661.26	1.15
661.292	-12.85
661.324	11.15
661.357	-2.85
661.389	12.15
661.421	10.15
661.453	-4.85
661.485	0.15
661.518	4.15
661.55	-11.85
661.582	-4.85
661.614	-8.85
661.647	-0.85
661.679	6.15
661.711	9.15
661.743	-1.85
661.775	6.15
661.808	14.15
661.84	-9.85
661.872	-1.85
661.904	-1.85
661.936	1.15
661.969	-7.85
662.001	-1.85
662.033	-16.85
662.065	-1.85
662.097	-2.85
662.129	4.15
662.162	10.15
662.194	7.15
662.226	-7.85
662.258	2.15
662.29	-5.85
662.322	-18.85
662.355	-16.85
662.387	34.15
662.419	2.15
662.451	-1.85
662.483	-0.85
662.515	1.15
662.547	5.15
662.58	-17.85
662.612	-1.85
662.644	-10.85
662.676	-4.85
662.708	17.15
662.74	-7.85
662.772	9.15
662.804	6.15
662.836	17.15
662.869	9.15
662.901	13.15
662.933	-10.85
662.965	6.15
662.997	-6.85
663.029	-12.85
663.061	-14.85
663.093	-11.85
663.125	7.15
663.157	11.15
663.189	-10.85
663.221	5.15
663.254	3.15
663.286	2.15
663.318	7.15
663.35	2.15
663.382	-10.85
663.414	12.15
663.446	9.15
663.478	-10.85
663.51	14.15
663.542	-6.85
663.574	-15.85
663.606	-3.85
663.638	-22.85
663.67	-0.85
663.702	-33.85
663.734	6.15
663.766	15.15
663.798	-0.85
663.83	9.15
663.862	21.15
663.894	7.15
663.926	-6.85
663.958	6.15
663.99	-4.85
664.022	4.15
664.054	7.15
664.086	-7.85
664.118	-4.85
664.15	0.15
664.182	0.15
664.214	10.15
664.246	28.15
664.278	-24.85
664.31	15.15
664.342	-10.85
664.374	-16.85
664.406	-3.85
664.438	-10.85
664.47	14.15
664.502	3.15
664.534	4.15
664.566	-13.85
664.598	7.15
664.63	-5.85
664.662	15.15
664.693	-9.85
664.725	-8.85
664.757	-11.85
664.789	-5.85
664.821	18.15
664.853	15.15
664.885	4.15
664.917	-12.85
664.949	12.15
664.981	12.15
665.013	-13.85
665.045	-14.85
665.076	-10.85
665.108	-16.85
665.14	-3.85
665.172	2.15
665.204	-0.85
665.236	1.15
665.268	4.15
665.3	-10.85
665.331	-19.85
665.363	12.15
665.395	-9.85
665.427	3.15
665.459	-4.85
665.491	-4.85
665.523	-4.85
665.555	-17.85
665.586	11.15
665.618	4.15
665.65	-16.85
665.682	6.15
665.714	11.15
665.746	-10.85
665.777	-3.85
665.809	-11.85
665.841	-9.85
665.873	5.15
665.905	0.15
665.937	1.15
665.968	2.15
666	-5.85
666.032	14.15
666.064	-4.85
666.096	-5.85
666.127	-0.85
666.159	-1.85
666.191	0.15
666.223	-4.85
666.255	-2.85
666.286	6.15
666.318	0.15
666.35	-1.85
666.382	-0.85
666.413	-5.85
666.445	-18.85
666.477	-8.85
666.509	-21.85
666.54	4.15
666.572	-0.85
666.604	-10.85
666.636	-2.85
666.667	13.15
666.699	20.15
666.731	7.15
666.763	-3.85
666.794	-11.85
666.826	-0.85
666.858	-13.85
666.89	0.15
666.921	1.15
666.953	8.15
666.985	6.15
667.017	9.15
667.048	7.15
667.08	-8.85
667.112	-6.85
667.143	-13.85
667.175	-1.85
667.207	-2.85
667.238	3.15
667.27	12.15
667.302	-3.85
667.334	8.15
667.365	21.15
667.397	3.15
667.429	0.15
667.46	4.15
667.492	-0.85
667.524	-1.85
667.555	-3.85
667.587	2.15
667.619	-12.85
667.65	-16.85
667.682	5.15
667.714	-3.85
667.745	11.15
667.777	-2.85
667.808	8.15
667.84	15.15
667.872	9.15
667.903	26.15
667.935	6.15
667.967	-7.85
667.998	-2.85
668.03	-8.85
668.061	1.15
668.093	-8.85
668.125	2.15
668.156	1.15
668.188	-11.85
668.22	3.15
668.251	4.15
668.283	18.15
668.314	11.15
668.346	0.15
668.377	8.15
668.409	4.15
668.441	16.15
668.472	9.15
668.504	3.15
668.535	3.15
668.567	0.15
668.599	-4.85
668.63	-12.85
668.662	-2.85
668.693	11.15
668.725	4.15
668.756	1.15
668.788	1.15
668.819	2.15
668.851	-6.85
668.882	2.15
668.914	-0.85
668.946	10.15
668.977	0.15
669.009	3.15
669.04	-14.85
669.072	-1.85
669.103	-13.85
669.135	-24.85
669.166	-16.85
669.198	-3.85
669.229	5.15
669.261	1.15
669.292	-2.85
669.324	-0.85
669.355	2.15
669.387	-28.85
669.418	4.15
669.45	-18.85
669.481	4.15
669.513	-11.85
669.544	0.15
669.576	-9.85
669.607	6.15
669.639	4.15
669.67	-16.85
669.701	3.15
669.733	-8.85
669.764	-2.85
669.796	-24.85
669.827	-13.85
669.859	-4.85
669.89	2.15
669.922	11.15
669.953	-0.85
669.985	15.15
670.016	21.15
670.047	0.15
670.079	0.15
670.11	7.15
670.142	-16.85
670.173	3.15
670.204	-2.85
670.236	-5.85
670.267	-16.85
670.299	-13.85
670.33	-2.85
670.362	11.15
670.393	-7.85
670.424	-1.85
670.456	-15.85
670.487	-12.85
670.518	-0.85
670.55	-8.85
670.581	-1.85
670.613	-14.85
670.644	-6.85
670.675	-3.85
670.707	5.15
670.738	1.15
670.769	-4.85
670.801	-12.85
670.832	-5.85
670.864	2.15
670.895	-13.85
670.926	-6.85
670.958	4.15
670.989	-11.85
671.02	3.15
671.052	-5.85
671.083	-13.85
671.114	-10.85
671.146	1.15
671.177	4.15
671.208	-20.85
671.24	-6.85
671.271	-5.85
671.302	-7.85
671.333	-7.85
671.365	-12.85
671.396	-0.85
671.427	4.15
671.459	-10.85
671.49	8.15
671.521	11.15
671.553	6.15
671.584	22.15
671.615	-5.85
671.646	-2.85
671.678	3.15
671.709	-11.85
671.74	-17.85
671.771	1.15
671.803	-5.85
671.834	-4.85
671.865	-17.85
671.896	-2.85
671.928	-16.85
671.959	-14.85
671.99	-8.85
672.021	-8.85
672.053	-11.85
672.084	0.15
672.115	5.15
672.146	-1.85
672.178	-2.85
672.209	-4.85
672.24	12.15
672.271	16.15
672.303	1.15
672.334	-11.85
672.365	2.15
672.396	0.15
672.427	-6.85
672.459	3.15
672.49	15.15
672.521	-0.85
672.552	7.15
672.583	1.15
672.615	2.15
672.646	5.15
672.677	-7.85
672.708	-15.85
672.739	-3.85
672.77	12.15
672.802	7.15
672.833	3.15
672.864	-2.85
672.895	-1.85
672.926	-16.85
672.957	-23.85
672.989	2.15
673.02	17.15
673.051	10.15
673.082	6.15
673.113	-3.85
673.144	9.15
673.175	1.15
673.206	-6.85
673.238	-5.85
673.269	-2.85
673.3	0.15
673.331	10.15
673.362	7.15
673.393	9.15
673.424	-0.85
673.455	23.15
673.487	13.15
673.518	20.15
673.549	15.15
673.58	-9.85
673.611	-4.85
673.642	11.15
673.673	-9.85
673.704	5.15
673.735	23.15
673.766	-9.85
673.797	-16.85
673.828	-3.85
673.86	-13.85
673.891	-13.85
673.922	-0.85
673.953	6.15
673.984	14.15
674.015	-2.85
674.046	-3.85
674.077	5.15
674.108	-5.85
674.139	2.15
674.17	-0.85
674.201	-12.85
674.232	-4.85
674.263	-14.85
674.294	-9.85
674.325	-16.85
674.356	0.15
674.387	27.15
674.418	10.15
674.449	-0.85
674.48	-17.85
674.511	-7.85
674.542	13.15
674.573	-6.85
674.604	10.15
674.635	-6.85
674.666	2.15
674.697	-1.85
674.728	-5.85
674.759	-4.85
674.79	-5.85
674.821	-11.85
674.852	-12.85
674.883	-11.85
674.914	1.15
674.945	-3.85
674.976	5.15
675.007	-7.85
675.038	-2.85
675.069	-17.85
675.1	-5.85
675.131	3.15
675.162	-12.85
675.193	-12.85
675.224	1.15
675.254	1.15
675.285	-4.85
675.316	17.15
675.347	3.15
675.378	-8.85
675.409	-0.85
675.44	2.15
675.471	-3.85
675.502	2.15
675.533	-9.85
675.564	-3.85
675.595	-0.85
675.625	29.15
675.656	8.15
675.687	-5.85
675.718	-11.85
675.749	12.15
675.78	-7.85
675.811	-12.85
675.842	-0.85
675.873	-4.85
675.903	-19.85
675.934	-11.85
675.965	-11.85
675.996	-3.85
676.027	-19.85
676.058	0.15
676.089	-1.85
676.119	-1.85
676.15	-7.85
676.181	-4.85
676.212	-8.85
676.243	26.15
676.274	-10.85
676.304	15.15
676.335	-2.85
676.366	-13.85
676.397	-1.85
676.428	1.15
676.459	4.15
676.489	16.15
676.52	17.15
676.551	6.15
676.582	-4.85
676.613	3.15
676.643	-11.85
676.674	-0.85
676.705	-12.85
676.736	6.15
676.767	13.15
676.797	4.15
676.828	-2.85
676.859	-0.85
676.89	-2.85
676.92	-14.85
676.951	-3.85
676.982	0.15
677.013	2.15
677.044	3.15
677.074	10.15
677.105	-8.85
677.136	7.15
677.167	5.15
677.197	13.15
677.228	19.15
677.259	3.15
677.289	-7.85
677.32	-0.85
677.351	-1.85
677.382	-11.85
677.412	-1.85
677.443	30.15
677.474	6.15
677.505	-15.85
677.535	-5.85
677.566	-11.85
677.597	-0.85
677.627	-9.85
677.658	-5.85
677.689	-14.85
677.72	11.15
677.75	-4.85
677.781	5.15
677.812	-12.85
677.842	-2.85
677.873	-1.85
677.904	-4.85
677.934	13.15
677.965	-0.85
677.996	-11.85
678.026	-26.85
678.057	0.15
678.088	4.15
678.118	-6.85
678.149	-0.85
678.18	-5.85
678.21	14.15
678.241	2.15
678.272	12.15
678.302	3.15
678.333	12.15
678.363	7.15
678.394	-4.85
678.425	11.15
678.455	-1.85
678.486	2.15
678.517	7.15
678.547	-9.85
678.578	-0.85
678.608	-18.85
678.639	-3.85
678.67	-8.85
678.7	-9.85
678.731	-12.85
678.761	-5.85
678.792	7.15
678.823	17.15
678.853	-3.85
678.884	-23.85
678.914	-10.85
678.945	3.15
678.975	-6.85
679.006	12.15
679.037	-7.85
679.067	14.15
679.098	-12.85
679.128	-5.85
679.159	9.15
679.189	4.15
679.22	6.15
679.25	13.15
679.281	-13.85
679.312	-7.85
679.342	10.15
679.373	28.15
679.403	14.15
679.434	2.15
679.464	-12.85
679.495	-1.85
679.525	2.15
679.556	9.15
679.586	1.15
679.617	-1.85
679.647	4.15
679.678	-0.85
679.708	2.15
679.739	-8.85
679.769	-1.85
679.8	-13.85
679.83	-0.85
679.861	9.15
679.891	-0.85
679.922	-18.85
679.952	-9.85
679.983	16.15
680.013	-3.85
680.044	-2.85
680.074	0.15
680.105	8.15
680.135	5.15
680.165	11.15
680.196	-7.85
680.226	2.15
680.257	5.15
680.287	21.15
680.318	1.15
680.348	7.15
680.379	17.15
680.409	5.15
680.439	-14.85
680.47	-18.85
680.5	-7.85
680.531	-4.85
680.561	7.15
680.592	14.15
680.622	11.15
680.652	-7.85
680.683	-6.85
680.713	-7.85
680.744	-19.85
680.774	-0.85
680.804	11.15
680.835	-5.85
680.865	-14.85
680.896	8.15
680.926	11.15
680.956	-1.85
680.987	12.15
681.017	0.15
681.047	-5.85
681.078	-20.85
681.108	0.15
681.139	2.15
681.169	-1.85
681.199	0.15
681.23	1.15
681.26	-11.85
681.29	-18.85
681.321	-11.85
681.351	-6.85
681.381	-10.85
681.412	3.15
681.442	-8.85
681.472	6.15
681.503	0.15
681.533	8.15
681.563	-2.85
681.594	-10.85
681.624	3.15
681.654	-0.85
681.685	3.15
681.715	2.15
681.745	-0.85
681.775	-4.85
681.806	-2.85
681.836	7.15
681.866	-3.85
681.897	6.15
681.927	-2.85
681.957	-31.85
681.987	-9.85
682.018	-5.85
682.048	5.15
682.078	-5.85
682.109	8.15
682.139	0.15
682.169	-3.85
682.199	-7.85
682.23	-8.85
682.26	11.15
682.29	-4.85
682.32	-2.85
682.351	0.15
682.381	5.15
682.411	-2.85
682.441	0.15
682.472	-13.85
682.502	0.15
682.532	-8.85
682.562	3.15
682.592	6.15
682.623	-0.85
682.653	-1.85
682.683	-16.85
682.713	15.15
682.743	11.15
682.774	-3.85
682.804	-3.85
682.834	16.15
682.864	-13.85
682.894	-9.85
682.925	-6.85
682.955	-2.85
682.985	0.15
683.015	2.15
683.045	18.15
683.076	2.15
683.106	-9.85
683.136	-17.85
683.166	5.15
683.196	-4.85
683.226	-9.85
683.257	-2.85
683.287	-18.85
683.317	-17.85
683.347	-6.85
683.377	-4.85
683.407	10.15
683.437	11.15
683.468	0.15
683.498	-1.85
683.528	-3.85
683.558	10.15
683.588	3.15
683.618	-5.85
683.648	-8.85
683.678	3.15
683.708	-2.85
683.739	-12.85
683.769	-1.85
683.799	-4.85
683.829	-3.85
683.859	14.15
683.889	14.15
683.919	-13.85
683.949	-17.85
683.979	-4.85
684.009	-5.85
684.039	-1.85
684.07	-9.85
684.1	8.15
684.13	-0.85
684.16	-8.85
684.19	-8.85
684.22	-18.85
684.25	-1.85
684.28	8.15
684.31	9.15
684.34	-3.85
684.37	2.15
684.4	3.15
684.43	-4.85
684.46	-8.85
684.49	3.15
684.52	1.15
684.55	14.15
684.58	-2.85
684.61	-3.85
684.64	13.15
684.67	10.15
684.7	-0.85
684.73	7.15
684.76	2.15
684.79	9.15
684.82	2.15
684.85	-10.85
684.88	8.15
684.91	-5.85
684.94	-3.85
684.97	-9.85
685	-1.85
685.03	-2.85
685.06	-10.85
685.09	-4.85
685.12	21.15
685.15	4.15
685.18	15.15
685.21	12.15
685.24	-5.85
685.27	6.15
685.3	-13.85
685.33	15.15
685.36	-0.85
685.39	6.15
685.42	-7.85
685.45	1.15
685.48	-9.85
685.51	-6.85
685.54	-2.85
685.569	11.15
685.599	5.15
685.629	4.15
685.659	14.15
685.689	0.15
685.719	-4.85
685.749	-0.85
685.779	1.15
685.809	16.15
685.839	2.15
685.869	-1.85
685.898	24.15
685.928	18.15
685.958	2.15
685.988	19.15
686.018	-2.85
686.048	10.15
686.078	5.15
686.108	20.15
686.137	-1.85
686.167	6.15
686.197	-12.85
686.227	3.15
686.257	16.15
686.287	4.15
686.317	5.15
686.346	5.15
686.376	0.15
686.406	-9.85
686.436	3.15
686.466	0.15
686.496	-3.85
686.525	6.15
686.555	7.15
686.585	0.15
686.615	13.15
686.645	3.15
686.675	-2.85
686.704	1.15
686.734	4.15
686.764	-2.85
686.794	2.15
686.824	-9.85
686.853	1.15
686.883	2.15
686.913	8.15
686.943	1.15
686.973	-3.85
687.002	-4.85
687.032	-3.85
687.062	-0.85
687.092	13.15
687.121	-24.85
687.151	-8.85
687.181	-10.85
687.211	6.15
687.24	-7.85
687.27	4.15
687.3	-5.85
687.33	-1.85
687.359	-9.85
687.389	7.15
687.419	0.15
687.449	-3.85
687.478	14.15
687.508	1.15
687.538	9.15
687.568	4.15
687.597	-10.85
687.627	1.15
687.657	-0.85
687.686	0.15
687.716	4.15
687.746	-14.85
687.776	-19.85
687.805	-5.85
687.835	-2.85
687.865	9.15
687.894	15.15
687.924	-1.85
687.954	-5.85
687.983	12.15
688.013	2.15
688.043	14.15
688.072	-8.85
688.102	-4.85
688.132	-5.85
688.161	-11.85
688.191	-3.85
688.221	20.15
688.25	-6.85
688.28	-2.85
688.31	-0.85
688.339	-0.85
688.369	1.15
688.399	-11.85
688.428	-4.85
688.458	-3.85
688.488	-10.85
688.517	-4.85
688.547	0.15
688.576	14.15
688.606	10.15
688.636	-19.85
688.665	5.15
688.695	1.15
688.725	12.15
688.754	5.15
688.784	5.15
688.813	3.15
688.843	0.15
688.873	-10.85
688.902	-3.85
688.932	-4.85
688.961	-1.85
688.991	19.15
689.02	18.15
689.05	-0.85
689.08	-1.85
689.109	7.15
689.139	-9.85
689.168	-4.85
689.198	7.15
689.227	-4.85
689.257	-0.85
689.287	-0.85
689.316	-8.85
689.346	-2.85
689.375	-0.85
689.405	16.15
689.434	-4.85
689.464	-0.85
689.493	-14.85
689.523	-1.85
689.552	0.15
689.582	1.15
689.611	-19.85
689.641	6.15
689.67	-4.85
689.7	9.15
689.73	7.15
689.759	3.15
689.789	7.15
689.818	3.15
689.848	3.15
689.877	16.15
689.906	7.15
689.936	-11.85
689.965	2.15
689.995	7.15
690.024	0.15
690.054	5.15
690.083	5.15
690.113	-0.85
690.142	3.15
690.172	-1.85
690.201	-9.85
690.231	-1.85
690.26	-1.85
690.29	7.15
690.319	16.15
690.348	-16.85
690.378	-17.85
690.407	-2.85
690.437	-3.85
690.466	-2.85
690.496	-7.85
690.525	2.15
690.555	-9.85
690.584	-12.85
690.613	-4.85
690.643	6.15
690.672	6.15
690.702	3.15
690.731	-9.85
690.76	10.15
690.79	44.15
690.819	40.15
690.849	45.15
690.878	19.15
690.907	24.15
690.937	23.15
690.966	4.15
690.996	-0.85
691.025	0.15
691.054	5.15
691.084	15.15
691.113	4.15
691.142	5.15
691.172	0.15
691.201	2.15
691.23	-1.85
691.26	18.15
691.289	-2.85
691.319	6.15
691.348	11.15
691.377	18.15
691.407	12.15
691.436	8.15
691.465	11.15
691.495	2.15
691.524	-12.85
691.553	-5.85
691.583	0.15
691.612	20.15
691.641	8.15
691.67	10.15
691.7	-7.85
691.729	-11.85
691.758	-3.85
691.788	-4.85
691.817	2.15
691.846	2.15
691.876	-3.85
691.905	6.15
691.934	-18.85
691.963	15.15
691.993	25.15
692.022	-1.85
692.051	-9.85
692.081	3.15
692.11	17.15
692.139	0.15
692.168	14.15
692.198	5.15
692.227	8.15
692.256	4.15
692.285	-5.85
692.315	-3.85
692.344	0.15
692.373	-3.85
692.402	-16.85
692.432	-7.85
692.461	-20.85
692.49	-5.85
692.519	-1.85
692.548	4.15
692.578	17.15
692.607	-0.85
692.636	-8.85
692.665	5.15
692.694	-3.85
692.724	3.15
692.753	-7.85
692.782	11.15
692.811	-7.85
692.84	4.15
692.87	3.15
692.899	-2.85
692.928	5.15
692.957	16.15
692.986	14.15
693.016	15.15
693.045	9.15
693.074	0.15
693.103	-14.85
693.132	-0.85
693.161	2.15
693.191	-0.85
693.22	-4.85
693.249	-2.85
693.278	5.15
693.307	6.15
693.336	-16.85
693.365	-13.85
693.395	1.15
693.424	-15.85
693.453	30.15
693.482	-12.85
693.511	-1.85
693.54	11.15
693.569	11.15
693.598	-7.85
693.628	16.15
693.657	10.15
693.686	5.15
693.715	8.15
693.744	2.15
693.773	17.15
693.802	-20.85
693.831	-3.85
693.86	14.15
693.889	-13.85
693.919	-2.85
693.948	6.15
693.977	1.15
694.006	0.15
694.035	13.15
694.064	7.15
694.093	-11.85
694.122	-10.85
694.151	-4.85
694.18	-0.85
694.209	27.15
694.238	14.15
694.267	8.15
694.296	-4.85
694.325	-1.85
694.354	10.15
694.383	7.15
694.412	-7.85
694.441	16.15
694.471	1.15
694.5	-10.85
694.529	-2.85
694.558	18.15
694.587	3.15
694.616	0.15
694.645	-2.85
694.674	2.15
694.703	12.15
694.732	-11.85
694.761	3.15
694.79	14.15
694.819	-17.85
694.848	-3.85
694.877	15.15
694.906	4.15
694.935	4.15
694.963	22.15
694.992	-1.85
695.021	4.15
695.05	13.15
695.079	-0.85
695.108	2.15
695.137	7.15
695.166	18.15
695.195	-10.85
695.224	4.15
695.253	3.15
695.282	5.15
695.311	0.15
695.34	-8.85
695.369	-2.85
695.398	2.15
695.427	15.15
695.456	-1.85
695.485	3.15
695.513	-4.85
695.542	-8.85
695.571	3.15
695.6	12.15
695.629	-1.85
695.658	3.15
695.687	12.15
695.716	17.15
695.745	22.15
695.774	-10.85
695.802	-9.85
695.831	11.15
695.86	-2.85
695.889	2.15
695.918	-4.85
695.947	0.15
695.976	8.15
696.005	10.15
696.033	-4.85
696.062	15.15
696.091	11.15
696.12	11.15
696.149	6.15
696.178	-2.85
696.207	10.15
696.235	-10.85
696.264	-0.85
696.293	4.15
696.322	3.15
696.351	2.15
696.38	-13.85
696.408	-1.85
696.437	-11.85
696.466	2.15
696.495	19.15
696.524	4.15
696.553	-3.85
696.581	8.15
696.61	3.15
696.639	0.15
696.668	-0.85
696.697	-11.85
696.725	-6.85
696.754	7.15
696.783	-2.85
696.812	-0.85
696.84	7.15
696.869	0.15
696.898	-6.85
696.927	-5.85
696.956	16.15
696.984	-1.85
697.013	-3.85
697.042	6.15
697.071	7.15
697.099	13.15
697.128	7.15
697.157	13.15
697.186	-2.85
697.214	0.15
697.243	-0.85
697.272	16.15
697.301	-1.85
697.329	13.15
697.358	4.15
697.387	14.15
697.415	7.15
697.444	-0.85
697.473	0.15
697.502	-18.85
697.53	6.15
697.559	-12.85
697.588	0.15
697.616	0.15
697.645	1.15
697.674	13.15
697.703	-1.85
697.731	6.15
697.76	16.15
697.789	-4.85
697.817	-3.85
697.846	3.15
697.875	-3.85
697.903	0.15
697.932	3.15
697.961	-3.85
697.989	14.15
698.018	4.15
698.047	6.15
698.075	3.15
698.104	-5.85
698.133	-10.85
698.161	-17.85
698.19	-3.85
698.218	2.15
698.247	3.15
698.276	-4.85
698.304	10.15
698.333	8.15
698.362	8.15
698.39	8.15
698.419	9.15
698.447	-6.85
698.476	3.15
698.505	11.15
698.533	-3.85
698.562	-2.85
698.591	-16.85
698.619	6.15
698.648	15.15
698.676	7.15
698.705	3.15
698.733	-11.85
698.762	8.15
698.791	-15.85
698.819	8.15
698.848	1.15
698.876	-3.85
698.905	3.15
698.933	7.15
698.962	7.15
698.991	0.15
699.019	8.15
699.048	5.15
699.076	5.15
699.105	-12.85
699.133	-1.85
699.162	3.15
699.19	15.15
699.219	9.15
699.248	-7.85
699.276	-1.85
699.305	-0.85
699.333	18.15
699.362	6.15
699.39	14.15
699.419	9.15
699.447	-2.85
699.476	-1.85
699.504	2.15
699.533	15.15
699.561	-16.85
699.59	2.15
699.618	-0.85
699.647	-1.85
699.675	0.15
699.704	7.15
699.732	-2.85
699.761	-0.85
699.789	5.15
699.818	9.15
699.846	3.15
699.874	-12.85
699.903	-11.85
699.931	5.15
699.96	20.15
699.988	6.15
700.017	-11.85
700.045	7.15
700.074	-1.85
700.102	-7.85
700.13	-8.85
700.159	11.15
700.187	10.15
700.216	16.15
700.244	-6.85
700.273	-13.85
700.301	5.15
700.329	-0.85
700.358	3.15
700.386	9.15
700.415	7.15
700.443	-5.85
700.472	-0.85
700.5	-4.85
700.528	-7.85
700.557	6.15
700.585	4.15
700.614	-10.85
700.642	2.15
700.67	20.15
700.699	11.15
700.727	-3.85
700.755	-7.85
700.784	4.15
700.812	9.15
700.841	4.15
700.869	8.15
700.897	1.15
700.926	5.15
700.954	-12.85
700.982	-3.85
701.011	-10.85
701.039	7.15
701.067	-4.85
701.096	11.15
701.124	-6.85
701.152	7.15
701.181	-13.85
701.209	-9.85
701.237	5.15
701.266	4.15
701.294	-7.85
701.322	-3.85
701.351	11.15
701.379	1.15
701.407	-8.85
701.435	6.15
701.464	7.15
701.492	13.15
701.52	-11.85
701.549	1.15
701.577	-5.85
701.605	-15.85
701.634	3.15
701.662	9.15
701.69	-18.85
701.718	-0.85
701.747	2.15
701.775	3.15
701.803	-26.85
701.831	5.15
701.86	2.15
701.888	7.15
701.916	-11.85
701.944	-0.85
701.973	-3.85
702.001	-11.85
702.029	-0.85
702.057	-17.85
702.086	-5.85
702.114	-6.85
702.142	3.15
702.17	-6.85
702.199	-13.85
702.227	0.15
702.255	-4.85
702.283	1.15
702.311	9.15
702.34	-12.85
702.368	-14.85
702.396	-6.85
702.424	-8.85
702.452	9.15
702.481	8.15
702.509	-0.85
702.537	14.15
702.565	6.15
702.593	-20.85
702.621	-7.85
702.65	3.15
702.678	0.15
702.706	-3.85
702.734	-11.85
702.762	-7.85
702.79	15.15
702.819	12.15
702.847	3.15
702.875	4.15
702.903	11.15
702.931	-7.85
702.959	-7.85
702.988	-6.85
703.016	-19.85
703.044	-6.85
703.072	-9.85
703.1	-0.85
703.128	3.15
703.156	15.15
703.184	-5.85
703.212	6.15
703.241	7.15
703.269	-7.85
703.297	-3.85
703.325	11.15
703.353	-9.85
703.381	-15.85
703.409	5.15
703.437	-24.85
703.465	-4.85
703.493	2.15
703.522	6.15
703.55	-14.85
703.578	-4.85
703.606	-17.85
703.634	1.15
703.662	-4.85
703.69	-5.85
703.718	-5.85
703.746	8.15
703.774	5.15
703.802	9.15
703.83	-1.85
703.858	0.15
703.886	2.15
703.914	0.15
703.942	16.15
703.97	-7.85
703.998	-9.85
704.027	1.15
704.055	19.15
704.083	-6.85
704.111	-27.85
704.139	3.15
704.167	-17.85
704.195	-8.85
704.223	-11.85
704.251	-11.85
704.279	-3.85
704.307	-9.85
704.335	-1.85
704.363	0.15
704.391	-9.85
704.419	-5.85
704.447	-4.85
704.475	0.15
704.503	0.15
704.531	11.15
704.558	4.15
704.586	-3.85
704.614	-3.85
704.642	9.15
704.67	-0.85
704.698	-21.85
704.726	-10.85
704.754	-7.85
704.782	-0.85
704.81	-7.85
704.838	27.15
704.866	3.15
704.894	-12.85
704.922	-10.85
704.95	-13.85
704.978	6.15
705.006	-0.85
705.034	8.15
705.061	1.15
705.089	8.15
705.117	1.15
705.145	-17.85
705.173	-13.85
705.201	-7.85
705.229	5.15
705.257	0.15
705.285	8.15
705.313	11.15
705.34	1.15
705.368	-15.85
705.396	-12.85
705.424	8.15
705.452	-0.85
705.48	0.15
705.508	-13.85
705.536	-10.85
705.563	-0.85
705.591	1.15
705.619	1.15
705.647	-9.85
705.675	-4.85
705.703	10.15
705.731	5.15
705.758	8.15
705.786	1.15
705.814	11.15
705.842	-0.85
705.87	11.15
705.898	5.15
705.925	-12.85
705.953	-0.85
705.981	-13.85
706.009	-18.85
706.037	-2.85
706.065	-0.85
706.092	-15.85
706.12	-12.85
706.148	-8.85
706.176	3.15
706.204	15.15
706.231	-9.85
706.259	-16.85
706.287	-0.85
706.315	5.15
706.342	-12.85
706.37	-6.85
706.398	6.15
706.426	2.15
706.454	10.15
706.481	4.15
706.509	3.15
706.537	-11.85
706.565	-22.85
706.592	10.15
706.62	-4.85
706.648	3.15
706.676	-4.85
706.703	-2.85
706.731	-16.85
706.759	-11.85
706.787	0.15
706.814	2.15
706.842	13.15
706.87	-6.85
706.897	-1.85
706.925	-12.85
706.953	0.15
706.981	17.15
707.008	6.15
707.036	-0.85
707.064	-14.85
707.091	-18.85
707.119	11.15
707.147	-3.85
707.174	19.15
707.202	22.15
707.23	-1.85
707.258	8.15
707.285	-16.85
707.313	-9.85
707.341	-2.85
707.368	-5.85
707.396	-7.85
707.424	19.15
707.451	3.15
707.479	0.15
707.507	8.15
707.534	6.15
707.562	9.15
707.59	-10.85
707.617	-4.85
707.645	8.15
707.672	-7.85
707.7	0.15
707.728	15.15
707.755	-0.85
707.783	0.15
707.811	-4.85
707.838	-0.85
707.866	-8.85
707.893	9.15
707.921	7.15
707.949	-9.85
707.976	-2.85
708.004	3.15
708.031	-8.85
708.059	-5.85
708.087	8.15
708.114	-9.85
708.142	-11.85
708.169	-6.85
708.197	-0.85
708.225	6.15
708.252	9.15
708.28	17.15
708.307	12.15
708.335	5.15
708.362	-1.85
708.39	-5.85
708.418	-3.85
708.445	-1.85
708.473	-19.85
708.5	-0.85
708.528	11.15
708.555	-3.85
708.583	-2.85
708.61	4.15
708.638	-5.85
708.665	-13.85
708.693	3.15
708.72	-13.85
708.748	-11.85
708.776	-1.85
708.803	9.15
708.831	9.15
708.858	12.15
708.886	2.15
708.913	7.15
708.941	2.15
708.968	22.15
708.996	-7.85
709.023	27.15
709.051	-2.85
709.078	-10.85
709.105	-5.85
709.133	6.15
709.16	6.15
709.188	11.15
709.215	-4.85
709.243	0.15
709.27	-19.85
709.298	5.15
709.325	6.15
709.353	18.15
709.38	-1.85
709.408	18.15
709.435	-1.85
709.462	1.15
709.49	-4.85
709.517	-24.85
709.545	-7.85
709.572	-20.85
709.6	-3.85
709.627	3.15
709.655	-8.85
709.682	-1.85
709.709	-1.85
709.737	-7.85
709.764	-14.85
709.792	10.15
709.819	-14.85
709.846	-1.85
709.874	10.15
709.901	10.15
709.929	18.15
709.956	9.15
709.983	-14.85
710.011	3.15
710.038	-5.85
710.066	2.15
710.093	19.15
710.12	-2.85
710.148	-12.85
710.175	-15.85
710.202	-7.85
710.23	4.15
710.257	5.15
710.284	1.15
710.312	-2.85
710.339	0.15
710.366	0.15
710.394	-8.85
710.421	0.15
710.448	7.15
710.476	-9.85
710.503	6.15
710.53	13.15
710.558	7.15
710.585	1.15
710.612	-0.85
710.64	-16.85
710.667	-11.85
710.694	-11.85
710.722	-8.85
710.749	-7.85
710.776	-7.85
710.804	-2.85
710.831	6.15
710.858	-4.85
710.885	7.15
710.913	0.15
710.94	22.15
710.967	-4.85
710.995	-9.85
711.022	-7.85
711.049	1.15
711.076	-4.85
711.104	4.15
711.131	-4.85
711.158	8.15
711.185	1.15
711.213	-18.85
711.24	-11.85
711.267	-15.85
711.294	-9.85
711.322	18.15
711.349	9.15
711.376	10.15
711.403	-2.85
711.431	-16.85
711.458	-11.85
711.485	-8.85
711.512	-11.85
711.54	-3.85
711.567	-4.85
711.594	-3.85
711.621	-1.85
711.648	-0.85
711.676	14.15
711.703	-14.85
711.73	-17.85
711.757	-0.85
711.784	-16.85
711.812	1.15
711.839	13.15
711.866	-6.85
711.893	-13.85
711.92	8.15
711.947	-1.85
711.975	16.15
712.002	-5.85
712.029	5.15
712.056	-3.85
712.083	1.15
712.11	-18.85
712.138	10.15
712.165	15.15
712.192	-7.85
712.219	-18.85
712.246	-7.85
712.273	-6.85
712.3	-0.85
712.328	-2.85
712.355	3.15
712.382	-8.85
712.409	16.15
712.436	-20.85
712.463	12.15
712.49	6.15
712.517	-3.85
712.544	-3.85
712.572	0.15
712.599	-8.85
712.626	-5.85
712.653	-8.85
712.68	-10.85
712.707	-0.85
712.734	8.15
712.761	-15.85
712.788	-2.85
712.815	3.15
712.842	17.15
712.87	-4.85
712.897	-18.85
712.924	-8.85
712.951	7.15
712.978	12.15
713.005	7.15
713.032	14.15
713.059	4.15
713.086	-1.85
713.113	-11.85
713.14	-0.85
713.167	14.15
713.194	-5.85
713.221	-12.85
713.248	2.15
713.275	-11.85
713.302	-0.85
713.329	13.15
713.356	12.15
713.383	0.15
713.41	5.15
713.437	-17.85
713.464	8.15
713.491	-8.85
713.518	3.15
713.545	17.15
713.572	-18.85
713.599	12.15
713.626	6.15
713.653	6.15
713.68	-11.85
713.707	1.15
713.734	-6.85
713.761	-13.85
713.788	-11.85
713.815	14.15
713.842	-8.85
713.869	-16.85
713.896	-5.85
713.923	-2.85
713.95	-6.85
713.977	-29.85
714.004	1.15
714.031	-1.85
714.058	-2.85
714.085	-4.85
714.112	14.15
714.139	-10.85
714.165	-1.85
714.192	-9.85
714.219	-2.85
714.246	-0.85
714.273	-2.85
714.3	3.15
714.327	4.15
714.354	-3.85
714.381	1.15
714.408	-11.85
714.435	-16.85
714.461	-0.85
714.488	-3.85
714.515	11.15
714.542	-9.85
714.569	-5.85
714.596	-25.85
714.623	-3.85
714.65	-11.85
714.677	-3.85
714.703	-7.85
714.73	14.15
714.757	15.15
714.784	-10.85
714.811	-18.85
714.838	-0.85
714.865	-15.85
714.891	18.15
714.918	7.15
714.945	-23.85
714.972	3.15
714.999	4.15
715.026	7.15
715.052	7.15
715.079	4.15
715.106	-1.85
715.133	-0.85
715.16	-2.85
715.187	-5.85
715.213	-1.85
715.24	0.15
715.267	6.15
715.294	-3.85
715.321	-3.85
715.347	-4.85
715.374	-8.85
715.401	-10.85
715.428	2.15
715.455	3.15
715.481	-17.85
715.508	-5.85
715.535	-2.85
715.562	21.15
715.588	13.15
715.615	-2.85
715.642	-6.85
715.669	9.15
715.695	-0.85
715.722	-18.85
715.749	2.15
715.776	12.15
715.802	-0.85
715.829	-1.85
715.856	-12.85
715.883	19.15
715.909	-12.85
715.936	-4.85
715.963	6.15
715.99	-6.85
716.016	-14.85
716.043	-12.85
716.07	-19.85
716.096	-32.85
716.123	-7.85
716.15	-2.85
716.177	-1.85
716.203	11.15
716.23	15.15
716.257	-2.85
716.283	16.15
716.31	-2.85
716.337	-0.85
716.363	-7.85
716.39	5.15
716.417	12.15
716.443	-6.85
716.47	16.15
716.497	18.15
716.523	18.15
716.55	-5.85
716.577	10.15
716.603	-3.85
716.63	-10.85
716.657	21.15
716.683	-11.85
716.71	-3.85
716.737	5.15
716.763	4.15
716.79	4.15
716.817	6.15
716.843	-2.85
716.87	-25.85
716.897	-0.85
716.923	18.15
716.95	-15.85
716.976	-10.85
717.003	-0.85
717.03	0.15
717.056	7.15
717.083	1.15
717.109	7.15
717.136	12.15
717.163	-5.85
717.189	-1.85
717.216	-0.85
717.242	0.15
717.269	6.15
717.296	0.15
717.322	-5.85
717.349	18.15
717.375	18.15
717.402	-7.85
717.428	1.15
717.455	12.15
717.481	-8.85
717.508	1.15
717.535	18.15
717.561	3.15
717.588	-7.85
717.614	-0.85
717.641	-18.85
717.667	-16.85
717.694	1.15
717.72	-4.85
717.747	10.15
717.773	-5.85
717.8	12.15
717.826	3.15
717.853	-0.85
717.88	8.15
717.906	-0.85
717.933	23.15
717.959	7.15
717.986	-4.85
718.012	-7.85
718.039	4.15
718.065	12.15
718.092	-6.85
718.118	-12.85
718.144	-6.85
718.171	15.15
718.197	26.15
718.224	-4.85
718.25	-4.85
718.277	10.15
718.303	6.15
718.33	-5.85
718.356	-19.85
718.383	-17.85
718.409	-2.85
718.436	3.15
718.462	5.15
718.489	11.15
718.515	11.15
718.541	17.15
718.568	1.15
718.594	-0.85
718.621	3.15
718.647	-8.85
718.674	16.15
718.7	-4.85
718.726	-6.85
718.753	16.15
718.779	5.15
718.806	-4.85
718.832	-12.85
718.858	-16.85
718.885	-16.85
718.911	-19.85
718.938	-5.85
718.964	-5.85
718.99	-6.85
719.017	-0.85
719.043	4.15
719.07	23.15
719.096	-9.85
719.122	-0.85
719.149	4.15
719.175	9.15
719.201	1.15
719.228	-8.85
719.254	4.15
719.281	-7.85
719.307	-2.85
719.333	-13.85
719.36	5.15
719.386	-2.85
719.412	4.15
719.439	-15.85
719.465	-13.85
719.491	-11.85
719.518	9.15
719.544	10.15
719.57	-4.85
719.597	-4.85
719.623	-8.85
719.649	-4.85
719.675	2.15
719.702	3.15
719.728	6.15
719.754	-3.85
719.781	-5.85
719.807	-5.85
719.833	-1.85
719.86	-10.85
719.886	2.15
719.912	2.15
719.938	-10.85
719.965	3.15
719.991	14.15
720.017	-1.85
720.044	-0.85
720.07	5.15
720.096	-3.85
720.122	-3.85
720.149	2.15
720.175	13.15
720.201	11.15
720.227	-0.85
720.254	-4.85
720.28	5.15
720.306	-25.85
720.332	-4.85
720.359	-3.85
720.385	13.15
720.411	11.15
720.437	-6.85
720.463	-4.85
720.49	6.15
720.516	4.15
720.542	-10.85
720.568	-10.85
720.595	0.15
720.621	-14.85
720.647	2.15
720.673	-1.85
720.699	0.15
720.725	-4.85
720.752	17.15
720.778	3.15
720.804	4.15
720.83	2.15
720.856	-4.85
720.883	-1.85
720.909	3.15
720.935	22.15
720.961	11.15
720.987	-6.85
721.013	3.15
721.04	-10.85
721.066	-17.85
721.092	-11.85
721.118	1.15
721.144	7.15
721.17	-1.85
721.196	4.15
721.223	9.15
721.249	-8.85
721.275	7.15
721.301	0.15
721.327	26.15
721.353	21.15
721.379	-5.85
721.405	-8.85
721.432	2.15
721.458	-2.85
721.484	6.15
721.51	-16.85
721.536	1.15
721.562	-1.85
721.588	7.15
721.614	-11.85
721.64	-9.85
721.666	-9.85
721.693	-5.85
721.719	-1.85
721.745	-12.85
721.771	-21.85
721.797	-3.85
721.823	2.15
721.849	-1.85
721.875	5.15
721.901	-8.85
721.927	-3.85
721.953	-0.85
721.979	11.15
722.005	3.15
722.031	-6.85
722.057	5.15
722.083	4.15
722.109	2.15
722.135	4.15
722.161	7.15
722.187	-5.85
722.214	-0.85
722.24	-8.85
722.266	-7.85
722.292	5.15
722.318	9.15
722.344	-6.85
722.37	4.15
722.396	5.15
722.422	0.15
722.448	7.15
722.474	-7.85
722.5	0.15
722.526	-15.85
722.552	-4.85
722.578	-1.85
722.603	7.15
722.629	-0.85
722.655	1.15
722.681	-12.85
722.707	0.15
722.733	-16.85
722.759	-17.85
722.785	-8.85
722.811	0.15
722.837	8.15
722.863	13.15
722.889	3.15
722.915	7.15
722.941	-15.85
722.967	-0.85
722.993	1.15
723.019	5.15
723.045	-6.85
723.071	8.15
723.097	5.15
723.122	-1.85
723.148	-0.85
723.174	-4.85
723.2	9.15
723.226	2.15
723.252	-3.85
723.278	-9.85
723.304	-14.85
723.33	-5.85
723.356	-3.85
723.381	0.15
723.407	-3.85
723.433	8.15
723.459	-11.85
723.485	-9.85
723.511	4.15
723.537	0.15
723.563	6.15
723.588	-8.85
723.614	0.15
723.64	-10.85
723.666	2.15
723.692	3.15
723.718	-1.85
723.744	-3.85
723.769	5.15
723.795	-11.85
723.821	3.15
723.847	-0.85
723.873	-5.85
723.899	-1.85
723.924	10.15
723.95	9.15
723.976	-11.85
724.002	1.15
724.028	8.15
724.053	0.15
724.079	-4.85
724.105	-11.85
724.131	-13.85
724.157	-8.85
724.182	3.15
724.208	0.15
724.234	5.15
724.26	2.15
724.286	2.15
724.311	1.15
724.337	-21.85
724.363	-21.85
724.389	0.15
724.415	-10.85
724.44	15.15
724.466	-4.85
724.492	-5.85
724.518	1.15
724.543	-8.85
724.569	2.15
724.595	12.15
724.621	5.15
724.646	-4.85
724.672	-7.85
724.698	-3.85
724.723	-11.85
724.749	-2.85
724.775	11.15
724.801	10.15
724.826	-0.85
724.852	-0.85
724.878	-1.85
724.904	-15.85
724.929	8.15
724.955	-1.85
724.981	-5.85
725.006	-4.85
725.032	7.15
725.058	5.15
725.083	-5.85
725.109	-3.85
725.135	-2.85
725.161	10.15
725.186	-8.85
725.212	-4.85
725.238	2.15
725.263	4.15
725.289	-13.85
725.315	-21.85
725.34	-5.85
725.366	9.15
725.392	3.15
725.417	-9.85
725.443	-13.85
725.468	5.15
725.494	11.15
725.52	6.15
725.545	-18.85
725.571	-14.85
725.597	0.15
725.622	14.15
725.648	-7.85
725.674	2.15
725.699	6.15
725.725	7.15
725.75	23.15
725.776	-10.85
725.802	20.15
725.827	-4.85
725.853	-13.85
725.878	1.15
725.904	-2.85
725.93	-1.85
725.955	-11.85
725.981	-18.85
726.006	-3.85
726.032	17.15
726.057	0.15
726.083	-1.85
726.109	1.15
726.134	7.15
726.16	-5.85
726.185	-9.85
726.211	-6.85
726.236	21.15
726.262	7.15
726.288	4.15
726.313	7.15
726.339	2.15
726.364	13.15
726.39	-2.85
726.415	4.15
726.441	-14.85
726.466	-1.85
726.492	-13.85
726.517	-2.85
726.543	-0.85
726.568	-7.85
726.594	-19.85
726.619	-7.85
726.645	14.15
726.67	3.15
726.696	5.15
726.721	16.15
726.747	-12.85
726.772	3.15
726.798	-0.85
726.823	8.15
726.849	-4.85
726.874	-1.85
726.9	22.15
726.925	-2.85
726.951	-5.85
726.976	11.15
727.002	2.15
727.027	9.15
727.053	3.15
727.078	-5.85
727.104	9.15
727.129	-9.85
727.155	-14.85
727.18	-8.85
727.205	0.15
727.231	-11.85
727.256	-1.85
727.282	-2.85
727.307	17.15
727.333	-9.85
727.358	-9.85
727.383	-0.85
727.409	-4.85
727.434	8.15
727.46	-0.85
727.485	-11.85
727.511	19.15
727.536	-28.85
727.561	-3.85
727.587	-9.85
727.612	-5.85
727.637	2.15
727.663	-13.85
727.688	14.15
727.714	-5.85
727.739	-3.85
727.764	-6.85
727.79	3.15
727.815	1.15
727.841	-5.85
727.866	-12.85
727.891	7.15
727.917	-4.85
727.942	4.15
727.967	5.15
727.993	-2.85
728.018	8.15
728.043	-15.85
728.069	0.15
728.094	18.15
728.119	-3.85
728.145	6.15
728.17	-3.85
728.195	13.15
728.221	19.15
728.246	-1.85
728.271	-18.85
728.297	6.15
728.322	-3.85
728.347	-0.85
728.373	-2.85
728.398	-7.85
728.423	-8.85
728.448	-13.85
728.474	0.15
728.499	0.15
728.524	-17.85
728.55	-19.85
728.575	-1.85
728.6	10.15
728.625	1.15
728.651	-8.85
728.676	-8.85
728.701	-5.85
728.727	4.15
728.752	-0.85
728.777	-5.85
728.802	1.15
728.828	9.15
728.853	-3.85
728.878	-10.85
728.903	-14.85
728.929	-11.85
728.954	-11.85
728.979	-6.85
729.004	-7.85
729.03	-15.85
729.055	1.15
729.08	-8.85
729.105	-10.85
729.13	2.15
729.156	5.15
729.181	-5.85
729.206	-18.85
729.231	-8.85
729.256	5.15
729.282	4.15
729.307	-10.85
729.332	-12.85
729.357	-2.85
729.382	4.15
729.408	-9.85
729.433	-4.85
729.458	-9.85
729.483	4.15
729.508	16.15
729.533	10.15
729.559	8.15
729.584	-16.85
729.609	3.15
729.634	5.15
729.659	10.15
729.684	-1.85
729.71	28.15
729.735	10.15
729.76	1.15
729.785	5.15
729.81	6.15
729.835	6.15
729.86	-5.85
729.886	22.15
729.911	20.15
729.936	9.15
729.961	34.15
729.986	30.15
730.011	80.15
730.036	201.15
730.061	1003.15
730.086	2700.15
730.112	3390.15
730.137	2852.15
730.162	2115.15
730.187	1637.15
730.212	1279.15
730.237	794.15
730.262	458.15
730.287	228.15
730.312	153.15
730.337	88.15
730.362	63.15
730.387	49.15
730.413	17.15
730.438	14.15
730.463	27.15
730.488	2.15
730.513	6.15
730.538	0.15
730.563	10.15
730.588	14.15
730.613	26.15
730.638	19.15
730.663	-6.85
730.688	25.15
730.713	19.15
730.738	19.15
730.763	1.15
730.788	-13.85
730.813	17.15
730.838	9.15
730.863	12.15
730.888	-1.85
730.913	-4.85
730.938	-2.85
730.963	30.15
730.988	119.15
731.013	402.15
731.038	628.15
731.063	592.15
731.088	452.15
731.113	349.15
731.138	263.15
731.163	197.15
731.188	101.15
731.213	62.15
731.238	63.15
731.263	9.15
731.288	-4.85
731.313	17.15
731.338	-12.85
731.363	5.15
731.388	15.15
731.413	-7.85
731.438	0.15
731.463	11.15
731.487	-0.85
731.512	-16.85
731.537	-15.85
731.562	2.15
731.587	4.15
731.612	-11.85
731.637	-3.85
731.662	-7.85
731.687	-3.85
731.712	-1.85
731.737	14.15
731.762	-9.85
731.786	-2.85
731.811	9.15
731.836	14.15
731.861	-3.85
731.886	-11.85
731.911	7.15
731.936	18.15
731.961	-11.85
731.986	6.15
732.01	-1.85
732.035	-1.85
732.06	7.15
732.085	-2.85
732.11	-5.85
732.135	-13.85
732.16	17.15
732.184	-1.85
732.209	6.15
732.234	1.15
732.259	-12.85
732.284	7.15
732.309	-9.85
732.334	-7.85
732.358	-12.85
732.383	-13.85
732.408	-7.85
732.433	-0.85
732.458	-4.85
732.482	-5.85
732.507	-2.85
732.532	4.15
732.557	10.15
732.582	9.15
732.607	23.15
732.631	42.15
732.656	73.15
732.681	155.15
732.706	322.15
732.73	462.15
732.755	400.15
732.78	322.15
732.805	240.15
732.83	169.15
732.854	112.15
732.879	63.15
732.904	32.15
732.929	21.15
732.953	16.15
732.978	19.15
733.003	-13.85
733.028	-9.85
733.052	10.15
733.077	-6.85
733.102	13.15
733.127	1.15
733.151	-7.85
733.176	5.15
733.201	-4.85
733.226	0.15
733.25	23.15
733.275	9.15
733.3	-5.85
733.324	-0.85
733.349	-8.85
733.374	20.15
733.399	-4.85
733.423	-1.85
733.448	6.15
733.473	-5.85
733.497	-9.85
733.522	-13.85
733.547	4.15
733.571	11.15
733.596	3.15
733.621	8.15
733.646	4.15
733.67	3.15
733.695	-11.85
733.72	-5.85
733.744	-4.85
733.769	5.15
733.794	15.15
733.818	7.15
733.843	-15.85
733.867	-8.85
733.892	-4.85
733.917	5.15
733.941	-11.85
733.966	-9.85
733.991	-16.85
734.015	8.15
734.04	8.15
734.065	1.15
734.089	3.15
734.114	-12.85
734.138	-0.85
734.163	-11.85
734.188	12.15
734.212	5.15
734.237	13.15
734.261	2.15
734.286	-4.85
734.311	-19.85
734.335	-0.85
734.36	-7.85
734.384	12.15
734.409	1.15
734.434	-17.85
734.458	3.15
734.483	5.15
734.507	-9.85
734.532	10.15
734.556	0.15
734.581	-2.85
734.606	-10.85
734.63	-0.85
734.655	0.15
734.679	-22.85
734.704	-4.85
734.728	-5.85
734.753	-3.85
734.777	6.15
734.802	-4.85
734.826	7.15
734.851	5.15
734.876	-5.85
734.9	-4.85
734.925	-3.85
734.949	-8.85
734.974	-0.85
734.998	8.15
735.023	7.15
735.047	-3.85
735.072	18.15
735.096	-5.85
735.121	-4.85
735.145	6.15
735.17	-5.85
735.194	-0.85
735.219	-5.85
735.243	-5.85
735.268	14.15
735.292	12.15
735.317	-7.85
735.341	-0.85
735.365	-20.85
735.39	9.15
735.414	3.15
735.439	-0.85
735.463	-0.85
735.488	9.15
735.512	-5.85
735.537	-2.85
735.561	-1.85
735.586	-8.85
735.61	-0.85
735.634	-11.85
735.659	7.15
735.683	14.15
735.708	10.15
735.732	-9.85
735.757	6.15
735.781	0.15
735.805	-2.85
735.83	-9.85
735.854	-21.85
735.879	-12.85
735.903	6.15
735.927	7.15
735.952	15.15
735.976	-5.85
736.001	-10.85
736.025	-21.85
736.049	-6.85
736.074	-5.85
736.098	-1.85
736.123	-2.85
736.147	-10.85
736.171	-2.85
736.196	-0.85
736.22	-8.85
736.244	4.15
736.269	1.15
736.293	-3.85
736.317	14.15
736.342	3.15
736.366	11.15
736.39	5.15
736.415	4.15
736.439	1.15
736.463	-3.85
736.488	0.15
736.512	10.15
736.536	-0.85
736.561	11.15
736.585	-11.85
736.609	7.15
736.634	6.15
736.658	6.15
736.682	-17.85
736.707	-15.85
736.731	-1.85
736.755	4.15
736.78	3.15
736.804	-7.85
736.828	-4.85
736.852	-1.85
736.877	-3.85
736.901	3.15
736.925	-0.85
736.949	5.15
736.974	-5.85
736.998	-12.85
737.022	-9.85
737.047	-0.85
737.071	-18.85
737.095	9.15
737.119	22.15
737.144	16.15
737.168	-1.85
737.192	-8.85
737.216	0.15
737.241	-17.85
737.265	7.15
737.289	1.15
737.313	-11.85
737.337	11.15
737.362	-1.85
737.386	4.15
737.41	-4.85
737.434	-3.85
737.459	-8.85
737.483	2.15
737.507	2.15
737.531	18.15
737.555	0.15
737.58	6.15
737.604	-1.85
737.628	-15.85
737.652	-1.85
737.676	3.15
737.701	2.15
737.725	8.15
737.749	9.15
737.773	0.15
737.797	-1.85
737.821	-12.85
737.846	-1.85
737.87	10.15
737.894	4.15
737.918	1.15
737.942	1.15
737.966	5.15
737.99	11.15
738.015	-2.85
738.039	-1.85
738.063	-14.85
738.087	0.15
738.111	-9.85
738.135	17.15
738.159	-1.85
738.184	2.15
738.208	-0.85
738.232	8.15
738.256	15.15
738.28	-8.85
738.304	1.15
738.328	-9.85
738.352	0.15
738.376	1.15
738.4	-3.85
738.425	-9.85
738.449	1.15
738.473	16.15
738.497	-4.85
738.521	-7.85
738.545	16.15
738.569	5.15
738.593	7.15
738.617	4.15
738.641	-1.85
738.665	0.15
738.689	4.15
738.713	9.15
738.737	6.15
738.762	-8.85
738.786	-2.85
738.81	-10.85
738.834	4.15
738.858	-8.85
738.882	8.15
738.906	-10.85
738.93	7.15
738.954	9.15
738.978	20.15
739.002	4.15
739.026	7.15
739.05	-0.85
739.074	-2.85
739.098	27.15
739.122	5.15
739.146	-10.85
739.17	11.15
739.194	-1.85
739.218	-5.85
739.242	5.15
739.266	-4.85
739.29	12.15
739.314	12.15
739.338	9.15
739.362	7.15
739.386	-1.85
739.41	-9.85
739.434	-20.85
739.458	11.15
739.482	11.15
739.506	7.15
739.53	-11.85
739.554	-2.85
739.577	-14.85
739.601	18.15
739.625	-3.85
739.649	-0.85
739.673	-18.85
739.697	-9.85
739.721	3.15
739.745	12.15
739.769	-8.85
739.793	2.15
739.817	-1.85
739.841	-6.85
739.865	6.15
739.889	-13.85
739.912	15.15
739.936	7.15
739.96	2.15
739.984	4.15
740.008	-4.85
740.032	-11.85
740.056	7.15
740.08	10.15
740.104	-11.85
740.127	-5.85
740.151	15.15
740.175	19.15
740.199	4.15
740.223	62.15
740.247	12.15
740.271	-6.85
740.295	-7.85
740.318	-12.85
740.342	-4.85
740.366	6.15
740.39	11.15
740.414	-3.85
740.438	-7.85
740.461	24.15
740.485	18.15
740.509	-8.85
740.533	11.15
740.557	-6.85
740.581	-2.85
740.604	-28.85
740.628	0.15
740.652	8.15
740.676	9.15
740.7	22.15
740.723	-4.85
740.747	-15.85
740.771	-16.85
740.795	-14.85
740.819	-1.85
740.842	1.15
740.866	-1.85
740.89	0.15
740.914	-8.85
740.938	-8.85
740.961	13.15
740.985	-1.85
741.009	-1.85
741.033	3.15
741.056	-7.85
741.08	-19.85
741.104	-31.85
741.128	-4.85
741.151	10.15
741.175	6.15
741.199	1.15
741.223	-8.85
741.246	-13.85
741.27	12.15
741.294	11.15
741.318	-9.85
741.341	-3.85
741.365	-2.85
741.389	-8.85
741.413	7.15
741.436	8.15
741.46	-3.85
741.484	5.15
741.507	-1.85
741.531	20.15
741.555	-14.85
741.579	-8.85
741.602	-3.85
741.626	12.15
741.65	3.15
741.673	6.15
741.697	-0.85
741.721	-5.85
741.744	-12.85
741.768	-8.85
741.792	-6.85
741.815	7.15
741.839	3.15
741.863	3.15
741.886	6.15
741.91	2.15
741.934	7.15
741.957	-15.85
741.981	15.15
742.005	2.15
742.028	-9.85
742.052	-19.85
742.075	3.15
742.099	5.15
742.123	-9.85
742.146	-1.85
742.17	3.15
742.194	-16.85
742.217	-3.85
742.241	5.15
742.264	-13.85
742.288	10.15
742.312	7.15
742.335	10.15
742.359	-8.85
742.382	10.15
742.406	4.15
742.43	1.15
742.453	-0.85
742.477	-9.85
742.5	5.15
742.524	-1.85
742.548	-21.85
742.571	-6.85
742.595	-1.85
742.618	4.15
742.642	6.15
742.665	20.15
742.689	-5.85
742.712	9.15
742.736	-4.85
742.76	-2.85
742.783	-18.85
742.807	9.15
742.83	18.15
742.854	3.15
742.877	-2.85
742.901	-7.85
742.924	-5.85
742.948	5.15
742.971	17.15
742.995	2.15
743.018	-17.85
743.042	-13.85
743.065	1.15
743.089	-4.85
743.112	-6.85
743.136	-9.85
743.159	-12.85
743.183	-9.85
743.206	4.15
743.23	-0.85
743.253	-9.85
743.277	2.15
743.3	-4.85
743.324	12.15
743.347	-5.85
743.371	0.15
743.394	16.15
743.418	11.15
743.441	5.15
743.465	6.15
743.488	7.15
743.512	-15.85
743.535	-4.85
743.558	2.15
743.582	-0.85
743.605	0.15
743.629	6.15
743.652	11.15
743.676	2.15
743.699	13.15
743.723	-6.85
743.746	13.15
743.769	5.15
743.793	3.15
743.816	8.15
743.84	12.15
743.863	-10.85
743.886	2.15
743.91	10.15
743.933	10.15
743.957	7.15
743.98	6.15
744.003	1.15
744.027	9.15
744.05	-3.85
744.074	-2.85
744.097	-12.85
744.12	-9.85
744.144	-12.85
744.167	-3.85
744.19	5.15
744.214	-7.85
744.237	2.15
744.26	5.15
744.284	-5.85
744.307	-11.85
744.331	13.15
744.354	-5.85
744.377	-13.85
744.401	-4.85
744.424	3.15
744.447	-3.85
744.471	-16.85
