Data from HighRes_mercury_15_13_11_07_2024_HR4C61891__12__15-14-24-386.txt Node

Date: Thu Nov 07 15:14:24 EST 2024
User: crc00042
Spectrometer: HR4C6189
Trigger mode: 4
Integration Time (sec): 1.000000E-1
Scans to average: 1
Electric dark correction enabled: true
Nonlinearity correction enabled: false
Boxcar width: 0
XAxis mode: Wavelengths
Number of Pixels in Spectrum: 3648
>>>>>Begin Spectral Data<<<<<
639.567	-22.77
639.602	-22.77
639.636	-22.77
639.67	-27.77
639.704	-8.77
639.738	4.23
639.773	5.23
639.807	-27.77
639.841	2.23
639.875	3.23
639.909	1.23
639.943	3.23
639.978	-7.77
640.012	2.23
640.046	14.23
640.08	8.23
640.114	-4.77
640.148	-3.77
640.182	-5.77
640.217	-3.77
640.251	8.23
640.285	18.23
640.319	1.23
640.353	-14.77
640.387	2.23
640.421	4.23
640.455	7.23
640.49	-9.77
640.524	-3.77
640.558	22.23
640.592	19.23
640.626	1.23
640.66	11.23
640.694	-2.77
640.728	10.23
640.762	1.23
640.796	27.23
640.83	29.23
640.865	3.23
640.899	17.23
640.933	4.23
640.967	22.23
641.001	10.23
641.035	4.23
641.069	4.23
641.103	-9.77
641.137	-13.77
641.171	-13.77
641.205	12.23
641.239	5.23
641.273	10.23
641.307	11.23
641.341	0.23
641.375	-1.77
641.409	9.23
641.443	-8.77
641.477	2.23
641.511	5.23
641.545	16.23
641.579	-1.77
641.614	9.23
641.648	-1.77
641.682	-3.77
641.716	1.23
641.75	22.23
641.784	-3.77
641.818	-0.77
641.852	-4.77
641.886	-26.77
641.919	26.23
641.953	2.23
641.987	-25.77
642.021	-4.77
642.055	13.23
642.089	8.23
642.123	-12.77
642.157	6.23
642.191	-3.77
642.225	2.23
642.259	-20.77
642.293	13.23
642.327	7.23
642.361	-8.77
642.395	23.23
642.429	18.23
642.463	10.23
642.497	9.23
642.531	2.23
642.565	1.23
642.599	8.23
642.633	-9.77
642.666	17.23
642.7	-7.77
642.734	-3.77
642.768	6.23
642.802	2.23
642.836	9.23
642.87	-1.77
642.904	-6.77
642.938	19.23
642.972	2.23
643.005	6.23
643.039	16.23
643.073	6.23
643.107	-7.77
643.141	-6.77
643.175	-1.77
643.209	13.23
643.243	-4.77
643.276	-13.77
643.31	1.23
643.344	-10.77
643.378	11.23
643.412	1.23
643.446	3.23
643.48	-24.77
643.513	17.23
643.547	6.23
643.581	1.23
643.615	0.23
643.649	5.23
643.683	-1.77
643.716	-6.77
643.75	3.23
643.784	-19.77
643.818	3.23
643.852	-0.77
643.886	14.23
643.919	3.23
643.953	11.23
643.987	0.23
644.021	11.23
644.055	7.23
644.088	13.23
644.122	-8.77
644.156	-2.77
644.19	9.23
644.224	3.23
644.257	6.23
644.291	19.23
644.325	15.23
644.359	-4.77
644.392	28.23
644.426	15.23
644.46	3.23
644.494	-6.77
644.527	-0.77
644.561	14.23
644.595	-9.77
644.629	-2.77
644.662	-1.77
644.696	15.23
644.73	16.23
644.764	0.23
644.797	2.23
644.831	11.23
644.865	7.23
644.899	2.23
644.932	4.23
644.966	14.23
645	13.23
645.033	9.23
645.067	-0.77
645.101	0.23
645.135	7.23
645.168	-21.77
645.202	-9.77
645.236	-1.77
645.269	25.23
645.303	3.23
645.337	-0.77
645.37	-4.77
645.404	-5.77
645.438	10.23
645.471	1.23
645.505	6.23
645.539	10.23
645.572	-8.77
645.606	-5.77
645.64	-5.77
645.673	-8.77
645.707	5.23
645.741	-5.77
645.774	-6.77
645.808	11.23
645.842	-12.77
645.875	-1.77
645.909	-9.77
645.943	-2.77
645.976	15.23
646.01	7.23
646.043	18.23
646.077	13.23
646.111	2.23
646.144	11.23
646.178	11.23
646.212	-4.77
646.245	-14.77
646.279	0.23
646.312	13.23
646.346	9.23
646.38	-3.77
646.413	-4.77
646.447	12.23
646.48	-3.77
646.514	8.23
646.547	1.23
646.581	9.23
646.615	-7.77
646.648	-3.77
646.682	-5.77
646.715	-2.77
646.749	5.23
646.782	5.23
646.816	-1.77
646.85	-2.77
646.883	-12.77
646.917	17.23
646.95	3.23
646.984	13.23
647.017	-8.77
647.051	12.23
647.084	-1.77
647.118	-10.77
647.151	-9.77
647.185	16.23
647.218	2.23
647.252	11.23
647.285	-11.77
647.319	-7.77
647.353	15.23
647.386	6.23
647.42	-0.77
647.453	1.23
647.487	5.23
647.52	3.23
647.553	11.23
647.587	15.23
647.62	0.23
647.654	6.23
647.687	-7.77
647.721	1.23
647.754	-4.77
647.788	0.23
647.821	-15.77
647.855	21.23
647.888	21.23
647.922	12.23
647.955	-1.77
647.989	9.23
648.022	-4.77
648.055	-0.77
648.089	9.23
648.122	27.23
648.156	-7.77
648.189	0.23
648.223	12.23
648.256	8.23
648.29	7.23
648.323	-1.77
648.356	19.23
648.39	6.23
648.423	11.23
648.457	9.23
648.49	13.23
648.523	12.23
648.557	8.23
648.59	8.23
648.624	9.23
648.657	7.23
648.69	19.23
648.724	5.23
648.757	17.23
648.791	-1.77
648.824	11.23
648.857	17.23
648.891	1.23
648.924	3.23
648.957	5.23
648.991	-5.77
649.024	12.23
649.057	4.23
649.091	-6.77
649.124	27.23
649.158	15.23
649.191	20.23
649.224	7.23
649.258	1.23
649.291	10.23
649.324	18.23
649.358	10.23
649.391	1.23
649.424	-10.77
649.458	3.23
649.491	-6.77
649.524	-6.77
649.557	-11.77
649.591	-17.77
649.624	14.23
649.657	-8.77
649.691	6.23
649.724	9.23
649.757	25.23
649.791	-5.77
649.824	21.23
649.857	3.23
649.89	16.23
649.924	-14.77
649.957	4.23
649.99	-1.77
650.023	-11.77
650.057	3.23
650.09	12.23
650.123	8.23
650.157	9.23
650.19	21.23
650.223	5.23
650.256	-9.77
650.29	7.23
650.323	1.23
650.356	11.23
650.389	1.23
650.423	1.23
650.456	18.23
650.489	17.23
650.522	5.23
650.555	16.23
650.589	13.23
650.622	-12.77
650.655	0.23
650.688	4.23
650.721	4.23
650.755	-7.77
650.788	12.23
650.821	11.23
650.854	4.23
650.887	17.23
650.921	4.23
650.954	0.23
650.987	9.23
651.02	7.23
651.053	-11.77
651.087	-13.77
651.12	12.23
651.153	-5.77
651.186	13.23
651.219	-1.77
651.252	19.23
651.286	8.23
651.319	10.23
651.352	8.23
651.385	10.23
651.418	8.23
651.451	3.23
651.484	9.23
651.518	-15.77
651.551	15.23
651.584	0.23
651.617	24.23
651.65	-7.77
651.683	12.23
651.716	-6.77
651.749	1.23
651.783	0.23
651.816	3.23
651.849	7.23
651.882	10.23
651.915	-5.77
651.948	6.23
651.981	-18.77
652.014	-21.77
652.047	-9.77
652.08	-3.77
652.114	2.23
652.147	-8.77
652.18	-0.77
652.213	7.23
652.246	-2.77
652.279	-12.77
652.312	-8.77
652.345	-8.77
652.378	4.23
652.411	21.23
652.444	-0.77
652.477	-0.77
652.51	4.23
652.543	-10.77
652.576	-4.77
652.609	7.23
652.642	1.23
652.675	14.23
652.709	-6.77
652.742	0.23
652.775	13.23
652.808	-1.77
652.841	3.23
652.874	-3.77
652.907	-2.77
652.94	3.23
652.973	-1.77
653.006	-8.77
653.039	7.23
653.072	-7.77
653.105	5.23
653.138	-3.77
653.171	-2.77
653.204	0.23
653.237	1.23
653.27	0.23
653.303	-3.77
653.336	14.23
653.368	9.23
653.401	3.23
653.434	3.23
653.467	16.23
653.5	7.23
653.533	-8.77
653.566	21.23
653.599	15.23
653.632	2.23
653.665	11.23
653.698	-29.77
653.731	-12.77
653.764	-3.77
653.797	7.23
653.83	19.23
653.863	16.23
653.896	16.23
653.929	4.23
653.961	12.23
653.994	9.23
654.027	-12.77
654.06	-12.77
654.093	-5.77
654.126	-1.77
654.159	-10.77
654.192	2.23
654.225	-1.77
654.258	-1.77
654.29	6.23
654.323	9.23
654.356	-2.77
654.389	15.23
654.422	-3.77
654.455	9.23
654.488	8.23
654.521	-11.77
654.553	-10.77
654.586	3.23
654.619	10.23
654.652	11.23
654.685	1.23
654.718	0.23
654.751	23.23
654.783	-6.77
654.816	14.23
654.849	20.23
654.882	-5.77
654.915	-1.77
654.948	13.23
654.98	-4.77
655.013	-7.77
655.046	-8.77
655.079	-8.77
655.112	-9.77
655.144	-2.77
655.177	14.23
655.21	11.23
655.243	3.23
655.276	-3.77
655.308	0.23
655.341	6.23
655.374	6.23
655.407	-6.77
655.44	-1.77
655.472	13.23
655.505	14.23
655.538	-9.77
655.571	4.23
655.603	-13.77
655.636	-2.77
655.669	15.23
655.702	3.23
655.734	-8.77
655.767	-9.77
655.8	7.23
655.833	4.23
655.865	9.23
655.898	3.23
655.931	0.23
655.964	-0.77
655.996	4.23
656.029	-4.77
656.062	-11.77
656.095	5.23
656.127	-8.77
656.16	-7.77
656.193	-1.77
656.225	23.23
656.258	18.23
656.291	8.23
656.324	1.23
656.356	12.23
656.389	6.23
656.422	2.23
656.454	-17.77
656.487	-7.77
656.52	9.23
656.552	0.23
656.585	2.23
656.618	11.23
656.65	18.23
656.683	11.23
656.716	6.23
656.748	11.23
656.781	-11.77
656.814	-11.77
656.846	10.23
656.879	-16.77
656.912	6.23
656.944	-21.77
656.977	3.23
657.01	10.23
657.042	2.23
657.075	8.23
657.108	5.23
657.14	-5.77
657.173	-3.77
657.205	28.23
657.238	13.23
657.271	6.23
657.303	11.23
657.336	0.23
657.369	1.23
657.401	-9.77
657.434	2.23
657.466	1.23
657.499	-11.77
657.532	-6.77
657.564	-8.77
657.597	-5.77
657.629	12.23
657.662	7.23
657.694	-3.77
657.727	-11.77
657.76	6.23
657.792	0.23
657.825	-1.77
657.857	-4.77
657.89	3.23
657.922	16.23
657.955	0.23
657.987	4.23
658.02	23.23
658.053	9.23
658.085	6.23
658.118	3.23
658.15	10.23
658.183	17.23
658.215	-5.77
658.248	-1.77
658.28	1.23
658.313	18.23
658.345	5.23
658.378	2.23
658.41	-1.77
658.443	9.23
658.475	-8.77
658.508	-10.77
658.54	-9.77
658.573	-11.77
658.605	-1.77
658.638	2.23
658.67	13.23
658.703	3.23
658.735	7.23
658.768	2.23
658.8	-23.77
658.833	27.23
658.865	3.23
658.898	-5.77
658.93	-0.77
658.963	-5.77
658.995	0.23
659.028	8.23
659.06	-7.77
659.092	5.23
659.125	-15.77
659.157	2.23
659.19	-0.77
659.222	-8.77
659.255	-1.77
659.287	-7.77
659.32	-8.77
659.352	-2.77
659.384	12.23
659.417	9.23
659.449	-6.77
659.482	4.23
659.514	1.23
659.546	13.23
659.579	-9.77
659.611	6.23
659.644	5.23
659.676	-25.77
659.708	-5.77
659.741	-9.77
659.773	1.23
659.806	2.23
659.838	13.23
659.87	11.23
659.903	11.23
659.935	8.23
659.967	1.23
660	0.23
660.032	-29.77
660.065	5.23
660.097	-5.77
660.129	14.23
660.162	-14.77
660.194	28.23
660.226	-8.77
660.259	7.23
660.291	13.23
660.323	-7.77
660.356	-0.77
660.388	9.23
660.42	8.23
660.453	16.23
660.485	5.23
660.517	20.23
660.55	12.23
660.582	18.23
660.614	17.23
660.647	2.23
660.679	-0.77
660.711	12.23
660.743	-26.77
660.776	-3.77
660.808	11.23
660.84	8.23
660.873	3.23
660.905	-2.77
660.937	4.23
660.969	4.23
661.002	-12.77
661.034	10.23
661.066	9.23
661.099	12.23
661.131	30.23
661.163	-3.77
661.195	3.23
661.228	3.23
661.26	5.23
661.292	-4.77
661.324	-1.77
661.357	-2.77
661.389	11.23
661.421	7.23
661.453	1.23
661.485	3.23
661.518	-6.77
661.55	-13.77
661.582	-20.77
661.614	-6.77
661.647	19.23
661.679	9.23
661.711	-7.77
661.743	-7.77
661.775	11.23
661.808	12.23
661.84	5.23
661.872	7.23
661.904	-1.77
661.936	-2.77
661.969	1.23
662.001	6.23
662.033	18.23
662.065	9.23
662.097	6.23
662.129	5.23
662.162	6.23
662.194	10.23
662.226	-14.77
662.258	11.23
662.29	25.23
662.322	-13.77
662.355	-5.77
662.387	18.23
662.419	14.23
662.451	11.23
662.483	-0.77
662.515	3.23
662.547	-8.77
662.58	-11.77
662.612	-1.77
662.644	2.23
662.676	3.23
662.708	13.23
662.74	-13.77
662.772	10.23
662.804	-0.77
662.836	20.23
662.869	6.23
662.901	10.23
662.933	2.23
662.965	8.23
662.997	7.23
663.029	-6.77
663.061	3.23
663.093	7.23
663.125	28.23
663.157	18.23
663.189	17.23
663.221	19.23
663.254	1.23
663.286	10.23
663.318	4.23
663.35	-2.77
663.382	7.23
663.414	7.23
663.446	5.23
663.478	3.23
663.51	21.23
663.542	-25.77
663.574	1.23
663.606	-13.77
663.638	-13.77
663.67	-19.77
663.702	3.23
663.734	-3.77
663.766	8.23
663.798	-16.77
663.83	4.23
663.862	2.23
663.894	4.23
663.926	-11.77
663.958	-8.77
663.99	-2.77
664.022	1.23
664.054	23.23
664.086	10.23
664.118	-4.77
664.15	-2.77
664.182	-3.77
664.214	4.23
664.246	7.23
664.278	-7.77
664.31	7.23
664.342	-0.77
664.374	2.23
664.406	9.23
664.438	0.23
664.47	23.23
664.502	-1.77
664.534	-7.77
664.566	2.23
664.598	0.23
664.63	-5.77
664.662	11.23
664.693	17.23
664.725	-7.77
664.757	-0.77
664.789	-11.77
664.821	16.23
664.853	9.23
664.885	-6.77
664.917	-7.77
664.949	18.23
664.981	11.23
665.013	-3.77
665.045	-10.77
665.076	5.23
665.108	4.23
665.14	-1.77
665.172	-0.77
665.204	1.23
665.236	-9.77
665.268	13.23
665.3	-17.77
665.331	1.23
665.363	25.23
665.395	4.23
665.427	12.23
665.459	17.23
665.491	12.23
665.523	8.23
665.555	-0.77
665.586	3.23
665.618	4.23
665.65	-13.77
665.682	-4.77
665.714	-0.77
665.746	0.23
665.777	2.23
665.809	-8.77
665.841	0.23
665.873	8.23
665.905	2.23
665.937	8.23
665.968	6.23
666	-6.77
666.032	4.23
666.064	5.23
666.096	4.23
666.127	9.23
666.159	5.23
666.191	10.23
666.223	-1.77
666.255	3.23
666.286	6.23
666.318	4.23
666.35	0.23
666.382	-14.77
666.413	-10.77
666.445	-9.77
666.477	-25.77
666.509	-21.77
666.54	1.23
666.572	6.23
666.604	-4.77
666.636	10.23
666.667	35.23
666.699	30.23
666.731	20.23
666.763	7.23
666.794	-11.77
666.826	-9.77
666.858	2.23
666.89	17.23
666.921	-0.77
666.953	-3.77
666.985	19.23
667.017	26.23
667.048	17.23
667.08	6.23
667.112	5.23
667.143	-3.77
667.175	6.23
667.207	-1.77
667.238	16.23
667.27	-2.77
667.302	-10.77
667.334	8.23
667.365	17.23
667.397	6.23
667.429	-2.77
667.46	28.23
667.492	3.23
667.524	-3.77
667.555	-15.77
667.587	4.23
667.619	-5.77
667.65	-15.77
667.682	18.23
667.714	23.23
667.745	1.23
667.777	0.23
667.808	21.23
667.84	10.23
667.872	3.23
667.903	19.23
667.935	2.23
667.967	-0.77
667.998	6.23
668.03	-5.77
668.061	-0.77
668.093	9.23
668.125	-8.77
668.156	-2.77
668.188	-1.77
668.22	-12.77
668.251	9.23
668.283	10.23
668.314	17.23
668.346	0.23
668.377	12.23
668.409	8.23
668.441	38.23
668.472	14.23
668.504	14.23
668.535	3.23
668.567	19.23
668.599	11.23
668.63	-7.77
668.662	-10.77
668.693	16.23
668.725	-1.77
668.756	-0.77
668.788	-3.77
668.819	-5.77
668.851	1.23
668.882	1.23
668.914	5.23
668.946	7.23
668.977	1.23
669.009	-2.77
669.04	-3.77
669.072	0.23
669.103	4.23
669.135	-6.77
669.166	-0.77
669.198	6.23
669.229	9.23
669.261	-7.77
669.292	-5.77
669.324	6.23
669.355	7.23
669.387	-14.77
669.418	6.23
669.45	2.23
669.481	5.23
669.513	12.23
669.544	-7.77
669.576	-18.77
669.607	9.23
669.639	16.23
669.67	-9.77
669.701	8.23
669.733	-14.77
669.764	1.23
669.796	-1.77
669.827	-19.77
669.859	-9.77
669.89	15.23
669.922	2.23
669.953	-6.77
669.985	-3.77
670.016	12.23
670.047	3.23
670.079	-3.77
670.11	2.23
670.142	8.23
670.173	-3.77
670.204	-3.77
670.236	1.23
670.267	1.23
670.299	6.23
670.33	-2.77
670.362	3.23
670.393	-5.77
670.424	-9.77
670.456	-21.77
670.487	-3.77
670.518	13.23
670.55	3.23
670.581	-0.77
670.613	7.23
670.644	-5.77
670.675	-13.77
670.707	2.23
670.738	1.23
670.769	3.23
670.801	7.23
670.832	13.23
670.864	1.23
670.895	12.23
670.926	3.23
670.958	-13.77
670.989	8.23
671.02	-12.77
671.052	-5.77
671.083	8.23
671.114	-9.77
671.146	7.23
671.177	9.23
671.208	7.23
671.24	-4.77
671.271	1.23
671.302	13.23
671.333	-9.77
671.365	-7.77
671.396	-4.77
671.427	2.23
671.459	28.23
671.49	0.23
671.521	12.23
671.553	2.23
671.584	19.23
671.615	4.23
671.646	0.23
671.678	9.23
671.709	-7.77
671.74	-15.77
671.771	-4.77
671.803	4.23
671.834	4.23
671.865	18.23
671.896	11.23
671.928	1.23
671.959	-8.77
671.99	-12.77
672.021	-0.77
672.053	-13.77
672.084	8.23
672.115	-8.77
672.146	1.23
672.178	-8.77
672.209	-10.77
672.24	-3.77
672.271	7.23
672.303	10.23
672.334	5.23
672.365	-7.77
672.396	-3.77
672.427	14.23
672.459	19.23
672.49	25.23
672.521	14.23
672.552	11.23
672.583	3.23
672.615	4.23
672.646	10.23
672.677	-10.77
672.708	1.23
672.739	-12.77
672.77	0.23
672.802	7.23
672.833	-1.77
672.864	13.23
672.895	-11.77
672.926	-0.77
672.957	-16.77
672.989	-4.77
673.02	3.23
673.051	-7.77
673.082	20.23
673.113	-1.77
673.144	9.23
673.175	4.23
673.206	-8.77
673.238	-1.77
673.269	-9.77
673.3	2.23
673.331	7.23
673.362	4.23
673.393	2.23
673.424	13.23
673.455	9.23
673.487	10.23
673.518	7.23
673.549	-7.77
673.58	-10.77
673.611	14.23
673.642	0.23
673.673	-6.77
673.704	6.23
673.735	10.23
673.766	15.23
673.797	-3.77
673.828	-2.77
673.86	-3.77
673.891	-11.77
673.922	-10.77
673.953	-8.77
673.984	1.23
674.015	15.23
674.046	-12.77
674.077	-9.77
674.108	-4.77
674.139	2.23
674.17	9.23
674.201	-0.77
674.232	16.23
674.263	-6.77
674.294	11.23
674.325	-13.77
674.356	11.23
674.387	27.23
674.418	5.23
674.449	-11.77
674.48	3.23
674.511	19.23
674.542	11.23
674.573	-0.77
674.604	3.23
674.635	-2.77
674.666	7.23
674.697	-1.77
674.728	1.23
674.759	11.23
674.79	1.23
674.821	1.23
674.852	-4.77
674.883	-6.77
674.914	10.23
674.945	1.23
674.976	18.23
675.007	2.23
675.038	-6.77
675.069	-9.77
675.1	-2.77
675.131	-0.77
675.162	-12.77
675.193	2.23
675.224	-8.77
675.254	8.23
675.285	12.23
675.316	12.23
675.347	5.23
675.378	8.23
675.409	8.23
675.44	20.23
675.471	1.23
675.502	-1.77
675.533	-15.77
675.564	8.23
675.595	11.23
675.625	13.23
675.656	-2.77
675.687	7.23
675.718	-7.77
675.749	19.23
675.78	7.23
675.811	2.23
675.842	-9.77
675.873	-3.77
675.903	-6.77
675.934	6.23
675.965	1.23
675.996	1.23
676.027	5.23
676.058	-5.77
676.089	-11.77
676.119	-1.77
676.15	-5.77
676.181	-2.77
676.212	-16.77
676.243	4.23
676.274	8.23
676.304	28.23
676.335	1.23
676.366	-3.77
676.397	-0.77
676.428	4.23
676.459	3.23
676.489	10.23
676.52	6.23
676.551	2.23
676.582	-7.77
676.613	-3.77
676.643	-16.77
676.674	-2.77
676.705	-0.77
676.736	-0.77
676.767	2.23
676.797	-9.77
676.828	-2.77
676.859	-7.77
676.89	-6.77
676.92	4.23
676.951	4.23
676.982	2.23
677.013	-7.77
677.044	12.23
677.074	26.23
677.105	5.23
677.136	25.23
677.167	4.23
677.197	-3.77
677.228	1.23
677.259	-1.77
677.289	3.23
677.32	-15.77
677.351	-8.77
677.382	0.23
677.412	-6.77
677.443	1.23
677.474	-14.77
677.505	-7.77
677.535	11.23
677.566	-1.77
677.597	-14.77
677.627	-13.77
677.658	8.23
677.689	1.23
677.72	-0.77
677.75	-0.77
677.781	3.23
677.812	8.23
677.842	7.23
677.873	-5.77
677.904	-10.77
677.934	-5.77
677.965	-5.77
677.996	-11.77
678.026	-12.77
678.057	-10.77
678.088	-10.77
678.118	-2.77
678.149	2.23
678.18	-8.77
678.21	8.23
678.241	2.23
678.272	3.23
678.302	6.23
678.333	12.23
678.363	10.23
678.394	10.23
678.425	5.23
678.455	4.23
678.486	17.23
678.517	-15.77
678.547	-6.77
678.578	5.23
678.608	-12.77
678.639	12.23
678.67	-2.77
678.7	-7.77
678.731	6.23
678.761	-10.77
678.792	5.23
678.823	-0.77
678.853	-14.77
678.884	-9.77
678.914	-7.77
678.945	-2.77
678.975	5.23
679.006	7.23
679.037	-7.77
679.067	14.23
679.098	7.23
679.128	-16.77
679.159	-4.77
679.189	3.23
679.22	-6.77
679.25	18.23
679.281	-5.77
679.312	-3.77
679.342	5.23
679.373	39.23
679.403	-2.77
679.434	10.23
679.464	-3.77
679.495	7.23
679.525	-0.77
679.556	1.23
679.586	0.23
679.617	8.23
679.647	9.23
679.678	9.23
679.708	-6.77
679.739	7.23
679.769	1.23
679.8	8.23
679.83	5.23
679.861	4.23
679.891	-8.77
679.922	-13.77
679.952	10.23
679.983	7.23
680.013	-2.77
680.044	-7.77
680.074	19.23
680.105	1.23
680.135	-8.77
680.165	-0.77
680.196	-15.77
680.226	-6.77
680.257	7.23
680.287	11.23
680.318	1.23
680.348	-11.77
680.379	1.23
680.409	-3.77
680.439	1.23
680.47	4.23
680.5	0.23
680.531	-6.77
680.561	7.23
680.592	19.23
680.622	11.23
680.652	-6.77
680.683	17.23
680.713	10.23
680.744	-6.77
680.774	-9.77
680.804	26.23
680.835	3.23
680.865	-5.77
680.896	4.23
680.926	8.23
680.956	-0.77
680.987	0.23
681.017	-14.77
681.047	0.23
681.078	-2.77
681.108	7.23
681.139	-1.77
681.169	8.23
681.199	-5.77
681.23	17.23
681.26	6.23
681.29	1.23
681.321	-18.77
681.351	3.23
681.381	-8.77
681.412	13.23
681.442	8.23
681.472	5.23
681.503	14.23
681.533	-4.77
681.563	4.23
681.594	-5.77
681.624	15.23
681.654	5.23
681.685	8.23
681.715	-19.77
681.745	-8.77
681.775	3.23
681.806	5.23
681.836	-5.77
681.866	-7.77
681.897	2.23
681.927	-10.77
681.957	-13.77
681.987	9.23
682.018	3.23
682.048	6.23
682.078	6.23
682.109	15.23
682.139	14.23
682.169	2.23
682.199	-5.77
682.23	-14.77
682.26	10.23
682.29	3.23
682.32	0.23
682.351	4.23
682.381	-6.77
682.411	-6.77
682.441	-9.77
682.472	-7.77
682.502	-2.77
682.532	-0.77
682.562	7.23
682.592	12.23
682.623	14.23
682.653	13.23
682.683	1.23
682.713	11.23
682.743	0.23
682.774	11.23
682.804	7.23
682.834	3.23
682.864	-6.77
682.894	11.23
682.925	2.23
682.955	7.23
682.985	0.23
683.015	4.23
683.045	24.23
683.076	-0.77
683.106	17.23
683.136	-0.77
683.166	-2.77
683.196	-8.77
683.226	5.23
683.257	-16.77
683.287	-4.77
683.317	-3.77
683.347	4.23
683.377	0.23
683.407	5.23
683.437	15.23
683.468	27.23
683.498	5.23
683.528	-6.77
683.558	1.23
683.588	-9.77
683.618	-12.77
683.648	2.23
683.678	13.23
683.708	10.23
683.739	6.23
683.769	11.23
683.799	1.23
683.829	9.23
683.859	9.23
683.889	6.23
683.919	1.23
683.949	-10.77
683.979	-2.77
684.009	-4.77
684.039	1.23
684.07	10.23
684.1	22.23
684.13	1.23
684.16	-3.77
684.19	-5.77
684.22	-1.77
684.25	2.23
684.28	-5.77
684.31	11.23
684.34	11.23
684.37	13.23
684.4	-1.77
684.43	6.23
684.46	7.23
684.49	10.23
684.52	18.23
684.55	28.23
684.58	18.23
684.61	7.23
684.64	25.23
684.67	3.23
684.7	-5.77
684.73	3.23
684.76	-4.77
684.79	8.23
684.82	11.23
684.85	-9.77
684.88	6.23
684.91	-13.77
684.94	-8.77
684.97	11.23
685	4.23
685.03	-5.77
685.06	6.23
685.09	-6.77
685.12	22.23
685.15	-3.77
685.18	3.23
685.21	11.23
685.24	13.23
685.27	18.23
685.3	3.23
685.33	18.23
685.36	2.23
685.39	5.23
685.42	4.23
685.45	7.23
685.48	25.23
685.51	-5.77
685.54	15.23
685.569	10.23
685.599	7.23
685.629	5.23
685.659	14.23
685.689	10.23
685.719	7.23
685.749	-3.77
685.779	2.23
685.809	-1.77
685.839	5.23
685.869	13.23
685.898	22.23
685.928	-4.77
685.958	0.23
685.988	13.23
686.018	7.23
686.048	8.23
686.078	21.23
686.108	15.23
686.137	3.23
686.167	11.23
686.197	4.23
686.227	8.23
686.257	32.23
686.287	23.23
686.317	0.23
686.346	3.23
686.376	-21.77
686.406	-14.77
686.436	2.23
686.466	3.23
686.496	1.23
686.525	4.23
686.555	10.23
686.585	19.23
686.615	11.23
686.645	5.23
686.675	2.23
686.704	9.23
686.734	5.23
686.764	-10.77
686.794	0.23
686.824	0.23
686.853	2.23
686.883	14.23
686.913	19.23
686.943	7.23
686.973	2.23
687.002	8.23
687.032	21.23
687.062	-11.77
687.092	10.23
687.121	2.23
687.151	-9.77
687.181	-14.77
687.211	5.23
687.24	-3.77
687.27	6.23
687.3	12.23
687.33	9.23
687.359	-13.77
687.389	15.23
687.419	9.23
687.449	25.23
687.478	21.23
687.508	5.23
687.538	-6.77
687.568	10.23
687.597	-5.77
687.627	2.23
687.657	-4.77
687.686	3.23
687.716	20.23
687.746	-13.77
687.776	-1.77
687.805	8.23
687.835	3.23
687.865	15.23
687.894	11.23
687.924	3.23
687.954	6.23
687.983	10.23
688.013	20.23
688.043	6.23
688.072	4.23
688.102	3.23
688.132	7.23
688.161	-3.77
688.191	-5.77
688.221	16.23
688.25	2.23
688.28	6.23
688.31	-0.77
688.339	4.23
688.369	-10.77
688.399	-9.77
688.428	-3.77
688.458	13.23
688.488	-0.77
688.517	11.23
688.547	-10.77
688.576	38.23
688.606	16.23
688.636	-14.77
688.665	14.23
688.695	3.23
688.725	13.23
688.754	12.23
688.784	-0.77
688.813	21.23
688.843	-0.77
688.873	4.23
688.902	-4.77
688.932	-8.77
688.961	-7.77
688.991	22.23
689.02	18.23
689.05	-11.77
689.08	13.23
689.109	2.23
689.139	0.23
689.168	2.23
689.198	8.23
689.227	-9.77
689.257	-2.77
689.287	26.23
689.316	9.23
689.346	6.23
689.375	3.23
689.405	5.23
689.434	-7.77
689.464	8.23
689.493	-10.77
689.523	-8.77
689.552	-8.77
689.582	-4.77
689.611	4.23
689.641	16.23
689.67	-10.77
689.7	17.23
689.73	22.23
689.759	7.23
689.789	11.23
689.818	4.23
689.848	2.23
689.877	10.23
689.906	0.23
689.936	13.23
689.965	12.23
689.995	5.23
690.024	4.23
690.054	12.23
690.083	1.23
690.113	0.23
690.142	12.23
690.172	8.23
690.201	12.23
690.231	-3.77
690.26	16.23
690.29	2.23
690.319	9.23
690.348	6.23
690.378	7.23
690.407	10.23
690.437	2.23
690.466	15.23
690.496	3.23
690.525	10.23
690.555	5.23
690.584	0.23
690.613	-3.77
690.643	18.23
690.672	11.23
690.702	9.23
690.731	7.23
690.76	26.23
690.79	60.23
690.819	38.23
690.849	32.23
690.878	32.23
690.907	12.23
690.937	19.23
690.966	27.23
690.996	2.23
691.025	-3.77
691.054	-3.77
691.084	6.23
691.113	14.23
691.142	7.23
691.172	0.23
691.201	10.23
691.23	2.23
691.26	10.23
691.289	-2.77
691.319	-4.77
691.348	15.23
691.377	17.23
691.407	9.23
691.436	3.23
691.465	-3.77
691.495	-0.77
691.524	-3.77
691.553	-12.77
691.583	-0.77
691.612	6.23
691.641	4.23
691.67	9.23
691.7	10.23
691.729	-13.77
691.758	3.23
691.788	-4.77
691.817	5.23
691.846	-3.77
691.876	6.23
691.905	7.23
691.934	1.23
691.963	22.23
691.993	9.23
692.022	-15.77
692.051	1.23
692.081	9.23
692.11	17.23
692.139	14.23
692.168	14.23
692.198	9.23
692.227	3.23
692.256	-0.77
692.285	2.23
692.315	10.23
692.344	18.23
692.373	17.23
692.402	-12.77
692.432	-0.77
692.461	4.23
692.49	-1.77
692.519	21.23
692.548	8.23
692.578	0.23
692.607	-9.77
692.636	0.23
692.665	16.23
692.694	4.23
692.724	16.23
692.753	0.23
692.782	1.23
692.811	-1.77
692.84	11.23
692.87	20.23
692.899	21.23
692.928	7.23
692.957	13.23
692.986	15.23
693.016	2.23
693.045	13.23
693.074	1.23
693.103	6.23
693.132	4.23
693.161	7.23
693.191	-11.77
693.22	-3.77
693.249	-0.77
693.278	-4.77
693.307	8.23
693.336	-18.77
693.365	-13.77
693.395	-17.77
693.424	-4.77
693.453	8.23
693.482	-0.77
693.511	2.23
693.54	15.23
693.569	15.23
693.598	9.23
693.628	15.23
693.657	7.23
693.686	13.23
693.715	23.23
693.744	15.23
693.773	19.23
693.802	8.23
693.831	-4.77
693.86	14.23
693.889	3.23
693.919	-7.77
693.948	12.23
693.977	15.23
694.006	-8.77
694.035	0.23
694.064	-0.77
694.093	18.23
694.122	-10.77
694.151	-7.77
694.18	16.23
694.209	13.23
694.238	9.23
694.267	34.23
694.296	21.23
694.325	3.23
694.354	28.23
694.383	11.23
694.412	-0.77
694.441	8.23
694.471	1.23
694.5	-7.77
694.529	11.23
694.558	23.23
694.587	26.23
694.616	12.23
694.645	-5.77
694.674	14.23
694.703	16.23
694.732	-1.77
694.761	27.23
694.79	20.23
694.819	1.23
694.848	-0.77
694.877	15.23
694.906	31.23
694.935	11.23
694.963	18.23
694.992	2.23
695.021	7.23
695.05	22.23
695.079	5.23
695.108	3.23
695.137	13.23
695.166	2.23
695.195	2.23
695.224	4.23
695.253	6.23
695.282	8.23
695.311	11.23
695.34	-3.77
695.369	1.23
695.398	6.23
695.427	47.23
695.456	15.23
695.485	14.23
695.513	13.23
695.542	9.23
695.571	5.23
695.6	7.23
695.629	1.23
695.658	21.23
695.687	6.23
695.716	-0.77
695.745	19.23
695.774	8.23
695.802	5.23
695.831	20.23
695.86	25.23
695.889	15.23
695.918	16.23
695.947	-5.77
695.976	1.23
696.005	4.23
696.033	14.23
696.062	20.23
696.091	6.23
696.12	2.23
696.149	21.23
696.178	8.23
696.207	13.23
696.235	-4.77
696.264	-12.77
696.293	-0.77
696.322	16.23
696.351	22.23
696.38	-0.77
696.408	22.23
696.437	12.23
696.466	11.23
696.495	27.23
696.524	4.23
696.553	-0.77
696.581	9.23
696.61	4.23
696.639	5.23
696.668	3.23
696.697	-1.77
696.725	16.23
696.754	9.23
696.783	-3.77
696.812	-9.77
696.84	6.23
696.869	11.23
696.898	10.23
696.927	-9.77
696.956	19.23
696.984	8.23
697.013	3.23
697.042	7.23
697.071	0.23
697.099	11.23
697.128	7.23
697.157	2.23
697.186	7.23
697.214	-4.77
697.243	-5.77
697.272	-11.77
697.301	9.23
697.329	11.23
697.358	5.23
697.387	17.23
697.415	11.23
697.444	14.23
697.473	1.23
697.502	-7.77
697.53	16.23
697.559	5.23
697.588	-3.77
697.616	-7.77
697.645	5.23
697.674	13.23
697.703	-13.77
697.731	9.23
697.76	3.23
697.789	4.23
697.817	22.23
697.846	24.23
697.875	11.23
697.903	24.23
697.932	-2.77
697.961	16.23
697.989	3.23
698.018	23.23
698.047	12.23
698.075	23.23
698.104	-1.77
698.133	-4.77
698.161	-7.77
698.19	2.23
698.218	-0.77
698.247	3.23
698.276	5.23
698.304	19.23
698.333	4.23
698.362	0.23
698.39	-4.77
698.419	11.23
698.447	-3.77
698.476	6.23
698.505	21.23
698.533	17.23
698.562	2.23
698.591	2.23
698.619	-1.77
698.648	4.23
698.676	-1.77
698.705	9.23
698.733	-0.77
698.762	4.23
698.791	-13.77
698.819	11.23
698.848	3.23
698.876	10.23
698.905	8.23
698.933	11.23
698.962	13.23
698.991	2.23
699.019	10.23
699.048	7.23
699.076	23.23
699.105	6.23
699.133	11.23
699.162	12.23
699.19	20.23
699.219	16.23
699.248	5.23
699.276	-0.77
699.305	-7.77
699.333	14.23
699.362	-0.77
699.39	18.23
699.419	1.23
699.447	13.23
699.476	19.23
699.504	6.23
699.533	6.23
699.561	-15.77
699.59	3.23
699.618	-4.77
699.647	1.23
699.675	12.23
699.704	13.23
699.732	0.23
699.761	19.23
699.789	-2.77
699.818	9.23
699.846	-1.77
699.874	-1.77
699.903	-9.77
699.931	-5.77
699.96	1.23
699.988	3.23
700.017	5.23
700.045	14.23
700.074	7.23
700.102	3.23
700.13	-4.77
700.159	21.23
700.187	4.23
700.216	-6.77
700.244	-11.77
700.273	0.23
700.301	1.23
700.329	8.23
700.358	11.23
700.386	10.23
700.415	-3.77
700.443	11.23
700.472	1.23
700.5	1.23
700.528	8.23
700.557	-2.77
700.585	6.23
700.614	-12.77
700.642	-3.77
700.67	4.23
700.699	-1.77
700.727	3.23
700.755	2.23
700.784	-1.77
700.812	-8.77
700.841	0.23
700.869	5.23
700.897	-10.77
700.926	-4.77
700.954	13.23
700.982	11.23
701.011	-4.77
701.039	25.23
701.067	15.23
701.096	0.23
701.124	-3.77
701.152	6.23
701.181	10.23
701.209	-8.77
701.237	7.23
701.266	2.23
701.294	2.23
701.322	0.23
701.351	13.23
701.379	11.23
701.407	-1.77
701.435	26.23
701.464	18.23
701.492	8.23
701.52	-3.77
701.549	-3.77
701.577	-3.77
701.605	-4.77
701.634	1.23
701.662	10.23
701.69	-1.77
701.718	-15.77
701.747	30.23
701.775	9.23
701.803	-6.77
701.831	14.23
701.86	2.23
701.888	-2.77
701.916	5.23
701.944	3.23
701.973	-2.77
702.001	-5.77
702.029	4.23
702.057	-5.77
702.086	-6.77
702.114	-8.77
702.142	2.23
702.17	-19.77
702.199	-1.77
702.227	16.23
702.255	9.23
702.283	11.23
702.311	7.23
702.34	6.23
702.368	5.23
702.396	10.23
702.424	-6.77
702.452	-3.77
702.481	-3.77
702.509	3.23
702.537	19.23
702.565	9.23
702.593	-13.77
702.621	7.23
702.65	13.23
702.678	-0.77
702.706	11.23
702.734	-0.77
702.762	12.23
702.79	-5.77
702.819	5.23
702.847	3.23
702.875	7.23
702.903	9.23
702.931	-12.77
702.959	6.23
702.988	-8.77
703.016	-15.77
703.044	0.23
703.072	-5.77
703.1	-1.77
703.128	-1.77
703.156	6.23
703.184	-12.77
703.212	0.23
703.241	5.23
703.269	-5.77
703.297	7.23
703.325	7.23
703.353	-4.77
703.381	-9.77
703.409	3.23
703.437	1.23
703.465	8.23
703.493	-2.77
703.522	15.23
703.55	3.23
703.578	6.23
703.606	-7.77
703.634	-8.77
703.662	-15.77
703.69	-4.77
703.718	-3.77
703.746	15.23
703.774	-7.77
703.802	20.23
703.83	-3.77
703.858	4.23
703.886	-1.77
703.914	-6.77
703.942	22.23
703.97	4.23
703.998	-3.77
704.027	24.23
704.055	5.23
704.083	-9.77
704.111	0.23
704.139	-4.77
704.167	-5.77
704.195	2.23
704.223	7.23
704.251	4.23
704.279	12.23
704.307	14.23
704.335	8.23
704.363	4.23
704.391	-7.77
704.419	-6.77
704.447	-11.77
704.475	-10.77
704.503	-7.77
704.531	15.23
704.558	18.23
704.586	15.23
704.614	-2.77
704.642	16.23
704.67	-32.77
704.698	2.23
704.726	19.23
704.754	3.23
704.782	8.23
704.81	-4.77
704.838	17.23
704.866	-5.77
704.894	-25.77
704.922	-3.77
704.95	6.23
704.978	1.23
705.006	3.23
705.034	10.23
705.061	3.23
705.089	-6.77
705.117	1.23
705.145	1.23
705.173	-9.77
705.201	-3.77
705.229	7.23
705.257	11.23
705.285	14.23
705.313	12.23
705.34	5.23
705.368	0.23
705.396	2.23
705.424	2.23
705.452	-8.77
705.48	-4.77
705.508	6.23
705.536	2.23
705.563	5.23
705.591	10.23
705.619	2.23
705.647	-12.77
705.675	-4.77
705.703	4.23
705.731	6.23
705.758	3.23
705.786	-1.77
705.814	19.23
705.842	13.23
705.87	17.23
705.898	3.23
705.925	-2.77
705.953	13.23
705.981	2.23
706.009	17.23
706.037	14.23
706.065	5.23
706.092	-12.77
706.12	3.23
706.148	-8.77
706.176	-6.77
706.204	3.23
706.231	3.23
706.259	-3.77
706.287	-0.77
706.315	3.23
706.342	15.23
706.37	9.23
706.398	9.23
706.426	-15.77
706.454	11.23
706.481	8.23
706.509	9.23
706.537	-5.77
706.565	-6.77
706.592	9.23
706.62	2.23
706.648	14.23
706.676	-3.77
706.703	19.23
706.731	10.23
706.759	-17.77
706.787	-0.77
706.814	5.23
706.842	7.23
706.87	-0.77
706.897	2.23
706.925	3.23
706.953	10.23
706.981	21.23
707.008	13.23
707.036	22.23
707.064	8.23
707.091	-14.77
707.119	19.23
707.147	3.23
707.174	0.23
707.202	9.23
707.23	-1.77
707.258	28.23
707.285	-4.77
707.313	-2.77
707.341	-1.77
707.368	-25.77
707.396	2.23
707.424	17.23
707.451	-0.77
707.479	3.23
707.507	9.23
707.534	-3.77
707.562	6.23
707.59	-1.77
707.617	-6.77
707.645	1.23
707.672	11.23
707.7	4.23
707.728	5.23
707.755	1.23
707.783	-3.77
707.811	-9.77
707.838	0.23
707.866	-8.77
707.893	-0.77
707.921	-10.77
707.949	-9.77
707.976	-4.77
708.004	15.23
708.031	-4.77
708.059	-5.77
708.087	6.23
708.114	-3.77
708.142	5.23
708.169	5.23
708.197	-13.77
708.225	-0.77
708.252	9.23
708.28	13.23
708.307	-1.77
708.335	6.23
708.362	-9.77
708.39	-3.77
708.418	-6.77
708.445	-4.77
708.473	-4.77
708.5	-1.77
708.528	10.23
708.555	-9.77
708.583	-3.77
708.61	-5.77
708.638	6.23
708.665	-1.77
708.693	8.23
708.72	-6.77
708.748	-2.77
708.776	7.23
708.803	16.23
708.831	15.23
708.858	11.23
708.886	-0.77
708.913	-0.77
708.941	-0.77
708.968	8.23
708.996	1.23
709.023	13.23
709.051	-2.77
709.078	-9.77
709.105	7.23
709.133	8.23
709.16	-6.77
709.188	26.23
709.215	12.23
709.243	9.23
709.27	-8.77
709.298	-3.77
709.325	7.23
709.353	-10.77
709.38	-11.77
709.408	10.23
709.435	5.23
709.462	6.23
709.49	16.23
709.517	-1.77
709.545	-2.77
709.572	-5.77
709.6	2.23
709.627	-6.77
709.655	3.23
709.682	3.23
709.709	-3.77
709.737	-8.77
709.764	0.23
709.792	11.23
709.819	13.23
709.846	6.23
709.874	5.23
709.901	8.23
709.929	16.23
709.956	22.23
709.983	-1.77
710.011	-8.77
710.038	1.23
710.066	15.23
710.093	15.23
710.12	3.23
710.148	4.23
710.175	-16.77
710.202	-7.77
710.23	-0.77
710.257	-1.77
710.284	11.23
710.312	-8.77
710.339	8.23
710.366	-6.77
710.394	-7.77
710.421	-1.77
710.448	-9.77
710.476	-1.77
710.503	19.23
710.53	17.23
710.558	2.23
710.585	9.23
710.612	-3.77
710.64	-6.77
710.667	13.23
710.694	-4.77
710.722	-7.77
710.749	-10.77
710.776	-6.77
710.804	17.23
710.831	6.23
710.858	-19.77
710.885	-2.77
710.913	-4.77
710.94	20.23
710.967	2.23
710.995	-2.77
711.022	-6.77
711.049	8.23
711.076	-7.77
711.104	-8.77
711.131	-1.77
711.158	-6.77
711.185	2.23
711.213	1.23
711.24	-4.77
711.267	7.23
711.294	-3.77
711.322	-1.77
711.349	-7.77
711.376	4.23
711.403	0.23
711.431	-11.77
711.458	-4.77
711.485	-5.77
711.512	32.23
711.54	8.23
711.567	2.23
711.594	2.23
711.621	-6.77
711.648	13.23
711.676	11.23
711.703	3.23
711.73	-0.77
711.757	7.23
711.784	11.23
711.812	15.23
711.839	6.23
711.866	5.23
711.893	-19.77
711.92	4.23
711.947	4.23
711.975	2.23
712.002	2.23
712.029	22.23
712.056	5.23
712.083	-0.77
712.11	-10.77
712.138	6.23
712.165	16.23
712.192	1.23
712.219	11.23
712.246	6.23
712.273	1.23
712.3	-1.77
712.328	10.23
712.355	11.23
712.382	-2.77
712.409	24.23
712.436	-12.77
712.463	11.23
712.49	18.23
712.517	7.23
712.544	5.23
712.572	0.23
712.599	0.23
712.626	7.23
712.653	6.23
712.68	7.23
712.707	15.23
712.734	-2.77
712.761	-0.77
712.788	1.23
712.815	4.23
712.842	7.23
712.87	-7.77
712.897	-11.77
712.924	-1.77
712.951	6.23
712.978	8.23
713.005	-1.77
713.032	10.23
713.059	-1.77
713.086	-6.77
713.113	-13.77
713.14	-1.77
713.167	-1.77
713.194	8.23
713.221	-0.77
713.248	5.23
713.275	13.23
713.302	11.23
713.329	8.23
713.356	8.23
713.383	7.23
713.41	-0.77
713.437	-2.77
713.464	9.23
713.491	15.23
713.518	-3.77
713.545	-9.77
713.572	-2.77
713.599	6.23
713.626	-1.77
713.653	13.23
713.68	-1.77
713.707	-3.77
713.734	19.23
713.761	10.23
713.788	7.23
713.815	12.23
713.842	14.23
713.869	-14.77
713.896	-8.77
713.923	-3.77
713.95	-9.77
713.977	-7.77
714.004	1.23
714.031	-13.77
714.058	-12.77
714.085	9.23
714.112	-3.77
714.139	-13.77
714.165	0.23
714.192	2.23
714.219	14.23
714.246	-4.77
714.273	0.23
714.3	7.23
714.327	-6.77
714.354	12.23
714.381	0.23
714.408	8.23
714.435	-0.77
714.461	-6.77
714.488	15.23
714.515	-0.77
714.542	0.23
714.569	-11.77
714.596	-4.77
714.623	-16.77
714.65	-3.77
714.677	-7.77
714.703	6.23
714.73	7.23
714.757	4.23
714.784	9.23
714.811	-7.77
714.838	1.23
714.865	5.23
714.891	9.23
714.918	11.23
714.945	-3.77
714.972	-6.77
714.999	13.23
715.026	3.23
715.052	0.23
715.079	8.23
715.106	2.23
715.133	-0.77
715.16	-12.77
715.187	3.23
715.213	11.23
715.24	-7.77
715.267	7.23
715.294	-3.77
715.321	2.23
715.347	-4.77
715.374	-0.77
715.401	3.23
715.428	1.23
715.455	13.23
715.481	-7.77
715.508	12.23
715.535	8.23
715.562	20.23
715.588	11.23
715.615	1.23
715.642	1.23
715.669	12.23
715.695	-6.77
715.722	-1.77
715.749	6.23
715.776	11.23
715.802	4.23
715.829	15.23
715.856	-0.77
715.883	27.23
715.909	-16.77
715.936	2.23
715.963	2.23
715.99	-7.77
716.016	16.23
716.043	4.23
716.07	-11.77
716.096	-1.77
716.123	-13.77
716.15	19.23
716.177	6.23
716.203	-1.77
716.23	13.23
716.257	11.23
716.283	11.23
716.31	10.23
716.337	4.23
716.363	-3.77
716.39	-4.77
716.417	11.23
716.443	1.23
716.47	13.23
716.497	14.23
716.523	15.23
716.55	13.23
716.577	18.23
716.603	11.23
716.63	3.23
716.657	10.23
716.683	-9.77
716.71	-1.77
716.737	2.23
716.763	11.23
716.79	-0.77
716.817	2.23
716.843	8.23
716.87	4.23
716.897	-6.77
716.923	19.23
716.95	-0.77
716.976	-7.77
717.003	7.23
717.03	2.23
717.056	-1.77
717.083	8.23
717.109	3.23
717.136	13.23
717.163	-10.77
717.189	-12.77
717.216	-6.77
717.242	-13.77
717.269	2.23
717.296	7.23
717.322	9.23
717.349	11.23
717.375	5.23
717.402	11.23
717.428	18.23
717.455	5.23
717.481	-9.77
717.508	2.23
717.535	7.23
717.561	8.23
717.588	3.23
717.614	-4.77
717.641	5.23
717.667	3.23
717.694	2.23
717.72	7.23
717.747	3.23
717.773	-12.77
717.8	17.23
717.826	15.23
717.853	9.23
717.88	17.23
717.906	4.23
717.933	11.23
717.959	0.23
717.986	-1.77
718.012	5.23
718.039	7.23
718.065	7.23
718.092	3.23
718.118	-14.77
718.144	-22.77
718.171	16.23
718.197	19.23
718.224	-1.77
718.25	13.23
718.277	4.23
718.303	6.23
718.33	6.23
718.356	-9.77
718.383	-11.77
718.409	-4.77
718.436	-9.77
718.462	6.23
718.489	0.23
718.515	0.23
718.541	7.23
718.568	-0.77
718.594	-0.77
718.621	4.23
718.647	4.23
718.674	-0.77
718.7	12.23
718.726	8.23
718.753	20.23
718.779	3.23
718.806	9.23
718.832	7.23
718.858	14.23
718.885	1.23
718.911	4.23
718.938	-5.77
718.964	-8.77
718.99	13.23
719.017	6.23
719.043	3.23
719.07	11.23
719.096	-12.77
719.122	6.23
719.149	9.23
719.175	4.23
719.201	12.23
719.228	2.23
719.254	12.23
719.281	-1.77
719.307	0.23
719.333	-1.77
719.36	21.23
719.386	22.23
719.412	6.23
719.439	0.23
719.465	-5.77
719.491	-23.77
719.518	-7.77
719.544	-8.77
719.57	5.23
719.597	0.23
719.623	14.23
719.649	4.23
719.675	-4.77
719.702	11.23
719.728	2.23
719.754	-9.77
719.781	6.23
719.807	9.23
719.833	3.23
719.86	0.23
719.886	5.23
719.912	19.23
719.938	-6.77
719.965	5.23
719.991	9.23
720.017	9.23
720.044	2.23
720.07	-1.77
720.096	22.23
720.122	-11.77
720.149	2.23
720.175	11.23
720.201	0.23
720.227	-10.77
720.254	8.23
720.28	0.23
720.306	-10.77
720.332	6.23
720.359	11.23
720.385	2.23
720.411	-21.77
720.437	-3.77
720.463	-1.77
720.49	19.23
720.516	-0.77
720.542	3.23
720.568	1.23
720.595	16.23
720.621	7.23
720.647	2.23
720.673	15.23
720.699	-10.77
720.725	-2.77
720.752	16.23
720.778	18.23
720.804	23.23
720.83	8.23
720.856	-11.77
720.883	-8.77
720.909	8.23
720.935	5.23
720.961	0.23
720.987	-0.77
721.013	12.23
721.04	-1.77
721.066	0.23
721.092	-1.77
721.118	-4.77
721.144	-11.77
721.17	-9.77
721.196	8.23
721.223	0.23
721.249	-2.77
721.275	20.23
721.301	9.23
721.327	13.23
721.353	14.23
721.379	1.23
721.405	1.23
721.432	4.23
721.458	-10.77
721.484	13.23
721.51	-10.77
721.536	5.23
721.562	-1.77
721.588	1.23
721.614	-4.77
721.64	3.23
721.666	-7.77
721.693	-2.77
721.719	5.23
721.745	-6.77
721.771	6.23
721.797	3.23
721.823	11.23
721.849	9.23
721.875	16.23
721.901	2.23
721.927	-3.77
721.953	16.23
721.979	27.23
722.005	23.23
722.031	13.23
722.057	12.23
722.083	10.23
722.109	21.23
722.135	5.23
722.161	13.23
722.187	-0.77
722.214	-10.77
722.24	-20.77
722.266	-0.77
722.292	-1.77
722.318	15.23
722.344	-0.77
722.37	8.23
722.396	24.23
722.422	3.23
722.448	4.23
722.474	-12.77
722.5	10.23
722.526	1.23
722.552	3.23
722.578	15.23
722.603	4.23
722.629	-0.77
722.655	-1.77
722.681	-4.77
722.707	-12.77
722.733	-14.77
722.759	-1.77
722.785	3.23
722.811	4.23
722.837	7.23
722.863	-5.77
722.889	10.23
722.915	8.23
722.941	1.23
722.967	-1.77
722.993	17.23
723.019	-0.77
723.045	-6.77
723.071	14.23
723.097	-5.77
723.122	3.23
723.148	-9.77
723.174	-5.77
723.2	0.23
723.226	-3.77
723.252	5.23
723.278	-0.77
723.304	-1.77
723.33	10.23
723.356	3.23
723.381	13.23
723.407	-27.77
723.433	7.23
723.459	4.23
723.485	8.23
723.511	0.23
723.537	3.23
723.563	9.23
723.588	4.23
723.614	14.23
723.64	-1.77
723.666	6.23
723.692	14.23
723.718	5.23
723.744	7.23
723.769	-16.77
723.795	-1.77
723.821	13.23
723.847	4.23
723.873	-4.77
723.899	7.23
723.924	4.23
723.95	9.23
723.976	-6.77
724.002	2.23
724.028	11.23
724.053	-6.77
724.079	8.23
724.105	5.23
724.131	-4.77
724.157	-4.77
724.182	-5.77
724.208	-3.77
724.234	24.23
724.26	-3.77
724.286	13.23
724.311	5.23
724.337	-0.77
724.363	3.23
724.389	-1.77
724.415	-3.77
724.44	16.23
724.466	-1.77
724.492	-4.77
724.518	2.23
724.543	-1.77
724.569	8.23
724.595	14.23
724.621	0.23
724.646	-2.77
724.672	-2.77
724.698	-2.77
724.723	-0.77
724.749	12.23
724.775	10.23
724.801	3.23
724.826	-9.77
724.852	-9.77
724.878	-0.77
724.904	-8.77
724.929	4.23
724.955	-3.77
724.981	7.23
725.006	-0.77
725.032	6.23
725.058	18.23
725.083	-10.77
725.109	-6.77
725.135	13.23
725.161	19.23
725.186	2.23
725.212	-4.77
725.238	11.23
725.263	-0.77
725.289	-14.77
725.315	-9.77
725.34	-15.77
725.366	7.23
725.392	3.23
725.417	-4.77
725.443	1.23
725.468	4.23
725.494	18.23
725.52	14.23
725.545	-0.77
725.571	-6.77
725.597	-11.77
725.622	1.23
725.648	8.23
725.674	7.23
725.699	14.23
725.725	-7.77
725.75	32.23
725.776	3.23
725.802	23.23
725.827	20.23
725.853	10.23
725.878	-3.77
725.904	-0.77
725.93	0.23
725.955	-16.77
725.981	-13.77
726.006	-7.77
726.032	0.23
726.057	-0.77
726.083	-6.77
726.109	-12.77
726.134	5.23
726.16	-0.77
726.185	7.23
726.211	-0.77
726.236	8.23
726.262	4.23
726.288	3.23
726.313	8.23
726.339	12.23
726.364	0.23
726.39	10.23
726.415	-0.77
726.441	-12.77
726.466	-3.77
726.492	2.23
726.517	-0.77
726.543	-5.77
726.568	-1.77
726.594	3.23
726.619	5.23
726.645	-4.77
726.67	3.23
726.696	8.23
726.721	-8.77
726.747	-3.77
726.772	11.23
726.798	-1.77
726.823	14.23
726.849	-8.77
726.874	-0.77
726.9	20.23
726.925	7.23
726.951	-2.77
726.976	10.23
727.002	7.23
727.027	4.23
727.053	10.23
727.078	-7.77
727.104	4.23
727.129	-12.77
727.155	10.23
727.18	-4.77
727.205	2.23
727.231	-1.77
727.256	-15.77
727.282	1.23
727.307	7.23
727.333	1.23
727.358	7.23
727.383	-3.77
727.409	-1.77
727.434	5.23
727.46	3.23
727.485	4.23
727.511	-1.77
727.536	-11.77
727.561	-5.77
727.587	2.23
727.612	-0.77
727.637	2.23
727.663	-6.77
727.688	18.23
727.714	11.23
727.739	17.23
727.764	2.23
727.79	3.23
727.815	10.23
727.841	-1.77
727.866	15.23
727.891	-1.77
727.917	-20.77
727.942	-17.77
727.967	-12.77
727.993	-25.77
728.018	3.23
728.043	5.23
728.069	6.23
728.094	10.23
728.119	-8.77
728.145	11.23
728.17	9.23
728.195	-5.77
728.221	21.23
728.246	-2.77
728.271	-20.77
728.297	10.23
728.322	5.23
728.347	9.23
728.373	-3.77
728.398	0.23
728.423	-6.77
728.448	9.23
728.474	-3.77
728.499	-0.77
728.524	-6.77
728.55	11.23
728.575	5.23
728.6	0.23
728.625	16.23
728.651	9.23
728.676	-4.77
728.701	-0.77
728.727	-9.77
728.752	-1.77
728.777	-10.77
728.802	-2.77
728.828	8.23
728.853	-1.77
728.878	-7.77
728.903	-5.77
728.929	-1.77
728.954	-1.77
728.979	12.23
729.004	14.23
729.03	-12.77
729.055	8.23
729.08	-8.77
729.105	9.23
729.13	18.23
729.156	11.23
729.181	6.23
729.206	-13.77
729.231	-6.77
729.256	21.23
729.282	11.23
729.307	-5.77
729.332	1.23
729.357	-1.77
729.382	-3.77
729.408	2.23
729.433	-4.77
729.458	2.23
729.483	-2.77
729.508	12.23
729.533	17.23
729.559	1.23
729.584	-4.77
729.609	8.23
729.634	-1.77
729.659	6.23
729.684	-0.77
729.71	7.23
729.735	14.23
729.76	15.23
729.785	8.23
729.81	21.23
729.835	17.23
729.86	14.23
729.886	30.23
729.911	21.23
729.936	15.23
729.961	34.23
729.986	21.23
730.011	64.23
730.036	206.23
730.061	977.23
730.086	2697.23
730.112	3372.23
730.137	2833.23
730.162	2096.23
730.187	1624.23
730.212	1242.23
730.237	786.23
730.262	463.23
730.287	243.23
730.312	166.23
730.337	72.23
730.362	70.23
730.387	48.23
730.413	30.23
730.438	38.23
730.463	17.23
730.488	14.23
730.513	10.23
730.538	4.23
730.563	21.23
730.588	11.23
730.613	24.23
730.638	0.23
730.663	7.23
730.688	12.23
730.713	18.23
730.738	20.23
730.763	-10.77
730.788	-9.77
730.813	3.23
730.838	0.23
730.863	28.23
730.888	-5.77
730.913	-10.77
730.938	-10.77
730.963	27.23
730.988	126.23
731.013	419.23
731.038	643.23
731.063	577.23
731.088	459.23
731.113	346.23
731.138	271.23
731.163	194.23
731.188	112.23
731.213	68.23
731.238	55.23
731.263	20.23
731.288	2.23
731.313	19.23
731.338	25.23
731.363	1.23
731.388	2.23
731.413	1.23
731.438	18.23
731.463	18.23
731.487	18.23
731.512	6.23
731.537	-0.77
731.562	-6.77
731.587	1.23
731.612	-5.77
731.637	-9.77
731.662	7.23
731.687	7.23
731.712	-8.77
731.737	6.23
731.762	-4.77
731.786	-8.77
731.811	8.23
731.836	3.23
731.861	-5.77
731.886	-10.77
731.911	11.23
731.936	7.23
731.961	2.23
731.986	1.23
732.01	0.23
732.035	10.23
732.06	-0.77
732.085	4.23
732.11	1.23
732.135	-9.77
732.16	3.23
732.184	1.23
732.209	8.23
732.234	16.23
732.259	-4.77
732.284	16.23
732.309	-4.77
732.334	8.23
732.358	-18.77
732.383	-0.77
732.408	-6.77
732.433	-4.77
732.458	2.23
732.482	18.23
732.507	2.23
732.532	-8.77
732.557	9.23
732.582	17.23
732.607	24.23
732.631	60.23
732.656	72.23
732.681	131.23
732.706	329.23
732.73	468.23
732.755	388.23
732.78	324.23
732.805	251.23
732.83	174.23
732.854	129.23
732.879	103.23
732.904	52.23
732.929	29.23
732.953	11.23
732.978	12.23
733.003	0.23
733.028	-6.77
733.052	4.23
733.077	-8.77
733.102	7.23
733.127	3.23
733.151	16.23
733.176	10.23
733.201	-9.77
733.226	-6.77
733.25	6.23
733.275	5.23
733.3	12.23
733.324	20.23
733.349	15.23
733.374	28.23
733.399	15.23
733.423	13.23
733.448	1.23
733.473	-3.77
733.497	-1.77
733.522	1.23
733.547	12.23
733.571	23.23
733.596	6.23
733.621	6.23
733.646	16.23
733.67	2.23
733.695	-4.77
733.72	1.23
733.744	14.23
733.769	8.23
733.794	18.23
733.818	8.23
733.843	-0.77
733.867	-14.77
733.892	2.23
733.917	2.23
733.941	4.23
733.966	-1.77
733.991	-0.77
734.015	14.23
734.04	5.23
734.065	13.23
734.089	26.23
734.114	3.23
734.138	20.23
734.163	2.23
734.188	-0.77
734.212	8.23
734.237	11.23
734.261	22.23
734.286	4.23
734.311	-5.77
734.335	6.23
734.36	-2.77
734.384	10.23
734.409	4.23
734.434	8.23
734.458	14.23
734.483	-9.77
734.507	4.23
734.532	4.23
734.556	3.23
734.581	2.23
734.606	1.23
734.63	6.23
734.655	3.23
734.679	24.23
734.704	-3.77
734.728	-1.77
734.753	8.23
734.777	8.23
734.802	20.23
734.826	18.23
734.851	-3.77
734.876	12.23
734.9	20.23
734.925	14.23
734.949	23.23
734.974	6.23
734.998	20.23
735.023	5.23
735.047	-10.77
735.072	16.23
735.096	-6.77
735.121	4.23
735.145	13.23
735.17	3.23
735.194	21.23
735.219	7.23
735.243	2.23
735.268	13.23
735.292	17.23
735.317	3.23
735.341	21.23
735.365	-12.77
735.39	24.23
735.414	6.23
735.439	-0.77
735.463	-5.77
735.488	-0.77
735.512	-12.77
735.537	6.23
735.561	11.23
735.586	7.23
735.61	16.23
735.634	-9.77
735.659	4.23
735.683	11.23
735.708	-15.77
735.732	-9.77
735.757	6.23
735.781	7.23
735.805	9.23
735.83	3.23
735.854	-6.77
735.879	-0.77
735.903	14.23
735.927	1.23
735.952	8.23
735.976	-4.77
736.001	0.23
736.025	-1.77
736.049	3.23
736.074	12.23
736.098	2.23
736.123	16.23
736.147	0.23
736.171	-1.77
736.196	12.23
736.22	-7.77
736.244	13.23
736.269	2.23
736.293	-11.77
736.317	15.23
736.342	15.23
736.366	11.23
736.39	20.23
736.415	16.23
736.439	15.23
736.463	22.23
736.488	24.23
736.512	5.23
736.536	-3.77
736.561	22.23
736.585	3.23
736.609	17.23
736.634	16.23
736.658	5.23
736.682	-7.77
736.707	-14.77
736.731	-7.77
736.755	12.23
736.78	2.23
736.804	8.23
736.828	8.23
736.852	-3.77
736.877	2.23
736.901	3.23
736.925	-7.77
736.949	8.23
736.974	3.23
736.998	0.23
737.022	12.23
737.047	6.23
737.071	-1.77
737.095	19.23
737.119	34.23
737.144	21.23
737.168	0.23
737.192	7.23
737.216	15.23
737.241	-4.77
737.265	-1.77
737.289	-7.77
737.313	7.23
737.337	-0.77
737.362	6.23
737.386	9.23
737.41	0.23
737.434	11.23
737.459	1.23
737.483	14.23
737.507	18.23
737.531	10.23
737.555	14.23
737.58	-0.77
737.604	8.23
737.628	-8.77
737.652	-7.77
737.676	9.23
737.701	4.23
737.725	7.23
737.749	12.23
737.773	8.23
737.797	1.23
737.821	4.23
737.846	1.23
737.87	26.23
737.894	8.23
737.918	6.23
737.942	6.23
737.966	18.23
737.99	3.23
738.015	0.23
738.039	4.23
738.063	5.23
738.087	-1.77
738.111	1.23
738.135	27.23
738.159	17.23
738.184	5.23
738.208	16.23
738.232	5.23
738.256	13.23
738.28	18.23
738.304	11.23
738.328	-4.77
738.352	1.23
738.376	-3.77
738.4	8.23
738.425	6.23
738.449	-7.77
738.473	21.23
738.497	14.23
738.521	3.23
738.545	4.23
738.569	21.23
738.593	7.23
738.617	14.23
738.641	2.23
738.665	2.23
738.689	7.23
738.713	-7.77
738.737	-0.77
738.762	8.23
738.786	11.23
738.81	0.23
738.834	22.23
738.858	-5.77
738.882	1.23
738.906	-1.77
738.93	-1.77
738.954	-3.77
738.978	9.23
739.002	-4.77
739.026	9.23
739.05	15.23
739.074	-22.77
739.098	16.23
739.122	17.23
739.146	3.23
739.17	18.23
739.194	12.23
739.218	0.23
739.242	5.23
739.266	1.23
739.29	25.23
739.314	0.23
739.338	4.23
739.362	-4.77
739.386	-1.77
739.41	7.23
739.434	-6.77
739.458	22.23
739.482	10.23
739.506	4.23
739.53	0.23
739.554	22.23
739.577	-1.77
739.601	14.23
739.625	-1.77
739.649	7.23
739.673	-10.77
739.697	4.23
739.721	3.23
739.745	11.23
739.769	6.23
739.793	16.23
739.817	18.23
739.841	4.23
739.865	6.23
739.889	-16.77
739.912	6.23
739.936	-5.77
739.96	10.23
739.984	6.23
740.008	-4.77
740.032	-13.77
740.056	10.23
740.08	7.23
740.104	-1.77
740.127	-5.77
740.151	8.23
740.175	7.23
740.199	-2.77
740.223	45.23
740.247	17.23
740.271	6.23
740.295	2.23
740.318	-12.77
740.342	2.23
740.366	6.23
740.39	6.23
740.414	-6.77
740.438	-0.77
740.461	11.23
740.485	23.23
740.509	-1.77
740.533	0.23
740.557	-0.77
740.581	4.23
740.604	-6.77
740.628	-12.77
740.652	-1.77
740.676	-5.77
740.7	5.23
740.723	-19.77
740.747	-11.77
740.771	-0.77
740.795	-9.77
740.819	23.23
740.842	1.23
740.866	17.23
740.89	4.23
740.914	-5.77
740.938	-9.77
740.961	20.23
740.985	13.23
741.009	-7.77
741.033	6.23
741.056	-4.77
741.08	4.23
741.104	2.23
741.128	-9.77
741.151	10.23
741.175	11.23
741.199	4.23
741.223	11.23
741.246	4.23
741.27	8.23
741.294	19.23
741.318	3.23
741.341	-1.77
741.365	3.23
741.389	11.23
741.413	19.23
741.436	8.23
741.46	6.23
741.484	28.23
741.507	17.23
741.531	33.23
741.555	6.23
741.579	-3.77
741.602	9.23
741.626	3.23
741.65	-6.77
741.673	-4.77
741.697	18.23
741.721	7.23
741.744	-14.77
741.768	-6.77
741.792	1.23
741.815	6.23
741.839	16.23
741.863	6.23
741.886	9.23
741.91	2.23
741.934	-4.77
741.957	-20.77
741.981	16.23
742.005	-6.77
742.028	-5.77
742.052	-8.77
742.075	9.23
742.099	12.23
742.123	9.23
742.146	9.23
742.17	2.23
742.194	-0.77
742.217	-3.77
742.241	-12.77
742.264	-0.77
742.288	20.23
742.312	3.23
742.335	-4.77
742.359	-5.77
742.382	3.23
742.406	17.23
742.43	-8.77
742.453	15.23
742.477	-11.77
742.5	4.23
742.524	10.23
742.548	0.23
742.571	-5.77
742.595	0.23
742.618	-6.77
742.642	-4.77
742.665	-8.77
742.689	-5.77
742.712	9.23
742.736	-2.77
742.76	5.23
742.783	11.23
742.807	2.23
742.83	24.23
742.854	-10.77
742.877	-7.77
742.901	3.23
742.924	-3.77
742.948	1.23
742.971	9.23
742.995	11.23
743.018	3.23
743.042	-8.77
743.065	14.23
743.089	-10.77
743.112	0.23
743.136	-3.77
743.159	-1.77
743.183	6.23
743.206	6.23
743.23	-4.77
743.253	21.23
743.277	2.23
743.3	8.23
743.324	2.23
743.347	6.23
743.371	8.23
743.394	18.23
743.418	38.23
743.441	22.23
743.465	10.23
743.488	13.23
743.512	-7.77
743.535	-1.77
743.558	-0.77
743.582	11.23
743.605	10.23
743.629	17.23
743.652	12.23
743.676	1.23
743.699	8.23
743.723	-2.77
743.746	11.23
743.769	-0.77
743.793	11.23
743.816	5.23
743.84	23.23
743.863	5.23
743.886	12.23
743.91	14.23
743.933	3.23
743.957	5.23
743.98	-0.77
744.003	-1.77
744.027	0.23
744.05	3.23
744.074	-11.77
744.097	-15.77
744.12	-10.77
744.144	-4.77
744.167	7.23
744.19	12.23
744.214	0.23
744.237	-4.77
744.26	15.23
744.284	11.23
744.307	-12.77
744.331	-6.77
744.354	-4.77
744.377	-12.77
744.401	-7.77
744.424	-11.77
744.447	-3.77
744.471	7.23
