Data from HighRes_mercury_15_13_11_07_2024_HR4C61891__41__15-14-27-286.txt Node

Date: Thu Nov 07 15:14:27 EST 2024
User: crc00042
Spectrometer: HR4C6189
Trigger mode: 4
Integration Time (sec): 1.000000E-1
Scans to average: 1
Electric dark correction enabled: true
Nonlinearity correction enabled: false
Boxcar width: 0
XAxis mode: Wavelengths
Number of Pixels in Spectrum: 3648
>>>>>Begin Spectral Data<<<<<
639.567	-19.77
639.602	-19.77
639.636	-19.77
639.67	-36.77
639.704	-13.77
639.738	-2.77
639.773	17.23
639.807	-15.77
639.841	-0.77
639.875	16.23
639.909	9.23
639.943	-15.77
639.978	-18.77
640.012	1.23
640.046	15.23
640.08	-1.77
640.114	0.23
640.148	-3.77
640.182	-10.77
640.217	12.23
640.251	14.23
640.285	1.23
640.319	-7.77
640.353	3.23
640.387	7.23
640.421	-5.77
640.455	-5.77
640.49	-0.77
640.524	-2.77
640.558	10.23
640.592	-9.77
640.626	-3.77
640.66	4.23
640.694	-4.77
640.728	-1.77
640.762	16.23
640.796	8.23
640.83	12.23
640.865	-6.77
640.899	-4.77
640.933	-2.77
640.967	-3.77
641.001	17.23
641.035	3.23
641.069	-3.77
641.103	-14.77
641.137	-3.77
641.171	2.23
641.205	19.23
641.239	0.23
641.273	20.23
641.307	7.23
641.341	8.23
641.375	10.23
641.409	-9.77
641.443	2.23
641.477	9.23
641.511	8.23
641.545	6.23
641.579	5.23
641.614	6.23
641.648	-1.77
641.682	-10.77
641.716	-3.77
641.75	12.23
641.784	5.23
641.818	3.23
641.852	5.23
641.886	-10.77
641.919	24.23
641.953	0.23
641.987	-13.77
642.021	13.23
642.055	-8.77
642.089	9.23
642.123	-4.77
642.157	1.23
642.191	-4.77
642.225	-3.77
642.259	2.23
642.293	16.23
642.327	13.23
642.361	-8.77
642.395	1.23
642.429	11.23
642.463	18.23
642.497	13.23
642.531	-3.77
642.565	7.23
642.599	0.23
642.633	-19.77
642.666	11.23
642.7	13.23
642.734	18.23
642.768	10.23
642.802	-5.77
642.836	9.23
642.87	-19.77
642.904	18.23
642.938	20.23
642.972	-1.77
643.005	-0.77
643.039	6.23
643.073	2.23
643.107	9.23
643.141	12.23
643.175	8.23
643.209	18.23
643.243	17.23
643.276	13.23
643.31	-1.77
643.344	5.23
643.378	4.23
643.412	13.23
643.446	13.23
643.48	0.23
643.513	16.23
643.547	11.23
643.581	-5.77
643.615	6.23
643.649	4.23
643.683	9.23
643.716	2.23
643.75	5.23
643.784	0.23
643.818	9.23
643.852	-7.77
643.886	-0.77
643.919	-1.77
643.953	11.23
643.987	-4.77
644.021	15.23
644.055	1.23
644.088	0.23
644.122	-7.77
644.156	-10.77
644.19	1.23
644.224	-1.77
644.257	6.23
644.291	22.23
644.325	1.23
644.359	9.23
644.392	31.23
644.426	17.23
644.46	8.23
644.494	9.23
644.527	-13.77
644.561	-1.77
644.595	-13.77
644.629	2.23
644.662	-6.77
644.696	2.23
644.73	5.23
644.764	15.23
644.797	18.23
644.831	4.23
644.865	8.23
644.899	-4.77
644.932	4.23
644.966	3.23
645	7.23
645.033	27.23
645.067	-12.77
645.101	8.23
645.135	7.23
645.168	-0.77
645.202	5.23
645.236	-6.77
645.269	1.23
645.303	7.23
645.337	-4.77
645.37	-2.77
645.404	16.23
645.438	16.23
645.471	10.23
645.505	12.23
645.539	-0.77
645.572	-12.77
645.606	-10.77
645.64	-6.77
645.673	4.23
645.707	23.23
645.741	10.23
645.774	9.23
645.808	21.23
645.842	0.23
645.875	7.23
645.909	-1.77
645.943	-10.77
645.976	8.23
646.01	1.23
646.043	-1.77
646.077	13.23
646.111	9.23
646.144	19.23
646.178	3.23
646.212	-12.77
646.245	0.23
646.279	5.23
646.312	4.23
646.346	0.23
646.38	1.23
646.413	-7.77
646.447	6.23
646.48	5.23
646.514	5.23
646.547	10.23
646.581	10.23
646.615	-0.77
646.648	4.23
646.682	12.23
646.715	-0.77
646.749	4.23
646.782	-7.77
646.816	7.23
646.85	9.23
646.883	0.23
646.917	3.23
646.95	4.23
646.984	12.23
647.017	2.23
647.051	1.23
647.084	-0.77
647.118	1.23
647.151	7.23
647.185	1.23
647.218	-20.77
647.252	8.23
647.285	-6.77
647.319	-15.77
647.353	11.23
647.386	28.23
647.42	11.23
647.453	0.23
647.487	4.23
647.52	11.23
647.553	8.23
647.587	-7.77
647.62	-9.77
647.654	0.23
647.687	-12.77
647.721	-7.77
647.754	4.23
647.788	2.23
647.821	-2.77
647.855	18.23
647.888	12.23
647.922	11.23
647.955	12.23
647.989	5.23
648.022	4.23
648.055	5.23
648.089	11.23
648.122	24.23
648.156	6.23
648.189	-11.77
648.223	9.23
648.256	10.23
648.29	11.23
648.323	10.23
648.356	15.23
648.39	9.23
648.423	5.23
648.457	4.23
648.49	6.23
648.523	8.23
648.557	-4.77
648.59	8.23
648.624	10.23
648.657	6.23
648.69	35.23
648.724	19.23
648.757	11.23
648.791	22.23
648.824	3.23
648.857	15.23
648.891	-0.77
648.924	6.23
648.957	2.23
648.991	-11.77
649.024	15.23
649.057	11.23
649.091	-8.77
649.124	10.23
649.158	11.23
649.191	21.23
649.224	1.23
649.258	-2.77
649.291	13.23
649.324	-5.77
649.358	-4.77
649.391	13.23
649.424	7.23
649.458	2.23
649.491	6.23
649.524	2.23
649.557	3.23
649.591	-11.77
649.624	6.23
649.657	0.23
649.691	-0.77
649.724	12.23
649.757	3.23
649.791	-10.77
649.824	10.23
649.857	0.23
649.89	-6.77
649.924	0.23
649.957	-2.77
649.99	-9.77
650.023	-3.77
650.057	15.23
650.09	7.23
650.123	16.23
650.157	12.23
650.19	21.23
650.223	-13.77
650.256	-15.77
650.29	-5.77
650.323	1.23
650.356	30.23
650.389	4.23
650.423	-4.77
650.456	12.23
650.489	-6.77
650.522	7.23
650.555	20.23
650.589	9.23
650.622	-12.77
650.655	-2.77
650.688	11.23
650.721	8.23
650.755	21.23
650.788	1.23
650.821	9.23
650.854	-1.77
650.887	-3.77
650.921	6.23
650.954	7.23
650.987	8.23
651.02	10.23
651.053	-11.77
651.087	-20.77
651.12	18.23
651.153	18.23
651.186	3.23
651.219	-16.77
651.252	15.23
651.286	6.23
651.319	-8.77
651.352	-6.77
651.385	-9.77
651.418	13.23
651.451	11.23
651.484	37.23
651.518	-1.77
651.551	26.23
651.584	-13.77
651.617	20.23
651.65	11.23
651.683	13.23
651.716	2.23
651.749	-25.77
651.783	2.23
651.816	-2.77
651.849	4.23
651.882	12.23
651.915	7.23
651.948	14.23
651.981	-6.77
652.014	0.23
652.047	-2.77
652.08	-7.77
652.114	6.23
652.147	-3.77
652.18	9.23
652.213	9.23
652.246	4.23
652.279	-7.77
652.312	16.23
652.345	18.23
652.378	12.23
652.411	4.23
652.444	-2.77
652.477	-3.77
652.51	17.23
652.543	9.23
652.576	12.23
652.609	-15.77
652.642	8.23
652.675	20.23
652.709	28.23
652.742	13.23
652.775	6.23
652.808	12.23
652.841	12.23
652.874	11.23
652.907	6.23
652.94	4.23
652.973	-23.77
653.006	11.23
653.039	-0.77
653.072	3.23
653.105	2.23
653.138	-14.77
653.171	-7.77
653.204	-3.77
653.237	3.23
653.27	-1.77
653.303	4.23
653.336	7.23
653.368	-4.77
653.401	-4.77
653.434	-9.77
653.467	15.23
653.5	-0.77
653.533	-16.77
653.566	0.23
653.599	3.23
653.632	14.23
653.665	7.23
653.698	4.23
653.731	6.23
653.764	22.23
653.797	-5.77
653.83	6.23
653.863	6.23
653.896	9.23
653.929	1.23
653.961	-13.77
653.994	2.23
654.027	-20.77
654.06	4.23
654.093	1.23
654.126	18.23
654.159	-1.77
654.192	-10.77
654.225	-14.77
654.258	-12.77
654.29	0.23
654.323	8.23
654.356	-7.77
654.389	6.23
654.422	8.23
654.455	12.23
654.488	7.23
654.521	1.23
654.553	-5.77
654.586	16.23
654.619	12.23
654.652	-0.77
654.685	11.23
654.718	14.23
654.751	19.23
654.783	18.23
654.816	14.23
654.849	3.23
654.882	6.23
654.915	-3.77
654.948	-2.77
654.98	-10.77
655.013	-5.77
655.046	0.23
655.079	-0.77
655.112	-8.77
655.144	-17.77
655.177	-11.77
655.21	17.23
655.243	2.23
655.276	7.23
655.308	-2.77
655.341	-1.77
655.374	-2.77
655.407	-4.77
655.44	-12.77
655.472	4.23
655.505	6.23
655.538	-9.77
655.571	2.23
655.603	2.23
655.636	-4.77
655.669	13.23
655.702	4.23
655.734	-0.77
655.767	-0.77
655.8	12.23
655.833	7.23
655.865	5.23
655.898	-7.77
655.931	0.23
655.964	9.23
655.996	0.23
656.029	7.23
656.062	20.23
656.095	7.23
656.127	1.23
656.16	-1.77
656.193	-12.77
656.225	6.23
656.258	7.23
656.291	4.23
656.324	2.23
656.356	13.23
656.389	13.23
656.422	14.23
656.454	8.23
656.487	9.23
656.52	6.23
656.552	-0.77
656.585	3.23
656.618	3.23
656.65	23.23
656.683	-2.77
656.716	12.23
656.748	-7.77
656.781	-21.77
656.814	-2.77
656.846	14.23
656.879	4.23
656.912	6.23
656.944	-5.77
656.977	-16.77
657.01	-22.77
657.042	9.23
657.075	1.23
657.108	-7.77
657.14	9.23
657.173	24.23
657.205	21.23
657.238	15.23
657.271	14.23
657.303	8.23
657.336	7.23
657.369	3.23
657.401	-1.77
657.434	1.23
657.466	-3.77
657.499	-7.77
657.532	-4.77
657.564	5.23
657.597	1.23
657.629	12.23
657.662	-2.77
657.694	0.23
657.727	-22.77
657.76	28.23
657.792	-5.77
657.825	-9.77
657.857	2.23
657.89	-3.77
657.922	8.23
657.955	10.23
657.987	2.23
658.02	5.23
658.053	15.23
658.085	-2.77
658.118	-2.77
658.15	29.23
658.183	28.23
658.215	0.23
658.248	-3.77
658.28	-6.77
658.313	12.23
658.345	10.23
658.378	-0.77
658.41	-8.77
658.443	-4.77
658.475	-9.77
658.508	11.23
658.54	-4.77
658.573	-6.77
658.605	-6.77
658.638	-2.77
658.67	-6.77
658.703	3.23
658.735	-5.77
658.768	3.23
658.8	-23.77
658.833	10.23
658.865	11.23
658.898	-5.77
658.93	-10.77
658.963	-12.77
658.995	-17.77
659.028	5.23
659.06	6.23
659.092	7.23
659.125	-14.77
659.157	1.23
659.19	0.23
659.222	-11.77
659.255	14.23
659.287	8.23
659.32	-10.77
659.352	1.23
659.384	6.23
659.417	-2.77
659.449	16.23
659.482	12.23
659.514	-3.77
659.546	20.23
659.579	-12.77
659.611	8.23
659.644	12.23
659.676	-6.77
659.708	-12.77
659.741	-8.77
659.773	6.23
659.806	5.23
659.838	-0.77
659.87	10.23
659.903	4.23
659.935	30.23
659.967	0.23
660	6.23
660.032	-14.77
660.065	20.23
660.097	21.23
660.129	17.23
660.162	-14.77
660.194	12.23
660.226	13.23
660.259	2.23
660.291	-20.77
660.323	-0.77
660.356	2.23
660.388	-0.77
660.42	-8.77
660.453	14.23
660.485	16.23
660.517	12.23
660.55	14.23
660.582	-2.77
660.614	19.23
660.647	-1.77
660.679	-13.77
660.711	-5.77
660.743	-3.77
660.776	-16.77
660.808	-0.77
660.84	-3.77
660.873	-13.77
660.905	4.23
660.937	-14.77
660.969	-11.77
661.002	16.23
661.034	29.23
661.066	3.23
661.099	18.23
661.131	-2.77
661.163	13.23
661.195	6.23
661.228	9.23
661.26	-1.77
661.292	0.23
661.324	8.23
661.357	11.23
661.389	7.23
661.421	2.23
661.453	12.23
661.485	13.23
661.518	-1.77
661.55	3.23
661.582	-3.77
661.614	3.23
661.647	-5.77
661.679	-12.77
661.711	2.23
661.743	3.23
661.775	-4.77
661.808	7.23
661.84	-6.77
661.872	2.23
661.904	-0.77
661.936	-0.77
661.969	-9.77
662.001	8.23
662.033	10.23
662.065	-8.77
662.097	14.23
662.129	4.23
662.162	-2.77
662.194	-0.77
662.226	-2.77
662.258	2.23
662.29	9.23
662.322	-3.77
662.355	-6.77
662.387	22.23
662.419	10.23
662.451	16.23
662.483	11.23
662.515	-11.77
662.547	1.23
662.58	-4.77
662.612	-0.77
662.644	-5.77
662.676	-2.77
662.708	9.23
662.74	4.23
662.772	22.23
662.804	5.23
662.836	27.23
662.869	-1.77
662.901	17.23
662.933	9.23
662.965	4.23
662.997	10.23
663.029	-8.77
663.061	4.23
663.093	-7.77
663.125	15.23
663.157	-0.77
663.189	9.23
663.221	1.23
663.254	2.23
663.286	3.23
663.318	0.23
663.35	5.23
663.382	12.23
663.414	5.23
663.446	7.23
663.478	-18.77
663.51	14.23
663.542	-18.77
663.574	0.23
663.606	-0.77
663.638	-7.77
663.67	0.23
663.702	-20.77
663.734	6.23
663.766	8.23
663.798	-17.77
663.83	1.23
663.862	22.23
663.894	11.23
663.926	0.23
663.958	12.23
663.99	8.23
664.022	-2.77
664.054	7.23
664.086	-6.77
664.118	-5.77
664.15	-3.77
664.182	0.23
664.214	-5.77
664.246	15.23
664.278	2.23
664.31	9.23
664.342	-1.77
664.374	-12.77
664.406	14.23
664.438	8.23
664.47	8.23
664.502	-4.77
664.534	-11.77
664.566	-8.77
664.598	13.23
664.63	11.23
664.662	10.23
664.693	9.23
664.725	-18.77
664.757	2.23
664.789	-7.77
664.821	4.23
664.853	23.23
664.885	2.23
664.917	-0.77
664.949	11.23
664.981	9.23
665.013	13.23
665.045	7.23
665.076	9.23
665.108	2.23
665.14	-11.77
665.172	-1.77
665.204	3.23
665.236	4.23
665.268	18.23
665.3	13.23
665.331	-5.77
665.363	3.23
665.395	7.23
665.427	-3.77
665.459	1.23
665.491	-15.77
665.523	15.23
665.555	0.23
665.586	-6.77
665.618	20.23
665.65	1.23
665.682	2.23
665.714	11.23
665.746	1.23
665.777	2.23
665.809	9.23
665.841	20.23
665.873	15.23
665.905	5.23
665.937	16.23
665.968	11.23
666	-0.77
666.032	2.23
666.064	3.23
666.096	9.23
666.127	7.23
666.159	16.23
666.191	18.23
666.223	19.23
666.255	7.23
666.286	0.23
666.318	-0.77
666.35	18.23
666.382	19.23
666.413	2.23
666.445	-13.77
666.477	-5.77
666.509	-6.77
666.54	18.23
666.572	-5.77
666.604	12.23
666.636	8.23
666.667	13.23
666.699	21.23
666.731	3.23
666.763	-2.77
666.794	3.23
666.826	5.23
666.858	-12.77
666.89	1.23
666.921	5.23
666.953	7.23
666.985	18.23
667.017	16.23
667.048	21.23
667.08	-10.77
667.112	5.23
667.143	4.23
667.175	3.23
667.207	-3.77
667.238	9.23
667.27	6.23
667.302	13.23
667.334	21.23
667.365	25.23
667.397	11.23
667.429	-0.77
667.46	15.23
667.492	19.23
667.524	9.23
667.555	10.23
667.587	12.23
667.619	6.23
667.65	-17.77
667.682	-5.77
667.714	20.23
667.745	18.23
667.777	11.23
667.808	-6.77
667.84	12.23
667.872	17.23
667.903	34.23
667.935	7.23
667.967	0.23
667.998	5.23
668.03	-7.77
668.061	15.23
668.093	-3.77
668.125	5.23
668.156	3.23
668.188	7.23
668.22	5.23
668.251	18.23
668.283	6.23
668.314	15.23
668.346	-2.77
668.377	23.23
668.409	16.23
668.441	12.23
668.472	8.23
668.504	17.23
668.535	3.23
668.567	2.23
668.599	9.23
668.63	13.23
668.662	6.23
668.693	13.23
668.725	0.23
668.756	5.23
668.788	7.23
668.819	20.23
668.851	6.23
668.882	8.23
668.914	-7.77
668.946	-3.77
668.977	-2.77
669.009	5.23
669.04	-3.77
669.072	-2.77
669.103	5.23
669.135	7.23
669.166	18.23
669.198	15.23
669.229	3.23
669.261	-4.77
669.292	-6.77
669.324	5.23
669.355	20.23
669.387	-13.77
669.418	10.23
669.45	-13.77
669.481	3.23
669.513	7.23
669.544	5.23
669.576	-0.77
669.607	12.23
669.639	5.23
669.67	6.23
669.701	2.23
669.733	3.23
669.764	4.23
669.796	17.23
669.827	0.23
669.859	-3.77
669.89	7.23
669.922	16.23
669.953	4.23
669.985	6.23
670.016	4.23
670.047	-7.77
670.079	-8.77
670.11	24.23
670.142	9.23
670.173	-11.77
670.204	-8.77
670.236	11.23
670.267	-6.77
670.299	1.23
670.33	2.23
670.362	-0.77
670.393	-2.77
670.424	-15.77
670.456	-7.77
670.487	-6.77
670.518	-2.77
670.55	-6.77
670.581	12.23
670.613	14.23
670.644	-1.77
670.675	-2.77
670.707	-7.77
670.738	3.23
670.769	4.23
670.801	-13.77
670.832	14.23
670.864	-7.77
670.895	13.23
670.926	5.23
670.958	-2.77
670.989	3.23
671.02	-0.77
671.052	11.23
671.083	16.23
671.114	2.23
671.146	10.23
671.177	17.23
671.208	3.23
671.24	2.23
671.271	-7.77
671.302	11.23
671.333	-2.77
671.365	-7.77
671.396	7.23
671.427	7.23
671.459	16.23
671.49	7.23
671.521	14.23
671.553	15.23
671.584	13.23
671.615	19.23
671.646	16.23
671.678	13.23
671.709	-7.77
671.74	-20.77
671.771	0.23
671.803	-1.77
671.834	-3.77
671.865	-8.77
671.896	6.23
671.928	-7.77
671.959	-18.77
671.99	-16.77
672.021	6.23
672.053	-1.77
672.084	5.23
672.115	10.23
672.146	11.23
672.178	-3.77
672.209	-16.77
672.24	-0.77
672.271	23.23
672.303	6.23
672.334	2.23
672.365	0.23
672.396	-1.77
672.427	6.23
672.459	3.23
672.49	23.23
672.521	18.23
672.552	12.23
672.583	10.23
672.615	1.23
672.646	12.23
672.677	-8.77
672.708	-2.77
672.739	2.23
672.77	11.23
672.802	-0.77
672.833	6.23
672.864	2.23
672.895	-4.77
672.926	-2.77
672.957	-15.77
672.989	-5.77
673.02	-2.77
673.051	-2.77
673.082	18.23
673.113	15.23
673.144	7.23
673.175	3.23
673.206	5.23
673.238	-12.77
673.269	3.23
673.3	1.23
673.331	5.23
673.362	1.23
673.393	17.23
673.424	20.23
673.455	20.23
673.487	5.23
673.518	15.23
673.549	10.23
673.58	-3.77
673.611	5.23
673.642	3.23
673.673	-3.77
673.704	3.23
673.735	-6.77
673.766	5.23
673.797	-6.77
673.828	2.23
673.86	-6.77
673.891	-1.77
673.922	6.23
673.953	-9.77
673.984	4.23
674.015	3.23
674.046	0.23
674.077	18.23
674.108	-11.77
674.139	-5.77
674.17	-7.77
674.201	-10.77
674.232	-14.77
674.263	-2.77
674.294	-15.77
674.325	-12.77
674.356	11.23
674.387	-2.77
674.418	6.23
674.449	9.23
674.48	-0.77
674.511	12.23
674.542	4.23
674.573	-7.77
674.604	10.23
674.635	1.23
674.666	3.23
674.697	-4.77
674.728	5.23
674.759	-1.77
674.79	-8.77
674.821	-12.77
674.852	-3.77
674.883	-13.77
674.914	1.23
674.945	-7.77
674.976	-11.77
675.007	-7.77
675.038	-3.77
675.069	-32.77
675.1	-2.77
675.131	2.23
675.162	-11.77
675.193	5.23
675.224	5.23
675.254	3.23
675.285	6.23
675.316	16.23
675.347	6.23
675.378	-13.77
675.409	-8.77
675.44	7.23
675.471	12.23
675.502	5.23
675.533	11.23
675.564	3.23
675.595	1.23
675.625	22.23
675.656	6.23
675.687	1.23
675.718	2.23
675.749	4.23
675.78	8.23
675.811	8.23
675.842	7.23
675.873	3.23
675.903	-6.77
675.934	-3.77
675.965	-4.77
675.996	1.23
676.027	11.23
676.058	-6.77
676.089	-7.77
676.119	-12.77
676.15	-17.77
676.181	-6.77
676.212	8.23
676.243	9.23
676.274	0.23
676.304	8.23
676.335	-21.77
676.366	3.23
676.397	5.23
676.428	0.23
676.459	10.23
676.489	14.23
676.52	7.23
676.551	-13.77
676.582	-13.77
676.613	-7.77
676.643	0.23
676.674	5.23
676.705	-6.77
676.736	6.23
676.767	3.23
676.797	7.23
676.828	-2.77
676.859	5.23
676.89	-6.77
676.92	3.23
676.951	14.23
676.982	19.23
677.013	-1.77
677.044	4.23
677.074	26.23
677.105	-11.77
677.136	0.23
677.167	-4.77
677.197	21.23
677.228	9.23
677.259	-8.77
677.289	-6.77
677.32	-18.77
677.351	-0.77
677.382	-23.77
677.412	-7.77
677.443	3.23
677.474	8.23
677.505	-4.77
677.535	-9.77
677.566	-4.77
677.597	-14.77
677.627	-6.77
677.658	-1.77
677.689	-10.77
677.72	-10.77
677.75	-12.77
677.781	7.23
677.812	9.23
677.842	12.23
677.873	4.23
677.904	12.23
677.934	5.23
677.965	4.23
677.996	-8.77
678.026	-2.77
678.057	1.23
678.088	-3.77
678.118	2.23
678.149	-11.77
678.18	-9.77
678.21	11.23
678.241	22.23
678.272	5.23
678.302	-1.77
678.333	14.23
678.363	7.23
678.394	-0.77
678.425	-0.77
678.455	8.23
678.486	13.23
678.517	-5.77
678.547	-6.77
678.578	2.23
678.608	-9.77
678.639	17.23
678.67	21.23
678.7	4.23
678.731	-4.77
678.761	-5.77
678.792	8.23
678.823	9.23
678.853	11.23
678.884	-6.77
678.914	11.23
678.945	4.23
678.975	-3.77
679.006	8.23
679.037	-1.77
679.067	28.23
679.098	1.23
679.128	-1.77
679.159	-2.77
679.189	-4.77
679.22	-9.77
679.25	6.23
679.281	4.23
679.312	-1.77
679.342	-4.77
679.373	28.23
679.403	-5.77
679.434	14.23
679.464	1.23
679.495	-2.77
679.525	10.23
679.556	0.23
679.586	13.23
679.617	3.23
679.647	-3.77
679.678	-3.77
679.708	0.23
679.739	-1.77
679.769	7.23
679.8	1.23
679.83	0.23
679.861	20.23
679.891	7.23
679.922	0.23
679.952	-5.77
679.983	9.23
680.013	6.23
680.044	-5.77
680.074	14.23
680.105	2.23
680.135	10.23
680.165	12.23
680.196	11.23
680.226	2.23
680.257	15.23
680.287	14.23
680.318	-1.77
680.348	-4.77
680.379	3.23
680.409	6.23
680.439	-9.77
680.47	4.23
680.5	21.23
680.531	-0.77
680.561	20.23
680.592	19.23
680.622	7.23
680.652	-7.77
680.683	11.23
680.713	0.23
680.744	6.23
680.774	-11.77
680.804	20.23
680.835	-7.77
680.865	-13.77
680.896	11.23
680.926	10.23
680.956	19.23
680.987	22.23
681.017	-6.77
681.047	9.23
681.078	-1.77
681.108	3.23
681.139	15.23
681.169	0.23
681.199	3.23
681.23	14.23
681.26	7.23
681.29	8.23
681.321	-7.77
681.351	0.23
681.381	-4.77
681.412	3.23
681.442	-3.77
681.472	6.23
681.503	17.23
681.533	-0.77
681.563	5.23
681.594	-6.77
681.624	10.23
681.654	-1.77
681.685	-8.77
681.715	4.23
681.745	12.23
681.775	1.23
681.806	-1.77
681.836	1.23
681.866	-4.77
681.897	-8.77
681.927	1.23
681.957	-2.77
681.987	5.23
682.018	-6.77
682.048	5.23
682.078	-1.77
682.109	25.23
682.139	1.23
682.169	3.23
682.199	2.23
682.23	-12.77
682.26	14.23
682.29	-9.77
682.32	1.23
682.351	-4.77
682.381	7.23
682.411	-19.77
682.441	-8.77
682.472	-2.77
682.502	-1.77
682.532	-13.77
682.562	-15.77
682.592	11.23
682.623	5.23
682.653	8.23
682.683	6.23
682.713	14.23
682.743	2.23
682.774	-4.77
682.804	13.23
682.834	18.23
682.864	7.23
682.894	4.23
682.925	0.23
682.955	-4.77
682.985	-3.77
683.015	-2.77
683.045	10.23
683.076	-1.77
683.106	-0.77
683.136	7.23
683.166	2.23
683.196	-14.77
683.226	-7.77
683.257	-16.77
683.287	2.23
683.317	-1.77
683.347	-9.77
683.377	0.23
683.407	10.23
683.437	12.23
683.468	13.23
683.498	-9.77
683.528	5.23
683.558	13.23
683.588	1.23
683.618	-8.77
683.648	8.23
683.678	9.23
683.708	-7.77
683.739	-5.77
683.769	16.23
683.799	2.23
683.829	5.23
683.859	1.23
683.889	10.23
683.919	-5.77
683.949	2.23
683.979	-2.77
684.009	4.23
684.039	-1.77
684.07	-15.77
684.1	13.23
684.13	-0.77
684.16	10.23
684.19	4.23
684.22	11.23
684.25	1.23
684.28	-0.77
684.31	19.23
684.34	8.23
684.37	9.23
684.4	-14.77
684.43	2.23
684.46	11.23
684.49	4.23
684.52	1.23
684.55	17.23
684.58	-3.77
684.61	3.23
684.64	9.23
684.67	31.23
684.7	3.23
684.73	9.23
684.76	5.23
684.79	25.23
684.82	12.23
684.85	-4.77
684.88	14.23
684.91	1.23
684.94	16.23
684.97	-7.77
685	-2.77
685.03	-4.77
685.06	2.23
685.09	-0.77
685.12	32.23
685.15	-12.77
685.18	7.23
685.21	8.23
685.24	1.23
685.27	14.23
685.3	2.23
685.33	4.23
685.36	3.23
685.39	-0.77
685.42	-5.77
685.45	-3.77
685.48	4.23
685.51	-7.77
685.54	-2.77
685.569	6.23
685.599	11.23
685.629	-5.77
685.659	6.23
685.689	-2.77
685.719	-18.77
685.749	0.23
685.779	8.23
685.809	7.23
685.839	8.23
685.869	1.23
685.898	0.23
685.928	-8.77
685.958	-0.77
685.988	3.23
686.018	6.23
686.048	6.23
686.078	22.23
686.108	27.23
686.137	11.23
686.167	17.23
686.197	-10.77
686.227	10.23
686.257	8.23
686.287	17.23
686.317	11.23
686.346	-5.77
686.376	-8.77
686.406	-3.77
686.436	18.23
686.466	8.23
686.496	-10.77
686.525	4.23
686.555	4.23
686.585	21.23
686.615	27.23
686.645	8.23
686.675	-2.77
686.704	-7.77
686.734	3.23
686.764	-12.77
686.794	2.23
686.824	-1.77
686.853	12.23
686.883	21.23
686.913	28.23
686.943	0.23
686.973	-4.77
687.002	-7.77
687.032	21.23
687.062	4.23
687.092	25.23
687.121	-19.77
687.151	-3.77
687.181	-1.77
687.211	12.23
687.24	5.23
687.27	5.23
687.3	1.23
687.33	-0.77
687.359	-5.77
687.389	8.23
687.419	-0.77
687.449	6.23
687.478	15.23
687.508	5.23
687.538	19.23
687.568	8.23
687.597	-2.77
687.627	10.23
687.657	0.23
687.686	5.23
687.716	2.23
687.746	3.23
687.776	0.23
687.805	12.23
687.835	3.23
687.865	18.23
687.894	17.23
687.924	4.23
687.954	-8.77
687.983	16.23
688.013	5.23
688.043	9.23
688.072	0.23
688.102	12.23
688.132	2.23
688.161	3.23
688.191	5.23
688.221	19.23
688.25	0.23
688.28	3.23
688.31	-1.77
688.339	4.23
688.369	3.23
688.399	2.23
688.428	-0.77
688.458	1.23
688.488	5.23
688.517	8.23
688.547	-3.77
688.576	30.23
688.606	12.23
688.636	3.23
688.665	10.23
688.695	5.23
688.725	21.23
688.754	8.23
688.784	0.23
688.813	14.23
688.843	16.23
688.873	-1.77
688.902	-4.77
688.932	-7.77
688.961	8.23
688.991	13.23
689.02	18.23
689.05	0.23
689.08	0.23
689.109	11.23
689.139	16.23
689.168	5.23
689.198	-1.77
689.227	-4.77
689.257	-5.77
689.287	6.23
689.316	-2.77
689.346	-6.77
689.375	-1.77
689.405	5.23
689.434	-1.77
689.464	6.23
689.493	6.23
689.523	3.23
689.552	-0.77
689.582	0.23
689.611	8.23
689.641	15.23
689.67	-9.77
689.7	7.23
689.73	29.23
689.759	12.23
689.789	20.23
689.818	7.23
689.848	-2.77
689.877	7.23
689.906	-8.77
689.936	-11.77
689.965	11.23
689.995	20.23
690.024	4.23
690.054	7.23
690.083	9.23
690.113	5.23
690.142	3.23
690.172	10.23
690.201	20.23
690.231	19.23
690.26	12.23
690.29	7.23
690.319	14.23
690.348	-3.77
690.378	3.23
690.407	6.23
690.437	0.23
690.466	11.23
690.496	1.23
690.525	1.23
690.555	-2.77
690.584	7.23
690.613	4.23
690.643	7.23
690.672	16.23
690.702	15.23
690.731	7.23
690.76	28.23
690.79	50.23
690.819	56.23
690.849	41.23
690.878	28.23
690.907	24.23
690.937	12.23
690.966	26.23
690.996	27.23
691.025	0.23
691.054	2.23
691.084	2.23
691.113	5.23
691.142	-3.77
691.172	0.23
691.201	9.23
691.23	16.23
691.26	20.23
691.289	12.23
691.319	3.23
691.348	2.23
691.377	7.23
691.407	21.23
691.436	24.23
691.465	5.23
691.495	0.23
691.524	-11.77
691.553	1.23
691.583	-6.77
691.612	31.23
691.641	-6.77
691.67	4.23
691.7	18.23
691.729	1.23
691.758	19.23
691.788	14.23
691.817	12.23
691.846	-5.77
691.876	19.23
691.905	-0.77
691.934	4.23
691.963	15.23
691.993	-8.77
692.022	4.23
692.051	-4.77
692.081	19.23
692.11	17.23
692.139	9.23
692.168	12.23
692.198	23.23
692.227	23.23
692.256	8.23
692.285	12.23
692.315	-6.77
692.344	9.23
692.373	4.23
692.402	-8.77
692.432	8.23
692.461	11.23
692.49	8.23
692.519	20.23
692.548	11.23
692.578	22.23
692.607	8.23
692.636	-4.77
692.665	-8.77
692.694	1.23
692.724	3.23
692.753	1.23
692.782	4.23
692.811	-3.77
692.84	2.23
692.87	17.23
692.899	3.23
692.928	1.23
692.957	16.23
692.986	12.23
693.016	12.23
693.045	0.23
693.074	21.23
693.103	-5.77
693.132	14.23
693.161	4.23
693.191	0.23
693.22	-7.77
693.249	10.23
693.278	9.23
693.307	14.23
693.336	10.23
693.365	-12.77
693.395	-16.77
693.424	4.23
693.453	25.23
693.482	-4.77
693.511	13.23
693.54	16.23
693.569	4.23
693.598	1.23
693.628	14.23
693.657	0.23
693.686	23.23
693.715	16.23
693.744	11.23
693.773	15.23
693.802	20.23
693.831	0.23
693.86	18.23
693.889	7.23
693.919	19.23
693.948	16.23
693.977	13.23
694.006	5.23
694.035	18.23
694.064	15.23
694.093	14.23
694.122	8.23
694.151	9.23
694.18	2.23
694.209	32.23
694.238	17.23
694.267	13.23
694.296	24.23
694.325	8.23
694.354	30.23
694.383	15.23
694.412	-1.77
694.441	9.23
694.471	0.23
694.5	-8.77
694.529	17.23
694.558	19.23
694.587	31.23
694.616	4.23
694.645	15.23
694.674	16.23
694.703	11.23
694.732	9.23
694.761	27.23
694.79	27.23
694.819	-16.77
694.848	-1.77
694.877	15.23
694.906	20.23
694.935	7.23
694.963	32.23
694.992	8.23
695.021	19.23
695.05	20.23
695.079	-6.77
695.108	7.23
695.137	20.23
695.166	11.23
695.195	-11.77
695.224	11.23
695.253	3.23
695.282	-4.77
695.311	17.23
695.34	-1.77
695.369	15.23
695.398	8.23
695.427	20.23
695.456	6.23
695.485	14.23
695.513	6.23
695.542	13.23
695.571	9.23
695.6	39.23
695.629	31.23
695.658	24.23
695.687	-1.77
695.716	9.23
695.745	42.23
695.774	4.23
695.802	5.23
695.831	31.23
695.86	18.23
695.889	13.23
695.918	5.23
695.947	5.23
695.976	6.23
696.005	6.23
696.033	14.23
696.062	20.23
696.091	8.23
696.12	0.23
696.149	13.23
696.178	12.23
696.207	15.23
696.235	-0.77
696.264	10.23
696.293	2.23
696.322	10.23
696.351	31.23
696.38	-4.77
696.408	11.23
696.437	5.23
696.466	20.23
696.495	29.23
696.524	18.23
696.553	-2.77
696.581	8.23
696.61	3.23
696.639	2.23
696.668	20.23
696.697	14.23
696.725	23.23
696.754	1.23
696.783	0.23
696.812	-4.77
696.84	25.23
696.869	14.23
696.898	9.23
696.927	-0.77
696.956	14.23
696.984	2.23
697.013	12.23
697.042	18.23
697.071	16.23
697.099	13.23
697.128	7.23
697.157	7.23
697.186	5.23
697.214	14.23
697.243	-16.77
697.272	-4.77
697.301	9.23
697.329	22.23
697.358	19.23
697.387	25.23
697.415	25.23
697.444	13.23
697.473	8.23
697.502	5.23
697.53	14.23
697.559	1.23
697.588	7.23
697.616	16.23
697.645	0.23
697.674	18.23
697.703	18.23
697.731	11.23
697.76	8.23
697.789	18.23
697.817	12.23
697.846	23.23
697.875	5.23
697.903	28.23
697.932	18.23
697.961	8.23
697.989	23.23
698.018	9.23
698.047	0.23
698.075	3.23
698.104	-9.77
698.133	-10.77
698.161	11.23
698.19	7.23
698.218	15.23
698.247	-3.77
698.276	-4.77
698.304	11.23
698.333	23.23
698.362	5.23
698.39	-0.77
698.419	3.23
698.447	6.23
698.476	11.23
698.505	3.23
698.533	22.23
698.562	24.23
698.591	4.23
698.619	0.23
698.648	13.23
698.676	16.23
698.705	3.23
698.733	-15.77
698.762	20.23
698.791	11.23
698.819	-2.77
698.848	2.23
698.876	10.23
698.905	12.23
698.933	16.23
698.962	9.23
698.991	-3.77
699.019	12.23
699.048	7.23
699.076	28.23
699.105	10.23
699.133	12.23
699.162	11.23
699.19	28.23
699.219	5.23
699.248	11.23
699.276	12.23
699.305	-16.77
699.333	14.23
699.362	6.23
699.39	-4.77
699.419	-2.77
699.447	7.23
699.476	26.23
699.504	3.23
699.533	4.23
699.561	-25.77
699.59	-5.77
699.618	7.23
699.647	18.23
699.675	15.23
699.704	-2.77
699.732	2.23
699.761	22.23
699.789	-1.77
699.818	9.23
699.846	1.23
699.874	-4.77
699.903	-9.77
699.931	-6.77
699.96	26.23
699.988	19.23
700.017	6.23
700.045	7.23
700.074	0.23
700.102	5.23
700.13	-4.77
700.159	2.23
700.187	2.23
700.216	-12.77
700.244	-15.77
700.273	-4.77
700.301	5.23
700.329	1.23
700.358	15.23
700.386	-0.77
700.415	20.23
700.443	20.23
700.472	-7.77
700.5	18.23
700.528	21.23
700.557	25.23
700.585	-11.77
700.614	-11.77
700.642	20.23
700.67	18.23
700.699	13.23
700.727	12.23
700.755	12.23
700.784	11.23
700.812	3.23
700.841	6.23
700.869	1.23
700.897	-11.77
700.926	-13.77
700.954	6.23
700.982	10.23
701.011	1.23
701.039	12.23
701.067	10.23
701.096	13.23
701.124	-4.77
701.152	5.23
701.181	-6.77
701.209	-6.77
701.237	4.23
701.266	-10.77
701.294	-6.77
701.322	-1.77
701.351	7.23
701.379	10.23
701.407	-0.77
701.435	11.23
701.464	17.23
701.492	20.23
701.52	1.23
701.549	-2.77
701.577	8.23
701.605	-8.77
701.634	-0.77
701.662	11.23
701.69	-4.77
701.718	-3.77
701.747	15.23
701.775	8.23
701.803	-3.77
701.831	16.23
701.86	-1.77
701.888	8.23
701.916	5.23
701.944	-7.77
701.973	-8.77
702.001	-6.77
702.029	1.23
702.057	-7.77
702.086	-5.77
702.114	-4.77
702.142	1.23
702.17	-2.77
702.199	4.23
702.227	3.23
702.255	-5.77
702.283	3.23
702.311	4.23
702.34	5.23
702.368	-8.77
702.396	6.23
702.424	11.23
702.452	1.23
702.481	8.23
702.509	0.23
702.537	2.23
702.565	-3.77
702.593	4.23
702.621	14.23
702.65	5.23
702.678	11.23
702.706	11.23
702.734	-6.77
702.762	16.23
702.79	11.23
702.819	19.23
702.847	8.23
702.875	14.23
702.903	5.23
702.931	-19.77
702.959	-1.77
702.988	13.23
703.016	-7.77
703.044	1.23
703.072	-5.77
703.1	2.23
703.128	-0.77
703.156	7.23
703.184	3.23
703.212	18.23
703.241	16.23
703.269	-3.77
703.297	11.23
703.325	5.23
703.353	4.23
703.381	5.23
703.409	21.23
703.437	3.23
703.465	4.23
703.493	-16.77
703.522	9.23
703.55	1.23
703.578	12.23
703.606	3.23
703.634	7.23
703.662	-1.77
703.69	5.23
703.718	23.23
703.746	18.23
703.774	7.23
703.802	22.23
703.83	-1.77
703.858	6.23
703.886	1.23
703.914	1.23
703.942	15.23
703.97	-8.77
703.998	1.23
704.027	24.23
704.055	7.23
704.083	6.23
704.111	-21.77
704.139	14.23
704.167	0.23
704.195	7.23
704.223	3.23
704.251	-3.77
704.279	8.23
704.307	17.23
704.335	8.23
704.363	11.23
704.391	-3.77
704.419	0.23
704.447	0.23
704.475	0.23
704.503	3.23
704.531	8.23
704.558	9.23
704.586	17.23
704.614	-0.77
704.642	17.23
704.67	-12.77
704.698	-3.77
704.726	8.23
704.754	-1.77
704.782	-9.77
704.81	3.23
704.838	23.23
704.866	14.23
704.894	-2.77
704.922	-9.77
704.95	12.23
704.978	8.23
705.006	-2.77
705.034	28.23
705.061	4.23
705.089	15.23
705.117	0.23
705.145	-15.77
705.173	1.23
705.201	2.23
705.229	2.23
705.257	8.23
705.285	-12.77
705.313	9.23
705.34	5.23
705.368	8.23
705.396	10.23
705.424	11.23
705.452	-13.77
705.48	5.23
705.508	1.23
705.536	-4.77
705.563	-7.77
705.591	-4.77
705.619	14.23
705.647	-14.77
705.675	-0.77
705.703	13.23
705.731	9.23
705.758	19.23
705.786	5.23
705.814	20.23
705.842	7.23
705.87	27.23
705.898	16.23
705.925	4.23
705.953	8.23
705.981	-11.77
706.009	0.23
706.037	10.23
706.065	3.23
706.092	-7.77
706.12	-2.77
706.148	2.23
706.176	3.23
706.204	3.23
706.231	19.23
706.259	-5.77
706.287	-14.77
706.315	-9.77
706.342	1.23
706.37	25.23
706.398	12.23
706.426	-9.77
706.454	12.23
706.481	14.23
706.509	13.23
706.537	4.23
706.565	-10.77
706.592	-7.77
706.62	-4.77
706.648	4.23
706.676	-6.77
706.703	0.23
706.731	-10.77
706.759	-2.77
706.787	5.23
706.814	-5.77
706.842	0.23
706.87	1.23
706.897	1.23
706.925	1.23
706.953	17.23
706.981	13.23
707.008	18.23
707.036	4.23
707.064	0.23
707.091	-9.77
707.119	7.23
707.147	-7.77
707.174	-8.77
707.202	26.23
707.23	2.23
707.258	6.23
707.285	4.23
707.313	0.23
707.341	-0.77
707.368	-4.77
707.396	-0.77
707.424	17.23
707.451	3.23
707.479	14.23
707.507	0.23
707.534	3.23
707.562	12.23
707.59	-2.77
707.617	-20.77
707.645	7.23
707.672	-7.77
707.7	-3.77
707.728	-2.77
707.755	13.23
707.783	-1.77
707.811	-2.77
707.838	10.23
707.866	12.23
707.893	-24.77
707.921	-2.77
707.949	-4.77
707.976	9.23
708.004	14.23
708.031	9.23
708.059	-13.77
708.087	2.23
708.114	4.23
708.142	-3.77
708.169	-16.77
708.197	-7.77
708.225	16.23
708.252	13.23
708.28	27.23
708.307	10.23
708.335	18.23
708.362	14.23
708.39	-2.77
708.418	1.23
708.445	-13.77
708.473	-9.77
708.5	-10.77
708.528	22.23
708.555	5.23
708.583	3.23
708.61	1.23
708.638	13.23
708.665	-0.77
708.693	6.23
708.72	-9.77
708.748	-6.77
708.776	-0.77
708.803	23.23
708.831	10.23
708.858	18.23
708.886	-0.77
708.913	2.23
708.941	3.23
708.968	34.23
708.996	3.23
709.023	22.23
709.051	-8.77
709.078	4.23
709.105	14.23
709.133	-5.77
709.16	13.23
709.188	6.23
709.215	2.23
709.243	5.23
709.27	3.23
709.298	-2.77
709.325	2.23
709.353	0.23
709.38	13.23
709.408	24.23
709.435	9.23
709.462	3.23
709.49	3.23
709.517	-16.77
709.545	-0.77
709.572	2.23
709.6	21.23
709.627	1.23
709.655	-8.77
709.682	-0.77
709.709	-10.77
709.737	-13.77
709.764	-19.77
709.792	10.23
709.819	1.23
709.846	13.23
709.874	8.23
709.901	16.23
709.929	17.23
709.956	9.23
709.983	-4.77
710.011	-12.77
710.038	-7.77
710.066	7.23
710.093	26.23
710.12	16.23
710.148	6.23
710.175	-15.77
710.202	3.23
710.23	-7.77
710.257	-9.77
710.284	4.23
710.312	4.23
710.339	-4.77
710.366	4.23
710.394	-10.77
710.421	4.23
710.448	1.23
710.476	-8.77
710.503	-2.77
710.53	17.23
710.558	17.23
710.585	9.23
710.612	0.23
710.64	11.23
710.667	8.23
710.694	2.23
710.722	-6.77
710.749	7.23
710.776	0.23
710.804	37.23
710.831	-1.77
710.858	-1.77
710.885	-6.77
710.913	1.23
710.94	8.23
710.967	7.23
710.995	-5.77
711.022	-12.77
711.049	4.23
711.076	-0.77
711.104	3.23
711.131	-8.77
711.158	-23.77
711.185	8.23
711.213	-4.77
711.24	-5.77
711.267	11.23
711.294	20.23
711.322	7.23
711.349	-23.77
711.376	-7.77
711.403	17.23
711.431	-2.77
711.458	5.23
711.485	-9.77
711.512	12.23
711.54	4.23
711.567	12.23
711.594	-8.77
711.621	-6.77
711.648	4.23
711.676	3.23
711.703	7.23
711.73	-12.77
711.757	9.23
711.784	0.23
711.812	-0.77
711.839	-2.77
711.866	-11.77
711.893	-6.77
711.92	6.23
711.947	6.23
711.975	9.23
712.002	-2.77
712.029	10.23
712.056	1.23
712.083	17.23
712.11	-12.77
712.138	2.23
712.165	19.23
712.192	6.23
712.219	10.23
712.246	8.23
712.273	-4.77
712.3	-14.77
712.328	0.23
712.355	-9.77
712.382	5.23
712.409	13.23
712.436	-9.77
712.463	21.23
712.49	2.23
712.517	-10.77
712.544	-16.77
712.572	0.23
712.599	-3.77
712.626	20.23
712.653	-1.77
712.68	-8.77
712.707	-1.77
712.734	4.23
712.761	0.23
712.788	6.23
712.815	6.23
712.842	5.23
712.87	5.23
712.897	-15.77
712.924	-23.77
712.951	0.23
712.978	5.23
713.005	2.23
713.032	11.23
713.059	-3.77
713.086	-6.77
713.113	-4.77
713.14	-11.77
713.167	-3.77
713.194	4.23
713.221	2.23
713.248	15.23
713.275	-7.77
713.302	-10.77
713.329	13.23
713.356	23.23
713.383	12.23
713.41	9.23
713.437	-5.77
713.464	11.23
713.491	19.23
713.518	8.23
713.545	-3.77
713.572	-0.77
713.599	21.23
713.626	8.23
713.653	4.23
713.68	-8.77
713.707	-4.77
713.734	12.23
713.761	-14.77
713.788	-4.77
713.815	0.23
713.842	-7.77
713.869	1.23
713.896	8.23
713.923	18.23
713.95	8.23
713.977	2.23
714.004	7.23
714.031	3.23
714.058	2.23
714.085	0.23
714.112	21.23
714.139	4.23
714.165	-3.77
714.192	-5.77
714.219	13.23
714.246	6.23
714.273	-1.77
714.3	12.23
714.327	1.23
714.354	4.23
714.381	1.23
714.408	-3.77
714.435	-5.77
714.461	0.23
714.488	15.23
714.515	6.23
714.542	-2.77
714.569	-11.77
714.596	-13.77
714.623	8.23
714.65	-14.77
714.677	1.23
714.703	-8.77
714.73	6.23
714.757	10.23
714.784	9.23
714.811	2.23
714.838	8.23
714.865	0.23
714.891	6.23
714.918	2.23
714.945	-0.77
714.972	-11.77
714.999	11.23
715.026	-7.77
715.052	16.23
715.079	-3.77
715.106	2.23
715.133	11.23
715.16	-0.77
715.187	0.23
715.213	18.23
715.24	-2.77
715.267	5.23
715.294	-0.77
715.321	4.23
715.347	7.23
715.374	3.23
715.401	8.23
715.428	5.23
715.455	20.23
715.481	-16.77
715.508	5.23
715.535	-3.77
715.562	24.23
715.588	9.23
715.615	-2.77
715.642	-2.77
715.669	18.23
715.695	3.23
715.722	-0.77
715.749	-3.77
715.776	2.23
715.802	4.23
715.829	20.23
715.856	2.23
715.883	16.23
715.909	-6.77
715.936	8.23
715.963	1.23
715.99	-4.77
716.016	2.23
716.043	8.23
716.07	6.23
716.096	-6.77
716.123	14.23
716.15	9.23
716.177	11.23
716.203	18.23
716.23	4.23
716.257	5.23
716.283	0.23
716.31	4.23
716.337	-7.77
716.363	-4.77
716.39	0.23
716.417	21.23
716.443	10.23
716.47	11.23
716.497	5.23
716.523	5.23
716.55	9.23
716.577	19.23
716.603	3.23
716.63	4.23
716.657	12.23
716.683	-3.77
716.71	9.23
716.737	9.23
716.763	7.23
716.79	16.23
716.817	27.23
716.843	0.23
716.87	-10.77
716.897	-4.77
716.923	20.23
716.95	-3.77
716.976	-9.77
717.003	9.23
717.03	8.23
717.056	16.23
717.083	6.23
717.109	1.23
717.136	9.23
717.163	-2.77
717.189	-3.77
717.216	-10.77
717.242	-5.77
717.269	14.23
717.296	8.23
717.322	13.23
717.349	8.23
717.375	9.23
717.402	-0.77
717.428	9.23
717.455	10.23
717.481	12.23
717.508	10.23
717.535	12.23
717.561	4.23
717.588	3.23
717.614	3.23
717.641	-7.77
717.667	9.23
717.694	0.23
717.72	3.23
717.747	0.23
717.773	-5.77
717.8	8.23
717.826	-4.77
717.853	12.23
717.88	7.23
717.906	10.23
717.933	5.23
717.959	-1.77
717.986	9.23
718.012	-11.77
718.039	8.23
718.065	9.23
718.092	14.23
718.118	4.23
718.144	-6.77
718.171	14.23
718.197	27.23
718.224	6.23
718.25	6.23
718.277	13.23
718.303	20.23
718.33	-7.77
718.356	-2.77
718.383	-10.77
718.409	2.23
718.436	7.23
718.462	3.23
718.489	-4.77
718.515	17.23
718.541	3.23
718.568	-5.77
718.594	-2.77
718.621	17.23
718.647	-4.77
718.674	0.23
718.7	22.23
718.726	3.23
718.753	1.23
718.779	2.23
718.806	-7.77
718.832	3.23
718.858	9.23
718.885	1.23
718.911	-3.77
718.938	4.23
718.964	-2.77
718.99	16.23
719.017	14.23
719.043	21.23
719.07	3.23
719.096	-5.77
719.122	11.23
719.149	8.23
719.175	7.23
719.201	18.23
719.228	35.23
719.254	10.23
719.281	-2.77
719.307	-5.77
719.333	-0.77
719.36	20.23
719.386	-11.77
719.412	4.23
719.439	-8.77
719.465	7.23
719.491	-8.77
719.518	20.23
719.544	14.23
719.57	21.23
719.597	-3.77
719.623	-7.77
719.649	16.23
719.675	6.23
719.702	2.23
719.728	12.23
719.754	4.23
719.781	-6.77
719.807	0.23
719.833	8.23
719.86	10.23
719.886	21.23
719.912	7.23
719.938	-2.77
719.965	2.23
719.991	11.23
720.017	10.23
720.044	-3.77
720.07	2.23
720.096	5.23
720.122	-2.77
720.149	6.23
720.175	36.23
720.201	7.23
720.227	10.23
720.254	15.23
720.28	2.23
720.306	-3.77
720.332	-9.77
720.359	11.23
720.385	26.23
720.411	4.23
720.437	11.23
720.463	12.23
720.49	5.23
720.516	-0.77
720.542	-0.77
720.568	10.23
720.595	13.23
720.621	4.23
720.647	6.23
720.673	3.23
720.699	-3.77
720.725	7.23
720.752	10.23
720.778	8.23
720.804	-4.77
720.83	-2.77
720.856	10.23
720.883	9.23
720.909	-1.77
720.935	15.23
720.961	22.23
720.987	3.23
721.013	6.23
721.04	7.23
721.066	-1.77
721.092	0.23
721.118	13.23
721.144	19.23
721.17	8.23
721.196	2.23
721.223	-8.77
721.249	-4.77
721.275	18.23
721.301	11.23
721.327	0.23
721.353	11.23
721.379	16.23
721.405	22.23
721.432	15.23
721.458	9.23
721.484	21.23
721.51	-7.77
721.536	9.23
721.562	8.23
721.588	-12.77
721.614	-19.77
721.64	6.23
721.666	9.23
721.693	-6.77
721.719	14.23
721.745	-1.77
721.771	-15.77
721.797	9.23
721.823	3.23
721.849	37.23
721.875	14.23
721.901	-3.77
721.927	-2.77
721.953	5.23
721.979	12.23
722.005	-0.77
722.031	-6.77
722.057	-4.77
722.083	0.23
722.109	15.23
722.135	20.23
722.161	8.23
722.187	10.23
722.214	7.23
722.24	4.23
722.266	-7.77
722.292	13.23
722.318	20.23
722.344	10.23
722.37	16.23
722.396	3.23
722.422	4.23
722.448	3.23
722.474	-5.77
722.5	11.23
722.526	15.23
722.552	0.23
722.578	9.23
722.603	25.23
722.629	3.23
722.655	16.23
722.681	0.23
722.707	8.23
722.733	4.23
722.759	-8.77
722.785	1.23
722.811	24.23
722.837	12.23
722.863	10.23
722.889	21.23
722.915	12.23
722.941	13.23
722.967	6.23
722.993	10.23
723.019	10.23
723.045	7.23
723.071	16.23
723.097	-2.77
723.122	-6.77
723.148	8.23
723.174	-9.77
723.2	9.23
723.226	-5.77
723.252	-4.77
723.278	-2.77
723.304	-2.77
723.33	10.23
723.356	-2.77
723.381	8.23
723.407	-15.77
723.433	24.23
723.459	-1.77
723.485	2.23
723.511	18.23
723.537	-6.77
723.563	0.23
723.588	-3.77
723.614	16.23
723.64	-5.77
723.666	11.23
723.692	11.23
723.718	-3.77
723.744	7.23
723.769	-2.77
723.795	-3.77
723.821	4.23
723.847	0.23
723.873	14.23
723.899	1.23
723.924	2.23
723.95	-5.77
723.976	0.23
724.002	13.23
724.028	7.23
724.053	3.23
724.079	0.23
724.105	-4.77
724.131	3.23
724.157	4.23
724.182	7.23
724.208	-3.77
724.234	9.23
724.26	-3.77
724.286	4.23
724.311	0.23
724.337	-9.77
724.363	-5.77
724.389	15.23
724.415	0.23
724.44	14.23
724.466	11.23
724.492	10.23
724.518	18.23
724.543	0.23
724.569	10.23
724.595	-2.77
724.621	1.23
724.646	15.23
724.672	-1.77
724.698	-6.77
724.723	6.23
724.749	8.23
724.775	8.23
724.801	-2.77
724.826	0.23
724.852	-4.77
724.878	0.23
724.904	-6.77
724.929	-7.77
724.955	2.23
724.981	13.23
725.006	11.23
725.032	3.23
725.058	11.23
725.083	5.23
725.109	-12.77
725.135	1.23
725.161	16.23
725.186	-3.77
725.212	-2.77
725.238	9.23
725.263	7.23
725.289	6.23
725.315	1.23
725.34	0.23
725.366	0.23
725.392	4.23
725.417	2.23
725.443	-2.77
725.468	0.23
725.494	23.23
725.52	-1.77
725.545	-14.77
725.571	-7.77
725.597	-10.77
725.622	-0.77
725.648	9.23
725.674	19.23
725.699	0.23
725.725	3.23
725.75	25.23
725.776	-0.77
725.802	-1.77
725.827	10.23
725.853	7.23
725.878	19.23
725.904	-3.77
725.93	-3.77
725.955	-3.77
725.981	11.23
726.006	4.23
726.032	10.23
726.057	-2.77
726.083	-15.77
726.109	-3.77
726.134	-3.77
726.16	3.23
726.185	2.23
726.211	2.23
726.236	13.23
726.262	-0.77
726.288	1.23
726.313	14.23
726.339	12.23
726.364	3.23
726.39	11.23
726.415	-0.77
726.441	-3.77
726.466	-6.77
726.492	11.23
726.517	14.23
726.543	0.23
726.568	12.23
726.594	16.23
726.619	17.23
726.645	-0.77
726.67	12.23
726.696	13.23
726.721	-8.77
726.747	-7.77
726.772	11.23
726.798	-4.77
726.823	6.23
726.849	10.23
726.874	5.23
726.9	28.23
726.925	20.23
726.951	21.23
726.976	7.23
727.002	-0.77
727.027	10.23
727.053	29.23
727.078	-7.77
727.104	6.23
727.129	-13.77
727.155	-11.77
727.18	-1.77
727.205	8.23
727.231	8.23
727.256	3.23
727.282	7.23
727.307	29.23
727.333	-2.77
727.358	-3.77
727.383	-8.77
727.409	10.23
727.434	9.23
727.46	7.23
727.485	7.23
727.511	11.23
727.536	-16.77
727.561	-9.77
727.587	-8.77
727.612	-7.77
727.637	14.23
727.663	0.23
727.688	24.23
727.714	0.23
727.739	-9.77
727.764	-8.77
727.79	0.23
727.815	12.23
727.841	10.23
727.866	14.23
727.891	6.23
727.917	2.23
727.942	2.23
727.967	3.23
727.993	-11.77
728.018	-4.77
728.043	11.23
728.069	-3.77
728.094	18.23
728.119	-2.77
728.145	11.23
728.17	8.23
728.195	-1.77
728.221	-3.77
728.246	-8.77
728.271	-3.77
728.297	4.23
728.322	14.23
728.347	16.23
728.373	8.23
728.398	4.23
728.423	11.23
728.448	17.23
728.474	11.23
728.499	8.23
728.524	-19.77
728.55	-11.77
728.575	-11.77
728.6	5.23
728.625	-2.77
728.651	6.23
728.676	-4.77
728.701	-5.77
728.727	-2.77
728.752	0.23
728.777	-13.77
728.802	3.23
728.828	15.23
728.853	8.23
728.878	0.23
728.903	-6.77
728.929	0.23
728.954	4.23
728.979	17.23
729.004	-0.77
729.03	-9.77
729.055	11.23
729.08	-18.77
729.105	12.23
729.13	9.23
729.156	1.23
729.181	11.23
729.206	0.23
729.231	-12.77
729.256	9.23
729.282	6.23
729.307	-10.77
729.332	-9.77
729.357	-16.77
729.382	0.23
729.408	8.23
729.433	5.23
729.458	26.23
729.483	16.23
729.508	27.23
729.533	2.23
729.559	2.23
729.584	-3.77
729.609	4.23
729.634	8.23
729.659	3.23
729.684	-16.77
729.71	9.23
729.735	4.23
729.76	4.23
729.785	5.23
729.81	23.23
729.835	-11.77
729.86	-1.77
729.886	1.23
729.911	8.23
729.936	14.23
729.961	12.23
729.986	22.23
730.011	77.23
730.036	209.23
730.061	1000.23
730.086	2733.23
730.112	3413.23
730.137	2834.23
730.162	2111.23
730.187	1632.23
730.212	1277.23
730.237	827.23
730.262	453.23
730.287	224.23
730.312	146.23
730.337	64.23
730.362	55.23
730.387	29.23
730.413	18.23
730.438	8.23
730.463	16.23
730.488	20.23
730.513	26.23
730.538	16.23
730.563	35.23
730.588	3.23
730.613	25.23
730.638	13.23
730.663	3.23
730.688	26.23
730.713	4.23
730.738	14.23
730.763	-1.77
730.788	-4.77
730.813	16.23
730.838	4.23
730.863	-4.77
730.888	-3.77
730.913	-6.77
730.938	3.23
730.963	34.23
730.988	118.23
731.013	432.23
731.038	623.23
731.063	588.23
731.088	469.23
731.113	328.23
731.138	276.23
731.163	189.23
731.188	107.23
731.213	59.23
731.238	32.23
731.263	17.23
731.288	0.23
731.313	12.23
731.338	-5.77
731.363	7.23
731.388	8.23
731.413	-6.77
731.438	14.23
731.463	6.23
731.487	9.23
731.512	8.23
731.537	-3.77
731.562	-0.77
731.587	-2.77
731.612	-6.77
731.637	-13.77
731.662	10.23
731.687	-4.77
731.712	-13.77
731.737	7.23
731.762	-8.77
731.786	-0.77
731.811	0.23
731.836	3.23
731.861	-1.77
731.886	-3.77
731.911	1.23
731.936	10.23
731.961	-0.77
731.986	-4.77
732.01	4.23
732.035	13.23
732.06	12.23
732.085	2.23
732.11	1.23
732.135	-11.77
732.16	10.23
732.184	-5.77
732.209	4.23
732.234	15.23
732.259	-13.77
732.284	11.23
732.309	-12.77
732.334	0.23
732.358	-6.77
732.383	-7.77
732.408	2.23
732.433	10.23
732.458	8.23
732.482	3.23
732.507	-5.77
732.532	4.23
732.557	26.23
732.582	16.23
732.607	22.23
732.631	58.23
732.656	96.23
732.681	175.23
732.706	322.23
732.73	466.23
732.755	400.23
732.78	295.23
732.805	243.23
732.83	188.23
732.854	134.23
732.879	77.23
732.904	35.23
732.929	18.23
732.953	28.23
732.978	20.23
733.003	2.23
733.028	3.23
733.052	17.23
733.077	5.23
733.102	17.23
733.127	-6.77
733.151	-6.77
733.176	20.23
733.201	-4.77
733.226	-11.77
733.25	4.23
733.275	4.23
733.3	1.23
733.324	23.23
733.349	-0.77
733.374	11.23
733.399	13.23
733.423	-8.77
733.448	-9.77
733.473	-7.77
733.497	-6.77
733.522	-5.77
733.547	16.23
733.571	19.23
733.596	-1.77
733.621	10.23
733.646	15.23
733.67	6.23
733.695	-15.77
733.72	7.23
733.744	1.23
733.769	3.23
733.794	14.23
733.818	-9.77
733.843	1.23
733.867	-19.77
733.892	-7.77
733.917	4.23
733.941	-2.77
733.966	-0.77
733.991	2.23
734.015	9.23
734.04	-0.77
734.065	16.23
734.089	13.23
734.114	8.23
734.138	21.23
734.163	-1.77
734.188	23.23
734.212	3.23
734.237	14.23
734.261	3.23
734.286	-3.77
734.311	-2.77
734.335	-6.77
734.36	-3.77
734.384	-1.77
734.409	7.23
734.434	-8.77
734.458	8.23
734.483	-0.77
734.507	-4.77
734.532	-8.77
734.556	13.23
734.581	-3.77
734.606	2.23
734.63	-4.77
734.655	17.23
734.679	-5.77
734.704	11.23
734.728	10.23
734.753	-2.77
734.777	0.23
734.802	-7.77
734.826	-7.77
734.851	2.23
734.876	1.23
734.9	10.23
734.925	22.23
734.949	10.23
734.974	4.23
734.998	-1.77
735.023	-3.77
735.047	5.23
735.072	10.23
735.096	1.23
735.121	5.23
735.145	4.23
735.17	3.23
735.194	15.23
735.219	4.23
735.243	9.23
735.268	8.23
735.292	0.23
735.317	-0.77
735.341	15.23
735.365	-13.77
735.39	6.23
735.414	4.23
735.439	6.23
735.463	-4.77
735.488	7.23
735.512	-5.77
735.537	-2.77
735.561	3.23
735.586	8.23
735.61	9.23
735.634	7.23
735.659	-7.77
735.683	12.23
735.708	-5.77
735.732	6.23
735.757	7.23
735.781	0.23
735.805	-2.77
735.83	-4.77
735.854	-15.77
735.879	7.23
735.903	15.23
735.927	0.23
735.952	9.23
735.976	4.23
736.001	-9.77
736.025	-10.77
736.049	3.23
736.074	2.23
736.098	7.23
736.123	5.23
736.147	3.23
736.171	1.23
736.196	0.23
736.22	-9.77
736.244	-1.77
736.269	4.23
736.293	1.23
736.317	-2.77
736.342	-0.77
736.366	27.23
736.39	28.23
736.415	20.23
736.439	15.23
736.463	14.23
736.488	11.23
736.512	7.23
736.536	8.23
736.561	32.23
736.585	-0.77
736.609	15.23
736.634	-2.77
736.658	-12.77
736.682	-9.77
736.707	2.23
736.731	1.23
736.755	-5.77
736.78	5.23
736.804	-0.77
736.828	-2.77
736.852	-3.77
736.877	-4.77
736.901	-2.77
736.925	-3.77
736.949	12.23
736.974	-0.77
736.998	-15.77
737.022	-3.77
737.047	14.23
737.071	12.23
737.095	11.23
737.119	9.23
737.144	16.23
737.168	5.23
737.192	-3.77
737.216	-4.77
737.241	-0.77
737.265	18.23
737.289	5.23
737.313	2.23
737.337	11.23
737.362	6.23
737.386	9.23
737.41	4.23
737.434	0.23
737.459	-3.77
737.483	15.23
737.507	31.23
737.531	7.23
737.555	17.23
737.58	16.23
737.604	-4.77
737.628	-10.77
737.652	1.23
737.676	-0.77
737.701	4.23
737.725	6.23
737.749	6.23
737.773	0.23
737.797	-10.77
737.821	-3.77
737.846	7.23
737.87	36.23
737.894	16.23
737.918	0.23
737.942	-7.77
737.966	23.23
737.99	8.23
738.015	3.23
738.039	-0.77
738.063	5.23
738.087	22.23
738.111	1.23
738.135	24.23
738.159	9.23
738.184	16.23
738.208	12.23
738.232	0.23
738.256	28.23
738.28	23.23
738.304	10.23
738.328	6.23
738.352	26.23
738.376	-7.77
738.4	10.23
738.425	8.23
738.449	-2.77
738.473	13.23
738.497	12.23
738.521	23.23
738.545	17.23
738.569	21.23
738.593	10.23
738.617	10.23
738.641	-9.77
738.665	3.23
738.689	7.23
738.713	0.23
738.737	11.23
738.762	15.23
738.786	8.23
738.81	-23.77
738.834	10.23
738.858	-3.77
738.882	-3.77
738.906	0.23
738.93	1.23
738.954	2.23
738.978	20.23
739.002	-8.77
739.026	6.23
739.05	10.23
739.074	-1.77
739.098	22.23
739.122	24.23
739.146	10.23
739.17	20.23
739.194	15.23
739.218	7.23
739.242	18.23
739.266	0.23
739.29	8.23
739.314	26.23
739.338	6.23
739.362	9.23
739.386	8.23
739.41	12.23
739.434	4.23
739.458	14.23
739.482	8.23
739.506	7.23
739.53	20.23
739.554	13.23
739.577	4.23
739.601	17.23
739.625	-4.77
739.649	-4.77
739.673	1.23
739.697	18.23
739.721	3.23
739.745	14.23
739.769	13.23
739.793	17.23
739.817	10.23
739.841	-3.77
739.865	8.23
739.889	-11.77
739.912	15.23
739.936	9.23
739.96	4.23
739.984	8.23
740.008	-1.77
740.032	-6.77
740.056	-6.77
740.08	-1.77
740.104	3.23
740.127	14.23
740.151	27.23
740.175	26.23
740.199	19.23
740.223	53.23
740.247	9.23
740.271	3.23
740.295	-0.77
740.318	-4.77
740.342	-4.77
740.366	3.23
740.39	11.23
740.414	-2.77
740.438	1.23
740.461	25.23
740.485	10.23
740.509	9.23
740.533	7.23
740.557	2.23
740.581	7.23
740.604	-13.77
740.628	-2.77
740.652	26.23
740.676	13.23
740.7	12.23
740.723	10.23
740.747	5.23
740.771	6.23
740.795	-13.77
740.819	3.23
740.842	16.23
740.866	12.23
740.89	14.23
740.914	-0.77
740.938	-5.77
740.961	16.23
740.985	21.23
741.009	0.23
741.033	7.23
741.056	13.23
741.08	-4.77
741.104	8.23
741.128	-0.77
741.151	10.23
741.175	8.23
741.199	5.23
741.223	29.23
741.246	-12.77
741.27	5.23
741.294	21.23
741.318	4.23
741.341	14.23
741.365	10.23
741.389	-0.77
741.413	15.23
741.436	27.23
741.46	7.23
741.484	22.23
741.507	-5.77
741.531	11.23
741.555	15.23
741.579	-0.77
741.602	-0.77
741.626	12.23
741.65	-9.77
741.673	9.23
741.697	0.23
741.721	7.23
741.744	-8.77
741.768	-2.77
741.792	5.23
741.815	11.23
741.839	22.23
741.863	15.23
741.886	19.23
741.91	19.23
741.934	21.23
741.957	-24.77
741.981	-2.77
742.005	-0.77
742.028	4.23
742.052	13.23
742.075	19.23
742.099	12.23
742.123	-5.77
742.146	-6.77
742.17	14.23
742.194	8.23
742.217	10.23
742.241	15.23
742.264	9.23
742.288	15.23
742.312	1.23
742.335	3.23
742.359	9.23
742.382	26.23
742.406	16.23
742.43	-3.77
742.453	13.23
742.477	16.23
742.5	-3.77
742.524	-3.77
742.548	-9.77
742.571	12.23
742.595	6.23
742.618	-1.77
742.642	8.23
742.665	7.23
742.689	-2.77
742.712	17.23
742.736	1.23
742.76	10.23
742.783	2.23
742.807	17.23
742.83	15.23
742.854	-14.77
742.877	0.23
742.901	2.23
742.924	-15.77
742.948	11.23
742.971	24.23
742.995	3.23
743.018	-11.77
743.042	-13.77
743.065	9.23
743.089	9.23
743.112	12.23
743.136	7.23
743.159	-7.77
743.183	11.23
743.206	2.23
743.23	9.23
743.253	3.23
743.277	4.23
743.3	6.23
743.324	-4.77
743.347	5.23
743.371	32.23
743.394	15.23
743.418	19.23
743.441	22.23
743.465	27.23
743.488	10.23
743.512	6.23
743.535	2.23
743.558	4.23
743.582	13.23
743.605	11.23
743.629	9.23
743.652	8.23
743.676	10.23
743.699	22.23
743.723	12.23
743.746	20.23
743.769	0.23
743.793	8.23
743.816	-1.77
743.84	15.23
743.863	-0.77
743.886	9.23
743.91	22.23
743.933	16.23
743.957	9.23
743.98	1.23
744.003	10.23
744.027	6.23
744.05	1.23
744.074	2.23
744.097	-15.77
744.12	-6.77
744.144	-6.77
744.167	12.23
744.19	-1.77
744.214	-4.77
744.237	-2.77
744.26	28.23
744.284	-1.77
744.307	-6.77
744.331	12.23
744.354	11.23
744.377	0.23
744.401	3.23
744.424	-20.77
744.447	-11.77
744.471	-29.77
