Data from HighRes_mercury_15_13_11_07_2024_HR4C61891__79__15-14-31-085.txt Node

Date: Thu Nov 07 15:14:31 EST 2024
User: crc00042
Spectrometer: HR4C6189
Trigger mode: 4
Integration Time (sec): 1.000000E-1
Scans to average: 1
Electric dark correction enabled: true
Nonlinearity correction enabled: false
Boxcar width: 0
XAxis mode: Wavelengths
Number of Pixels in Spectrum: 3648
>>>>>Begin Spectral Data<<<<<
639.567	-39.38
639.602	-39.38
639.636	-39.38
639.67	-30.38
639.704	2.62
639.738	-5.38
639.773	11.62
639.807	-12.38
639.841	3.62
639.875	15.62
639.909	-8.38
639.943	-10.38
639.978	-5.38
640.012	6.62
640.046	0.62
640.08	1.62
640.114	4.62
640.148	-2.38
640.182	-6.38
640.217	-4.38
640.251	31.62
640.285	14.62
640.319	-1.38
640.353	-4.38
640.387	6.62
640.421	-5.38
640.455	6.62
640.49	7.62
640.524	-7.38
640.558	15.62
640.592	9.62
640.626	1.62
640.66	20.62
640.694	-6.38
640.728	13.62
640.762	-0.38
640.796	16.62
640.83	0.62
640.865	-9.38
640.899	1.62
640.933	-2.38
640.967	-2.38
641.001	0.62
641.035	-1.38
641.069	4.62
641.103	-16.38
641.137	-9.38
641.171	-17.38
641.205	15.62
641.239	-2.38
641.273	-0.38
641.307	5.62
641.341	7.62
641.375	14.62
641.409	1.62
641.443	-6.38
641.477	0.62
641.511	1.62
641.545	2.62
641.579	-0.38
641.614	7.62
641.648	18.62
641.682	-3.38
641.716	6.62
641.75	16.62
641.784	2.62
641.818	-5.38
641.852	5.62
641.886	-1.38
641.919	28.62
641.953	-9.38
641.987	-30.38
642.021	4.62
642.055	5.62
642.089	13.62
642.123	-10.38
642.157	-0.38
642.191	1.62
642.225	5.62
642.259	5.62
642.293	-2.38
642.327	1.62
642.361	-10.38
642.395	-3.38
642.429	14.62
642.463	1.62
642.497	-13.38
642.531	-0.38
642.565	-10.38
642.599	10.62
642.633	-13.38
642.666	2.62
642.7	1.62
642.734	7.62
642.768	6.62
642.802	3.62
642.836	5.62
642.87	-1.38
642.904	3.62
642.938	8.62
642.972	0.62
643.005	17.62
643.039	3.62
643.073	0.62
643.107	9.62
643.141	1.62
643.175	8.62
643.209	7.62
643.243	12.62
643.276	3.62
643.31	2.62
643.344	5.62
643.378	4.62
643.412	5.62
643.446	6.62
643.48	-9.38
643.513	-5.38
643.547	-1.38
643.581	7.62
643.615	14.62
643.649	-6.38
643.683	-6.38
643.716	-1.38
643.75	-2.38
643.784	-23.38
643.818	7.62
643.852	-8.38
643.886	-2.38
643.919	2.62
643.953	11.62
643.987	16.62
644.021	13.62
644.055	12.62
644.088	-2.38
644.122	-2.38
644.156	-3.38
644.19	-0.38
644.224	6.62
644.257	-2.38
644.291	20.62
644.325	7.62
644.359	-7.38
644.392	23.62
644.426	19.62
644.46	-1.38
644.494	10.62
644.527	-11.38
644.561	-9.38
644.595	5.62
644.629	1.62
644.662	-12.38
644.696	7.62
644.73	6.62
644.764	0.62
644.797	-11.38
644.831	-6.38
644.865	10.62
644.899	11.62
644.932	25.62
644.966	7.62
645	17.62
645.033	13.62
645.067	-4.38
645.101	10.62
645.135	6.62
645.168	-4.38
645.202	-2.38
645.236	7.62
645.269	0.62
645.303	-1.38
645.337	-4.38
645.37	-5.38
645.404	-1.38
645.438	-15.38
645.471	-3.38
645.505	-3.38
645.539	-8.38
645.572	-22.38
645.606	-13.38
645.64	9.62
645.673	9.62
645.707	14.62
645.741	-7.38
645.774	-18.38
645.808	9.62
645.842	-1.38
645.875	-6.38
645.909	-12.38
645.943	-5.38
645.976	6.62
646.01	-2.38
646.043	10.62
646.077	3.62
646.111	1.62
646.144	6.62
646.178	17.62
646.212	-21.38
646.245	-12.38
646.279	15.62
646.312	19.62
646.346	23.62
646.38	1.62
646.413	4.62
646.447	10.62
646.48	8.62
646.514	15.62
646.547	11.62
646.581	-12.38
646.615	6.62
646.648	-14.38
646.682	-13.38
646.715	-19.38
646.749	11.62
646.782	-11.38
646.816	-2.38
646.85	1.62
646.883	-0.38
646.917	14.62
646.95	10.62
646.984	6.62
647.017	-7.38
647.051	-1.38
647.084	-2.38
647.118	-1.38
647.151	-11.38
647.185	7.62
647.218	-6.38
647.252	2.62
647.285	-16.38
647.319	-17.38
647.353	1.62
647.386	7.62
647.42	10.62
647.453	-11.38
647.487	5.62
647.52	-2.38
647.553	8.62
647.587	3.62
647.62	-2.38
647.654	4.62
647.687	-6.38
647.721	9.62
647.754	2.62
647.788	7.62
647.821	-1.38
647.855	-7.38
647.888	11.62
647.922	-1.38
647.955	2.62
647.989	-0.38
648.022	-8.38
648.055	6.62
648.089	1.62
648.122	21.62
648.156	10.62
648.189	-5.38
648.223	2.62
648.256	30.62
648.29	5.62
648.323	3.62
648.356	27.62
648.39	10.62
648.423	1.62
648.457	-7.38
648.49	14.62
648.523	18.62
648.557	2.62
648.59	-8.38
648.624	-6.38
648.657	19.62
648.69	12.62
648.724	6.62
648.757	5.62
648.791	0.62
648.824	9.62
648.857	19.62
648.891	14.62
648.924	11.62
648.957	14.62
648.991	-15.38
649.024	7.62
649.057	-4.38
649.091	2.62
649.124	5.62
649.158	6.62
649.191	7.62
649.224	2.62
649.258	29.62
649.291	0.62
649.324	1.62
649.358	13.62
649.391	11.62
649.424	20.62
649.458	-5.38
649.491	5.62
649.524	-12.38
649.557	-23.38
649.591	-22.38
649.624	-6.38
649.657	-14.38
649.691	-10.38
649.724	0.62
649.757	-0.38
649.791	-5.38
649.824	6.62
649.857	0.62
649.89	15.62
649.924	-15.38
649.957	-0.38
649.99	-4.38
650.023	-9.38
650.057	-11.38
650.09	-9.38
650.123	8.62
650.157	15.62
650.19	17.62
650.223	-7.38
650.256	-19.38
650.29	-17.38
650.323	-15.38
650.356	-1.38
650.389	-3.38
650.423	-13.38
650.456	0.62
650.489	-2.38
650.522	10.62
650.555	22.62
650.589	23.62
650.622	11.62
650.655	20.62
650.688	3.62
650.721	-9.38
650.755	-6.38
650.788	7.62
650.821	7.62
650.854	-7.38
650.887	4.62
650.921	-6.38
650.954	5.62
650.987	2.62
651.02	-9.38
651.053	-10.38
651.087	2.62
651.12	26.62
651.153	21.62
651.186	15.62
651.219	13.62
651.252	19.62
651.286	1.62
651.319	15.62
651.352	-9.38
651.385	-4.38
651.418	-0.38
651.451	13.62
651.484	12.62
651.518	-3.38
651.551	20.62
651.584	-5.38
651.617	29.62
651.65	10.62
651.683	8.62
651.716	-0.38
651.749	-14.38
651.783	-5.38
651.816	8.62
651.849	6.62
651.882	21.62
651.915	-9.38
651.948	18.62
651.981	-9.38
652.014	-6.38
652.047	1.62
652.08	-8.38
652.114	10.62
652.147	-2.38
652.18	21.62
652.213	34.62
652.246	5.62
652.279	-2.38
652.312	16.62
652.345	-13.38
652.378	-2.38
652.411	8.62
652.444	9.62
652.477	-9.38
652.51	-14.38
652.543	-12.38
652.576	2.62
652.609	-5.38
652.642	4.62
652.675	20.62
652.709	-0.38
652.742	5.62
652.775	3.62
652.808	12.62
652.841	7.62
652.874	-2.38
652.907	-2.38
652.94	-8.38
652.973	-16.38
653.006	-17.38
653.039	7.62
653.072	6.62
653.105	-1.38
653.138	-16.38
653.171	-4.38
653.204	-3.38
653.237	13.62
653.27	-19.38
653.303	-1.38
653.336	5.62
653.368	2.62
653.401	13.62
653.434	1.62
653.467	10.62
653.5	-10.38
653.533	-22.38
653.566	-10.38
653.599	9.62
653.632	1.62
653.665	-0.38
653.698	-5.38
653.731	-2.38
653.764	11.62
653.797	1.62
653.83	1.62
653.863	-1.38
653.896	3.62
653.929	2.62
653.961	12.62
653.994	-0.38
654.027	-14.38
654.06	9.62
654.093	11.62
654.126	8.62
654.159	-6.38
654.192	1.62
654.225	7.62
654.258	6.62
654.29	-6.38
654.323	11.62
654.356	12.62
654.389	13.62
654.422	-5.38
654.455	-0.38
654.488	-2.38
654.521	-21.38
654.553	-26.38
654.586	19.62
654.619	4.62
654.652	-1.38
654.685	12.62
654.718	19.62
654.751	0.62
654.783	-9.38
654.816	5.62
654.849	1.62
654.882	-12.38
654.915	-15.38
654.948	-2.38
654.98	-1.38
655.013	1.62
655.046	-23.38
655.079	4.62
655.112	-3.38
655.144	-2.38
655.177	9.62
655.21	13.62
655.243	9.62
655.276	1.62
655.308	3.62
655.341	-10.38
655.374	-10.38
655.407	-11.38
655.44	-12.38
655.472	4.62
655.505	0.62
655.538	8.62
655.571	0.62
655.603	5.62
655.636	-15.38
655.669	9.62
655.702	-6.38
655.734	-18.38
655.767	-15.38
655.8	2.62
655.833	-3.38
655.865	-0.38
655.898	-8.38
655.931	-19.38
655.964	5.62
655.996	21.62
656.029	0.62
656.062	-1.38
656.095	-1.38
656.127	-18.38
656.16	-9.38
656.193	-8.38
656.225	12.62
656.258	3.62
656.291	-3.38
656.324	1.62
656.356	24.62
656.389	5.62
656.422	-1.38
656.454	-14.38
656.487	-3.38
656.52	4.62
656.552	3.62
656.585	0.62
656.618	-2.38
656.65	6.62
656.683	-4.38
656.716	-12.38
656.748	-0.38
656.781	0.62
656.814	-7.38
656.846	16.62
656.879	-6.38
656.912	5.62
656.944	-33.38
656.977	-10.38
657.01	-23.38
657.042	10.62
657.075	20.62
657.108	17.62
657.14	21.62
657.173	9.62
657.205	25.62
657.238	11.62
657.271	-0.38
657.303	1.62
657.336	1.62
657.369	-2.38
657.401	-5.38
657.434	10.62
657.466	7.62
657.499	-7.38
657.532	-15.38
657.564	14.62
657.597	-2.38
657.629	3.62
657.662	15.62
657.694	0.62
657.727	-16.38
657.76	4.62
657.792	-4.38
657.825	-8.38
657.857	-3.38
657.89	3.62
657.922	20.62
657.955	-25.38
657.987	24.62
658.02	10.62
658.053	8.62
658.085	-3.38
658.118	-4.38
658.15	16.62
658.183	14.62
658.215	-13.38
658.248	-12.38
658.28	-9.38
658.313	17.62
658.345	11.62
658.378	10.62
658.41	-6.38
658.443	6.62
658.475	7.62
658.508	-0.38
658.54	-4.38
658.573	-25.38
658.605	8.62
658.638	-9.38
658.67	-3.38
658.703	2.62
658.735	-12.38
658.768	5.62
658.8	0.62
658.833	9.62
658.865	12.62
658.898	1.62
658.93	-9.38
658.963	5.62
658.995	-20.38
659.028	-6.38
659.06	-0.38
659.092	4.62
659.125	-13.38
659.157	7.62
659.19	-14.38
659.222	-1.38
659.255	2.62
659.287	-10.38
659.32	-6.38
659.352	-6.38
659.384	4.62
659.417	0.62
659.449	-0.38
659.482	2.62
659.514	-2.38
659.546	7.62
659.579	-6.38
659.611	-5.38
659.644	-0.38
659.676	-9.38
659.708	3.62
659.741	-3.38
659.773	12.62
659.806	15.62
659.838	12.62
659.87	5.62
659.903	1.62
659.935	3.62
659.967	7.62
660	13.62
660.032	-24.38
660.065	16.62
660.097	9.62
660.129	-1.38
660.162	-18.38
660.194	16.62
660.226	18.62
660.259	16.62
660.291	5.62
660.323	6.62
660.356	-2.38
660.388	-0.38
660.42	-2.38
660.453	20.62
660.485	9.62
660.517	2.62
660.55	10.62
660.582	3.62
660.614	8.62
660.647	-4.38
660.679	-13.38
660.711	-2.38
660.743	-1.38
660.776	-15.38
660.808	1.62
660.84	3.62
660.873	-2.38
660.905	-13.38
660.937	-6.38
660.969	2.62
661.002	5.62
661.034	5.62
661.066	-1.38
661.099	21.62
661.131	3.62
661.163	6.62
661.195	4.62
661.228	4.62
661.26	0.62
661.292	-8.38
661.324	-1.38
661.357	4.62
661.389	6.62
661.421	10.62
661.453	0.62
661.485	-2.38
661.518	-5.38
661.55	-16.38
661.582	-25.38
661.614	-9.38
661.647	21.62
661.679	6.62
661.711	1.62
661.743	-2.38
661.775	-7.38
661.808	18.62
661.84	-1.38
661.872	11.62
661.904	10.62
661.936	-0.38
661.969	-17.38
662.001	2.62
662.033	-15.38
662.065	-0.38
662.097	25.62
662.129	5.62
662.162	2.62
662.194	14.62
662.226	-2.38
662.258	26.62
662.29	-0.38
662.322	-6.38
662.355	0.62
662.387	22.62
662.419	7.62
662.451	3.62
662.483	0.62
662.515	5.62
662.547	8.62
662.58	-2.38
662.612	-12.38
662.644	-16.38
662.676	6.62
662.708	15.62
662.74	-0.38
662.772	-6.38
662.804	14.62
662.836	1.62
662.869	-2.38
662.901	17.62
662.933	-13.38
662.965	1.62
662.997	-0.38
663.029	-1.38
663.061	-0.38
663.093	-5.38
663.125	5.62
663.157	-5.38
663.189	0.62
663.221	18.62
663.254	-2.38
663.286	-15.38
663.318	-8.38
663.35	-15.38
663.382	3.62
663.414	19.62
663.446	8.62
663.478	3.62
663.51	25.62
663.542	-3.38
663.574	-11.38
663.606	-14.38
663.638	-32.38
663.67	-1.38
663.702	6.62
663.734	5.62
663.766	1.62
663.798	-20.38
663.83	-26.38
663.862	-6.38
663.894	-2.38
663.926	-5.38
663.958	8.62
663.99	12.62
664.022	-9.38
664.054	9.62
664.086	-0.38
664.118	-5.38
664.15	-5.38
664.182	0.62
664.214	-0.38
664.246	-6.38
664.278	1.62
664.31	19.62
664.342	-0.38
664.374	-0.38
664.406	10.62
664.438	6.62
664.47	6.62
664.502	-8.38
664.534	-13.38
664.566	-3.38
664.598	19.62
664.63	-8.38
664.662	12.62
664.693	9.62
664.725	-3.38
664.757	4.62
664.789	-11.38
664.821	21.62
664.853	22.62
664.885	15.62
664.917	0.62
664.949	19.62
664.981	14.62
665.013	-2.38
665.045	-12.38
665.076	-2.38
665.108	0.62
665.14	5.62
665.172	-0.38
665.204	-1.38
665.236	-5.38
665.268	22.62
665.3	11.62
665.331	-20.38
665.363	4.62
665.395	-19.38
665.427	-7.38
665.459	4.62
665.491	6.62
665.523	-3.38
665.555	-5.38
665.586	-2.38
665.618	-1.38
665.65	-1.38
665.682	-2.38
665.714	2.62
665.746	-6.38
665.777	-11.38
665.809	-3.38
665.841	-2.38
665.873	-13.38
665.905	4.62
665.937	12.62
665.968	3.62
666	12.62
666.032	-7.38
666.064	-7.38
666.096	4.62
666.127	2.62
666.159	13.62
666.191	11.62
666.223	11.62
666.255	4.62
666.286	6.62
666.318	-5.38
666.35	30.62
666.382	14.62
666.413	-8.38
666.445	-26.38
666.477	-14.38
666.509	-1.38
666.54	7.62
666.572	-11.38
666.604	11.62
666.636	7.62
666.667	14.62
666.699	5.62
666.731	-2.38
666.763	1.62
666.794	1.62
666.826	-3.38
666.858	-16.38
666.89	10.62
666.921	16.62
666.953	11.62
666.985	21.62
667.017	18.62
667.048	3.62
667.08	-19.38
667.112	-2.38
667.143	-23.38
667.175	-6.38
667.207	0.62
667.238	-9.38
667.27	-9.38
667.302	-2.38
667.334	1.62
667.365	5.62
667.397	-5.38
667.429	7.62
667.46	15.62
667.492	-8.38
667.524	-0.38
667.555	-10.38
667.587	0.62
667.619	4.62
667.65	-4.38
667.682	4.62
667.714	-3.38
667.745	4.62
667.777	21.62
667.808	7.62
667.84	-9.38
667.872	-11.38
667.903	11.62
667.935	-8.38
667.967	2.62
667.998	-6.38
668.03	-0.38
668.061	12.62
668.093	2.62
668.125	4.62
668.156	-0.38
668.188	-14.38
668.22	-6.38
668.251	5.62
668.283	13.62
668.314	20.62
668.346	9.62
668.377	15.62
668.409	13.62
668.441	9.62
668.472	-5.38
668.504	21.62
668.535	4.62
668.567	25.62
668.599	11.62
668.63	-4.38
668.662	4.62
668.693	21.62
668.725	6.62
668.756	7.62
668.788	5.62
668.819	8.62
668.851	5.62
668.882	-1.38
668.914	-2.38
668.946	-0.38
668.977	-8.38
669.009	-15.38
669.04	-22.38
669.072	5.62
669.103	4.62
669.135	-1.38
669.166	3.62
669.198	1.62
669.229	-2.38
669.261	3.62
669.292	1.62
669.324	9.62
669.355	0.62
669.387	-0.38
669.418	7.62
669.45	-1.38
669.481	10.62
669.513	-0.38
669.544	-5.38
669.576	-2.38
669.607	8.62
669.639	2.62
669.67	-17.38
669.701	-10.38
669.733	-8.38
669.764	-8.38
669.796	-19.38
669.827	-1.38
669.859	0.62
669.89	2.62
669.922	4.62
669.953	-15.38
669.985	2.62
670.016	1.62
670.047	6.62
670.079	-12.38
670.11	2.62
670.142	-1.38
670.173	-6.38
670.204	-3.38
670.236	11.62
670.267	4.62
670.299	-5.38
670.33	6.62
670.362	2.62
670.393	-32.38
670.424	-19.38
670.456	-13.38
670.487	-0.38
670.518	-0.38
670.55	-2.38
670.581	8.62
670.613	6.62
670.644	-2.38
670.675	-3.38
670.707	-7.38
670.738	-1.38
670.769	3.62
670.801	-8.38
670.832	1.62
670.864	-9.38
670.895	6.62
670.926	-5.38
670.958	3.62
670.989	2.62
671.02	-8.38
671.052	7.62
671.083	-1.38
671.114	0.62
671.146	-0.38
671.177	11.62
671.208	3.62
671.24	4.62
671.271	2.62
671.302	-11.38
671.333	-10.38
671.365	-10.38
671.396	-0.38
671.427	-8.38
671.459	5.62
671.49	4.62
671.521	0.62
671.553	6.62
671.584	10.62
671.615	17.62
671.646	4.62
671.678	2.62
671.709	-2.38
671.74	-17.38
671.771	1.62
671.803	-1.38
671.834	1.62
671.865	-1.38
671.896	-7.38
671.928	-9.38
671.959	-16.38
671.99	-9.38
672.021	-14.38
672.053	-20.38
672.084	-3.38
672.115	2.62
672.146	-13.38
672.178	-25.38
672.209	5.62
672.24	-1.38
672.271	20.62
672.303	2.62
672.334	4.62
672.365	5.62
672.396	2.62
672.427	13.62
672.459	13.62
672.49	28.62
672.521	-5.38
672.552	-9.38
672.583	-4.38
672.615	5.62
672.646	-0.38
672.677	-6.38
672.708	-10.38
672.739	3.62
672.77	8.62
672.802	-3.38
672.833	-7.38
672.864	-7.38
672.895	-9.38
672.926	-1.38
672.957	-11.38
672.989	-12.38
673.02	9.62
673.051	-8.38
673.082	10.62
673.113	12.62
673.144	13.62
673.175	7.62
673.206	5.62
673.238	-6.38
673.269	-9.38
673.3	-22.38
673.331	5.62
673.362	8.62
673.393	-2.38
673.424	15.62
673.455	17.62
673.487	-3.38
673.518	-3.38
673.549	-17.38
673.58	-8.38
673.611	6.62
673.642	6.62
673.673	-21.38
673.704	1.62
673.735	8.62
673.766	-7.38
673.797	-6.38
673.828	2.62
673.86	-23.38
673.891	-7.38
673.922	-4.38
673.953	-13.38
673.984	7.62
674.015	3.62
674.046	-3.38
674.077	0.62
674.108	-14.38
674.139	1.62
674.17	-12.38
674.201	-5.38
674.232	-2.38
674.263	-12.38
674.294	-18.38
674.325	-12.38
674.356	8.62
674.387	6.62
674.418	17.62
674.449	7.62
674.48	-19.38
674.511	-3.38
674.542	9.62
674.573	-8.38
674.604	16.62
674.635	-18.38
674.666	8.62
674.697	5.62
674.728	-6.38
674.759	-19.38
674.79	-20.38
674.821	-4.38
674.852	2.62
674.883	0.62
674.914	-3.38
674.945	-12.38
674.976	12.62
675.007	0.62
675.038	-1.38
675.069	-16.38
675.1	-2.38
675.131	-3.38
675.162	-33.38
675.193	-9.38
675.224	-12.38
675.254	-0.38
675.285	1.62
675.316	4.62
675.347	-9.38
675.378	-10.38
675.409	-20.38
675.44	1.62
675.471	-0.38
675.502	-8.38
675.533	-13.38
675.564	-3.38
675.595	8.62
675.625	10.62
675.656	-8.38
675.687	-3.38
675.718	-5.38
675.749	-5.38
675.78	1.62
675.811	6.62
675.842	-4.38
675.873	1.62
675.903	-7.38
675.934	2.62
675.965	-15.38
675.996	-22.38
676.027	13.62
676.058	-0.38
676.089	-12.38
676.119	-1.38
676.15	-9.38
676.181	1.62
676.212	-22.38
676.243	19.62
676.274	6.62
676.304	15.62
676.335	2.62
676.366	1.62
676.397	-1.38
676.428	2.62
676.459	1.62
676.489	-11.38
676.52	6.62
676.551	4.62
676.582	-7.38
676.613	-9.38
676.643	-6.38
676.674	-2.38
676.705	-1.38
676.736	1.62
676.767	17.62
676.797	16.62
676.828	9.62
676.859	5.62
676.89	5.62
676.92	-1.38
676.951	-11.38
676.982	0.62
677.013	-4.38
677.044	18.62
677.074	17.62
677.105	-5.38
677.136	5.62
677.167	-1.38
677.197	9.62
677.228	0.62
677.259	-14.38
677.289	0.62
677.32	-20.38
677.351	-3.38
677.382	-12.38
677.412	3.62
677.443	-1.38
677.474	7.62
677.505	-24.38
677.535	-2.38
677.566	-0.38
677.597	-14.38
677.627	-6.38
677.658	-9.38
677.689	-6.38
677.72	-0.38
677.75	-14.38
677.781	4.62
677.812	15.62
677.842	5.62
677.873	0.62
677.904	9.62
677.934	-1.38
677.965	3.62
677.996	-3.38
678.026	14.62
678.057	-7.38
678.088	-17.38
678.118	-1.38
678.149	-4.38
678.18	0.62
678.21	11.62
678.241	5.62
678.272	0.62
678.302	5.62
678.333	15.62
678.363	19.62
678.394	13.62
678.425	4.62
678.455	-5.38
678.486	1.62
678.517	-12.38
678.547	-9.38
678.578	2.62
678.608	-11.38
678.639	-7.38
678.67	-2.38
678.7	-6.38
678.731	-4.38
678.761	0.62
678.792	-1.38
678.823	6.62
678.853	-1.38
678.884	-7.38
678.914	3.62
678.945	3.62
678.975	-7.38
679.006	1.62
679.037	-8.38
679.067	22.62
679.098	-14.38
679.128	-8.38
679.159	3.62
679.189	12.62
679.22	-6.38
679.25	9.62
679.281	-2.38
679.312	-5.38
679.342	-1.38
679.373	23.62
679.403	5.62
679.434	12.62
679.464	-1.38
679.495	9.62
679.525	-2.38
679.556	7.62
679.586	7.62
679.617	12.62
679.647	-3.38
679.678	-1.38
679.708	-8.38
679.739	-1.38
679.769	-12.38
679.8	-11.38
679.83	6.62
679.861	6.62
679.891	1.62
679.922	-13.38
679.952	11.62
679.983	10.62
680.013	5.62
680.044	-4.38
680.074	12.62
680.105	15.62
680.135	6.62
680.165	9.62
680.196	1.62
680.226	-5.38
680.257	13.62
680.287	7.62
680.318	-7.38
680.348	-2.38
680.379	8.62
680.409	0.62
680.439	-1.38
680.47	-12.38
680.5	-8.38
680.531	11.62
680.561	11.62
680.592	0.62
680.622	10.62
680.652	0.62
680.683	13.62
680.713	-1.38
680.744	-2.38
680.774	-8.38
680.804	11.62
680.835	-6.38
680.865	-19.38
680.896	13.62
680.926	2.62
680.956	-2.38
680.987	-5.38
681.017	-2.38
681.047	11.62
681.078	-15.38
681.108	-11.38
681.139	-9.38
681.169	3.62
681.199	6.62
681.23	0.62
681.26	-5.38
681.29	-8.38
681.321	3.62
681.351	13.62
681.381	-18.38
681.412	-12.38
681.442	-5.38
681.472	14.62
681.503	10.62
681.533	10.62
681.563	-1.38
681.594	-5.38
681.624	6.62
681.654	-2.38
681.685	-8.38
681.715	0.62
681.745	-4.38
681.775	-4.38
681.806	-3.38
681.836	-1.38
681.866	-6.38
681.897	2.62
681.927	-7.38
681.957	-18.38
681.987	5.62
682.018	1.62
682.048	7.62
682.078	-2.38
682.109	13.62
682.139	2.62
682.169	7.62
682.199	1.62
682.23	-20.38
682.26	4.62
682.29	-7.38
682.32	-0.38
682.351	-6.38
682.381	3.62
682.411	-1.38
682.441	8.62
682.472	-2.38
682.502	-4.38
682.532	-6.38
682.562	1.62
682.592	-1.38
682.623	0.62
682.653	0.62
682.683	-5.38
682.713	-2.38
682.743	-10.38
682.774	-7.38
682.804	11.62
682.834	11.62
682.864	-4.38
682.894	8.62
682.925	7.62
682.955	18.62
682.985	-7.38
683.015	-2.38
683.045	5.62
683.076	-17.38
683.106	-14.38
683.136	-9.38
683.166	-5.38
683.196	-7.38
683.226	-4.38
683.257	-6.38
683.287	-5.38
683.317	-15.38
683.347	-1.38
683.377	5.62
683.407	18.62
683.437	-1.38
683.468	-7.38
683.498	-12.38
683.528	0.62
683.558	-2.38
683.588	-5.38
683.618	-1.38
683.648	-23.38
683.678	-5.38
683.708	5.62
683.739	-6.38
683.769	-10.38
683.799	8.62
683.829	7.62
683.859	-2.38
683.889	-0.38
683.919	-14.38
683.949	6.62
683.979	-7.38
684.009	15.62
684.039	6.62
684.07	0.62
684.1	25.62
684.13	8.62
684.16	15.62
684.19	-6.38
684.22	-2.38
684.25	8.62
684.28	12.62
684.31	7.62
684.34	7.62
684.37	8.62
684.4	4.62
684.43	13.62
684.46	10.62
684.49	0.62
684.52	7.62
684.55	-4.38
684.58	-4.38
684.61	-4.38
684.64	0.62
684.67	13.62
684.7	0.62
684.73	0.62
684.76	-4.38
684.79	4.62
684.82	-10.38
684.85	-15.38
684.88	11.62
684.91	9.62
684.94	-4.38
684.97	-12.38
685	-9.38
685.03	-10.38
685.06	-14.38
685.09	0.62
685.12	26.62
685.15	2.62
685.18	12.62
685.21	9.62
685.24	18.62
685.27	20.62
685.3	-3.38
685.33	6.62
685.36	-2.38
685.39	1.62
685.42	2.62
685.45	9.62
685.48	6.62
685.51	-15.38
685.54	1.62
685.569	8.62
685.599	-4.38
685.629	14.62
685.659	3.62
685.689	12.62
685.719	0.62
685.749	-7.38
685.779	6.62
685.809	9.62
685.839	6.62
685.869	-8.38
685.898	8.62
685.928	1.62
685.958	-13.38
685.988	15.62
686.018	-7.38
686.048	-2.38
686.078	1.62
686.108	6.62
686.137	-5.38
686.167	23.62
686.197	5.62
686.227	7.62
686.257	10.62
686.287	20.62
686.317	7.62
686.346	1.62
686.376	-22.38
686.406	-8.38
686.436	8.62
686.466	-7.38
686.496	10.62
686.525	10.62
686.555	-4.38
686.585	29.62
686.615	19.62
686.645	5.62
686.675	-0.38
686.704	7.62
686.734	4.62
686.764	-0.38
686.794	10.62
686.824	2.62
686.853	9.62
686.883	12.62
686.913	17.62
686.943	4.62
686.973	-6.38
687.002	21.62
687.032	23.62
687.062	-6.38
687.092	10.62
687.121	-10.38
687.151	3.62
687.181	0.62
687.211	20.62
687.24	3.62
687.27	2.62
687.3	-6.38
687.33	-7.38
687.359	-14.38
687.389	4.62
687.419	-1.38
687.449	-8.38
687.478	0.62
687.508	1.62
687.538	11.62
687.568	12.62
687.597	-6.38
687.627	6.62
687.657	1.62
687.686	-5.38
687.716	19.62
687.746	6.62
687.776	-8.38
687.805	5.62
687.835	13.62
687.865	8.62
687.894	0.62
687.924	-7.38
687.954	-2.38
687.983	13.62
688.013	12.62
688.043	25.62
688.072	2.62
688.102	3.62
688.132	10.62
688.161	12.62
688.191	-1.38
688.221	10.62
688.25	1.62
688.28	5.62
688.31	-10.38
688.339	-3.38
688.369	-0.38
688.399	-14.38
688.428	-12.38
688.458	-0.38
688.488	-10.38
688.517	20.62
688.547	-1.38
688.576	33.62
688.606	19.62
688.636	-19.38
688.665	-2.38
688.695	9.62
688.725	10.62
688.754	5.62
688.784	-4.38
688.813	19.62
688.843	-2.38
688.873	10.62
688.902	0.62
688.932	4.62
688.961	8.62
688.991	9.62
689.02	-0.38
689.05	-0.38
689.08	7.62
689.109	14.62
689.139	8.62
689.168	15.62
689.198	-1.38
689.227	4.62
689.257	5.62
689.287	7.62
689.316	18.62
689.346	-7.38
689.375	-9.38
689.405	8.62
689.434	2.62
689.464	1.62
689.493	0.62
689.523	5.62
689.552	13.62
689.582	0.62
689.611	-10.38
689.641	12.62
689.67	-2.38
689.7	-2.38
689.73	14.62
689.759	7.62
689.789	2.62
689.818	-4.38
689.848	-13.38
689.877	29.62
689.906	-10.38
689.936	-5.38
689.965	13.62
689.995	20.62
690.024	9.62
690.054	0.62
690.083	18.62
690.113	2.62
690.142	-3.38
690.172	8.62
690.201	10.62
690.231	-9.38
690.26	4.62
690.29	2.62
690.319	17.62
690.348	23.62
690.378	15.62
690.407	11.62
690.437	-2.38
690.466	8.62
690.496	10.62
690.525	6.62
690.555	10.62
690.584	-6.38
690.613	9.62
690.643	5.62
690.672	-0.38
690.702	9.62
690.731	-7.38
690.76	9.62
690.79	51.62
690.819	44.62
690.849	49.62
690.878	30.62
690.907	33.62
690.937	23.62
690.966	24.62
690.996	8.62
691.025	-3.38
691.054	12.62
691.084	1.62
691.113	2.62
691.142	13.62
691.172	24.62
691.201	15.62
691.23	15.62
691.26	16.62
691.289	-1.38
691.319	-2.38
691.348	-9.38
691.377	28.62
691.407	2.62
691.436	9.62
691.465	-1.38
691.495	0.62
691.524	-14.38
691.553	-1.38
691.583	-2.38
691.612	8.62
691.641	1.62
691.67	1.62
691.7	9.62
691.729	-3.38
691.758	-2.38
691.788	-1.38
691.817	-5.38
691.846	-0.38
691.876	1.62
691.905	11.62
691.934	10.62
691.963	34.62
691.993	2.62
692.022	-0.38
692.051	-5.38
692.081	12.62
692.11	20.62
692.139	-1.38
692.168	9.62
692.198	10.62
692.227	7.62
692.256	12.62
692.285	12.62
692.315	6.62
692.344	1.62
692.373	0.62
692.402	-19.38
692.432	-13.38
692.461	7.62
692.49	-0.38
692.519	-14.38
692.548	18.62
692.578	15.62
692.607	-0.38
692.636	-1.38
692.665	14.62
692.694	6.62
692.724	14.62
692.753	21.62
692.782	11.62
692.811	-3.38
692.84	10.62
692.87	13.62
692.899	-6.38
692.928	-2.38
692.957	11.62
692.986	2.62
693.016	10.62
693.045	15.62
693.074	-8.38
693.103	9.62
693.132	2.62
693.161	5.62
693.191	5.62
693.22	-7.38
693.249	4.62
693.278	3.62
693.307	17.62
693.336	-9.38
693.365	-16.38
693.395	-12.38
693.424	1.62
693.453	3.62
693.482	-4.38
693.511	15.62
693.54	17.62
693.569	3.62
693.598	-3.38
693.628	9.62
693.657	11.62
693.686	9.62
693.715	-6.38
693.744	9.62
693.773	15.62
693.802	3.62
693.831	-7.38
693.86	3.62
693.889	-12.38
693.919	-0.38
693.948	15.62
693.977	-4.38
694.006	-8.38
694.035	-7.38
694.064	-20.38
694.093	-3.38
694.122	-3.38
694.151	-14.38
694.18	11.62
694.209	21.62
694.238	1.62
694.267	31.62
694.296	11.62
694.325	13.62
694.354	23.62
694.383	24.62
694.412	-1.38
694.441	0.62
694.471	0.62
694.5	-24.38
694.529	-1.38
694.558	3.62
694.587	5.62
694.616	-11.38
694.645	11.62
694.674	21.62
694.703	-0.38
694.732	5.62
694.761	4.62
694.79	8.62
694.819	-11.38
694.848	-9.38
694.877	33.62
694.906	9.62
694.935	-1.38
694.963	24.62
694.992	7.62
695.021	17.62
695.05	15.62
695.079	10.62
695.108	-0.38
695.137	17.62
695.166	19.62
695.195	-3.38
695.224	21.62
695.253	9.62
695.282	15.62
695.311	10.62
695.34	-3.38
695.369	8.62
695.398	0.62
695.427	14.62
695.456	3.62
695.485	17.62
695.513	-4.38
695.542	13.62
695.571	10.62
695.6	21.62
695.629	0.62
695.658	7.62
695.687	-4.38
695.716	-6.38
695.745	31.62
695.774	-1.38
695.802	-13.38
695.831	2.62
695.86	12.62
695.889	7.62
695.918	2.62
695.947	-6.38
695.976	-2.38
696.005	22.62
696.033	4.62
696.062	13.62
696.091	-4.38
696.12	1.62
696.149	17.62
696.178	7.62
696.207	12.62
696.235	-19.38
696.264	-0.38
696.293	10.62
696.322	14.62
696.351	6.62
696.38	-3.38
696.408	13.62
696.437	-1.38
696.466	25.62
696.495	20.62
696.524	8.62
696.553	10.62
696.581	20.62
696.61	-1.38
696.639	5.62
696.668	10.62
696.697	9.62
696.725	10.62
696.754	6.62
696.783	-9.38
696.812	-6.38
696.84	12.62
696.869	9.62
696.898	6.62
696.927	22.62
696.956	22.62
696.984	-4.38
697.013	-6.38
697.042	4.62
697.071	1.62
697.099	11.62
697.128	8.62
697.157	11.62
697.186	-11.38
697.214	-6.38
697.243	4.62
697.272	-1.38
697.301	13.62
697.329	-1.38
697.358	14.62
697.387	16.62
697.415	3.62
697.444	-10.38
697.473	-3.38
697.502	0.62
697.53	13.62
697.559	7.62
697.588	11.62
697.616	11.62
697.645	2.62
697.674	28.62
697.703	12.62
697.731	14.62
697.76	9.62
697.789	-8.38
697.817	-6.38
697.846	20.62
697.875	9.62
697.903	33.62
697.932	8.62
697.961	-0.38
697.989	9.62
698.018	-6.38
698.047	-2.38
698.075	4.62
698.104	1.62
698.133	18.62
698.161	-13.38
698.19	10.62
698.218	5.62
698.247	6.62
698.276	-3.38
698.304	10.62
698.333	2.62
698.362	-0.38
698.39	21.62
698.419	0.62
698.447	3.62
698.476	-2.38
698.505	15.62
698.533	3.62
698.562	5.62
698.591	13.62
698.619	-0.38
698.648	2.62
698.676	0.62
698.705	4.62
698.733	-18.38
698.762	2.62
698.791	9.62
698.819	3.62
698.848	-1.38
698.876	28.62
698.905	11.62
698.933	0.62
698.962	9.62
698.991	3.62
699.019	11.62
699.048	5.62
699.076	1.62
699.105	-11.38
699.133	-3.38
699.162	9.62
699.19	12.62
699.219	12.62
699.248	-6.38
699.276	-14.38
699.305	-5.38
699.333	3.62
699.362	11.62
699.39	10.62
699.419	-1.38
699.447	-0.38
699.476	15.62
699.504	-6.38
699.533	5.62
699.561	-9.38
699.59	-10.38
699.618	4.62
699.647	0.62
699.675	10.62
699.704	0.62
699.732	-3.38
699.761	11.62
699.789	-7.38
699.818	4.62
699.846	0.62
699.874	-7.38
699.903	1.62
699.931	-2.38
699.96	16.62
699.988	9.62
700.017	-1.38
700.045	-5.38
700.074	7.62
700.102	8.62
700.13	2.62
700.159	-5.38
700.187	5.62
700.216	7.62
700.244	0.62
700.273	-0.38
700.301	1.62
700.329	10.62
700.358	6.62
700.386	-3.38
700.415	-9.38
700.443	10.62
700.472	-1.38
700.5	-0.38
700.528	0.62
700.557	0.62
700.585	0.62
700.614	-6.38
700.642	25.62
700.67	9.62
700.699	7.62
700.727	-2.38
700.755	4.62
700.784	3.62
700.812	9.62
700.841	3.62
700.869	2.62
700.897	-6.38
700.926	7.62
700.954	6.62
700.982	14.62
701.011	10.62
701.039	10.62
701.067	-2.38
701.096	13.62
701.124	-4.38
701.152	17.62
701.181	12.62
701.209	-11.38
701.237	-0.38
701.266	2.62
701.294	-2.38
701.322	7.62
701.351	6.62
701.379	2.62
701.407	4.62
701.435	-6.38
701.464	9.62
701.492	16.62
701.52	1.62
701.549	0.62
701.577	2.62
701.605	-3.38
701.634	-0.38
701.662	14.62
701.69	1.62
701.718	-7.38
701.747	5.62
701.775	0.62
701.803	-10.38
701.831	20.62
701.86	12.62
701.888	9.62
701.916	-7.38
701.944	-6.38
701.973	-9.38
702.001	-3.38
702.029	-12.38
702.057	-0.38
702.086	-9.38
702.114	-17.38
702.142	4.62
702.17	-1.38
702.199	-2.38
702.227	-3.38
702.255	-5.38
702.283	-8.38
702.311	10.62
702.34	3.62
702.368	0.62
702.396	-0.38
702.424	9.62
702.452	-2.38
702.481	2.62
702.509	8.62
702.537	6.62
702.565	8.62
702.593	-11.38
702.621	2.62
702.65	5.62
702.678	16.62
702.706	14.62
702.734	2.62
702.762	7.62
702.79	13.62
702.819	13.62
702.847	5.62
702.875	2.62
702.903	7.62
702.931	1.62
702.959	-0.38
702.988	0.62
703.016	-3.38
703.044	2.62
703.072	2.62
703.1	-3.38
703.128	-4.38
703.156	-3.38
703.184	1.62
703.212	5.62
703.241	-0.38
703.269	3.62
703.297	-9.38
703.325	-7.38
703.353	-10.38
703.381	-0.38
703.409	-0.38
703.437	0.62
703.465	1.62
703.493	2.62
703.522	-2.38
703.55	3.62
703.578	10.62
703.606	4.62
703.634	-3.38
703.662	-8.38
703.69	-16.38
703.718	-6.38
703.746	15.62
703.774	4.62
703.802	3.62
703.83	-0.38
703.858	-3.38
703.886	-1.38
703.914	-17.38
703.942	4.62
703.97	4.62
703.998	6.62
704.027	25.62
704.055	12.62
704.083	12.62
704.111	-18.38
704.139	8.62
704.167	-2.38
704.195	7.62
704.223	-9.38
704.251	9.62
704.279	6.62
704.307	9.62
704.335	2.62
704.363	4.62
704.391	-0.38
704.419	-6.38
704.447	-15.38
704.475	0.62
704.503	-5.38
704.531	24.62
704.558	1.62
704.586	-6.38
704.614	-11.38
704.642	8.62
704.67	-2.38
704.698	-3.38
704.726	0.62
704.754	-3.38
704.782	-6.38
704.81	8.62
704.838	20.62
704.866	-0.38
704.894	-10.38
704.922	0.62
704.95	16.62
704.978	7.62
705.006	3.62
705.034	17.62
705.061	-8.38
705.089	-10.38
705.117	4.62
705.145	10.62
705.173	4.62
705.201	-2.38
705.229	-6.38
705.257	10.62
705.285	-0.38
705.313	18.62
705.34	5.62
705.368	7.62
705.396	11.62
705.424	25.62
705.452	4.62
705.48	-3.38
705.508	-1.38
705.536	0.62
705.563	0.62
705.591	19.62
705.619	1.62
705.647	-9.38
705.675	11.62
705.703	18.62
705.731	5.62
705.758	10.62
705.786	-5.38
705.814	36.62
705.842	0.62
705.87	6.62
705.898	15.62
705.925	0.62
705.953	6.62
705.981	2.62
706.009	-14.38
706.037	-10.38
706.065	-7.38
706.092	-14.38
706.12	8.62
706.148	0.62
706.176	7.62
706.204	11.62
706.231	2.62
706.259	-0.38
706.287	-12.38
706.315	2.62
706.342	-18.38
706.37	20.62
706.398	6.62
706.426	1.62
706.454	-14.38
706.481	-2.38
706.509	6.62
706.537	3.62
706.565	-12.38
706.592	-0.38
706.62	5.62
706.648	-3.38
706.676	-9.38
706.703	1.62
706.731	-7.38
706.759	-3.38
706.787	6.62
706.814	2.62
706.842	8.62
706.87	-6.38
706.897	8.62
706.925	4.62
706.953	7.62
706.981	16.62
707.008	4.62
707.036	5.62
707.064	-9.38
707.091	-11.38
707.119	-6.38
707.147	-6.38
707.174	-5.38
707.202	8.62
707.23	-8.38
707.258	8.62
707.285	-8.38
707.313	-21.38
707.341	-15.38
707.368	1.62
707.396	1.62
707.424	4.62
707.451	-11.38
707.479	6.62
707.507	5.62
707.534	-1.38
707.562	6.62
707.59	-12.38
707.617	-12.38
707.645	18.62
707.672	14.62
707.7	5.62
707.728	13.62
707.755	5.62
707.783	-5.38
707.811	1.62
707.838	-1.38
707.866	13.62
707.893	-0.38
707.921	8.62
707.949	1.62
707.976	2.62
708.004	7.62
708.031	-4.38
708.059	1.62
708.087	8.62
708.114	-0.38
708.142	-12.38
708.169	-5.38
708.197	-1.38
708.225	-2.38
708.252	4.62
708.28	20.62
708.307	12.62
708.335	0.62
708.362	-2.38
708.39	-9.38
708.418	6.62
708.445	-22.38
708.473	-10.38
708.5	-4.38
708.528	5.62
708.555	4.62
708.583	-6.38
708.61	9.62
708.638	6.62
708.665	-0.38
708.693	-0.38
708.72	-2.38
708.748	-9.38
708.776	-7.38
708.803	4.62
708.831	0.62
708.858	7.62
708.886	-4.38
708.913	3.62
708.941	-6.38
708.968	4.62
708.996	-9.38
709.023	23.62
709.051	-1.38
709.078	-15.38
709.105	2.62
709.133	-3.38
709.16	3.62
709.188	5.62
709.215	10.62
709.243	0.62
709.27	9.62
709.298	-9.38
709.325	-11.38
709.353	3.62
709.38	17.62
709.408	10.62
709.435	5.62
709.462	-2.38
709.49	-5.38
709.517	7.62
709.545	1.62
709.572	0.62
709.6	2.62
709.627	3.62
709.655	-3.38
709.682	-3.38
709.709	0.62
709.737	4.62
709.764	-5.38
709.792	8.62
709.819	3.62
709.846	-1.38
709.874	-7.38
709.901	20.62
709.929	11.62
709.956	14.62
709.983	-3.38
710.011	-8.38
710.038	-2.38
710.066	1.62
710.093	7.62
710.12	-1.38
710.148	-9.38
710.175	-9.38
710.202	-11.38
710.23	1.62
710.257	5.62
710.284	9.62
710.312	0.62
710.339	2.62
710.366	4.62
710.394	-8.38
710.421	-1.38
710.448	-5.38
710.476	-14.38
710.503	6.62
710.53	2.62
710.558	23.62
710.585	8.62
710.612	-3.38
710.64	-6.38
710.667	2.62
710.694	0.62
710.722	-2.38
710.749	0.62
710.776	5.62
710.804	20.62
710.831	0.62
710.858	1.62
710.885	5.62
710.913	3.62
710.94	8.62
710.967	4.62
710.995	16.62
711.022	0.62
711.049	-4.38
711.076	0.62
711.104	10.62
711.131	-3.38
711.158	1.62
711.185	2.62
711.213	-13.38
711.24	-8.38
711.267	-7.38
711.294	15.62
711.322	20.62
711.349	-2.38
711.376	4.62
711.403	8.62
711.431	8.62
711.458	-0.38
711.485	-6.38
711.512	3.62
711.54	6.62
711.567	-0.38
711.594	-1.38
711.621	-5.38
711.648	-2.38
711.676	0.62
711.703	2.62
711.73	-2.38
711.757	3.62
711.784	-6.38
711.812	-8.38
711.839	-5.38
711.866	-14.38
711.893	-15.38
711.92	-8.38
711.947	5.62
711.975	6.62
712.002	12.62
712.029	16.62
712.056	0.62
712.083	7.62
712.11	-7.38
712.138	5.62
712.165	-3.38
712.192	5.62
712.219	9.62
712.246	-7.38
712.273	-0.38
712.3	-26.38
712.328	3.62
712.355	1.62
712.382	-5.38
712.409	11.62
712.436	-11.38
712.463	19.62
712.49	12.62
712.517	8.62
712.544	5.62
712.572	-6.38
712.599	-1.38
712.626	-6.38
712.653	-13.38
712.68	-3.38
712.707	15.62
712.734	3.62
712.761	6.62
712.788	-2.38
712.815	7.62
712.842	-5.38
712.87	-13.38
712.897	-17.38
712.924	-15.38
712.951	-14.38
712.978	2.62
713.005	29.62
713.032	1.62
713.059	-5.38
713.086	-7.38
713.113	-7.38
713.14	-8.38
713.167	6.62
713.194	1.62
713.221	-9.38
713.248	9.62
713.275	-11.38
713.302	-5.38
713.329	4.62
713.356	2.62
713.383	1.62
713.41	-0.38
713.437	-7.38
713.464	-4.38
713.491	14.62
713.518	6.62
713.545	6.62
713.572	7.62
713.599	12.62
713.626	-8.38
713.653	9.62
713.68	4.62
713.707	4.62
713.734	-1.38
713.761	-8.38
713.788	8.62
713.815	15.62
713.842	-13.38
713.869	0.62
713.896	9.62
713.923	-0.38
713.95	-2.38
713.977	5.62
714.004	5.62
714.031	-0.38
714.058	6.62
714.085	-7.38
714.112	-2.38
714.139	4.62
714.165	12.62
714.192	4.62
714.219	14.62
714.246	12.62
714.273	5.62
714.3	7.62
714.327	-0.38
714.354	8.62
714.381	-7.38
714.408	-1.38
714.435	-18.38
714.461	-0.38
714.488	8.62
714.515	-10.38
714.542	-24.38
714.569	-6.38
714.596	-9.38
714.623	-3.38
714.65	-10.38
714.677	6.62
714.703	13.62
714.73	7.62
714.757	6.62
714.784	10.62
714.811	-12.38
714.838	-6.38
714.865	-5.38
714.891	10.62
714.918	5.62
714.945	-5.38
714.972	-0.38
714.999	13.62
715.026	0.62
715.052	29.62
715.079	3.62
715.106	20.62
715.133	6.62
715.16	-1.38
715.187	3.62
715.213	5.62
715.24	-5.38
715.267	2.62
715.294	-1.38
715.321	-0.38
715.347	1.62
715.374	-14.38
715.401	-7.38
715.428	-5.38
715.455	3.62
715.481	-17.38
715.508	4.62
715.535	-13.38
715.562	27.62
715.588	4.62
715.615	8.62
715.642	-3.38
715.669	15.62
715.695	-7.38
715.722	-5.38
715.749	-4.38
715.776	21.62
715.802	-2.38
715.829	12.62
715.856	-6.38
715.883	-9.38
715.909	-15.38
715.936	-7.38
715.963	0.62
715.99	-18.38
716.016	3.62
716.043	-13.38
716.07	-18.38
716.096	-16.38
716.123	-4.38
716.15	6.62
716.177	9.62
716.203	9.62
716.23	12.62
716.257	4.62
716.283	5.62
716.31	-1.38
716.337	-11.38
716.363	6.62
716.39	-0.38
716.417	18.62
716.443	8.62
716.47	4.62
716.497	17.62
716.523	8.62
716.55	9.62
716.577	-0.38
716.603	0.62
716.63	2.62
716.657	2.62
716.683	-5.38
716.71	7.62
716.737	-9.38
716.763	5.62
716.79	2.62
716.817	11.62
716.843	2.62
716.87	-6.38
716.897	1.62
716.923	20.62
716.95	2.62
716.976	-8.38
717.003	0.62
717.03	7.62
717.056	8.62
717.083	0.62
717.109	17.62
717.136	12.62
717.163	-2.38
717.189	11.62
717.216	-8.38
717.242	-4.38
717.269	-10.38
717.296	8.62
717.322	19.62
717.349	13.62
717.375	4.62
717.402	-10.38
717.428	-5.38
717.455	3.62
717.481	7.62
717.508	14.62
717.535	-5.38
717.561	-6.38
717.588	-5.38
717.614	-8.38
717.641	-0.38
717.667	-10.38
717.694	13.62
717.72	-6.38
717.747	0.62
717.773	-11.38
717.8	0.62
717.826	0.62
717.853	-6.38
717.88	2.62
717.906	-12.38
717.933	9.62
717.959	0.62
717.986	-1.38
718.012	-10.38
718.039	-1.38
718.065	-2.38
718.092	5.62
718.118	-5.38
718.144	9.62
718.171	23.62
718.197	29.62
718.224	-0.38
718.25	8.62
718.277	9.62
718.303	4.62
718.33	-2.38
718.356	-14.38
718.383	-10.38
718.409	11.62
718.436	2.62
718.462	-5.38
718.489	-16.38
718.515	22.62
718.541	16.62
718.568	3.62
718.594	12.62
718.621	12.62
718.647	-10.38
718.674	13.62
718.7	17.62
718.726	3.62
718.753	3.62
718.779	12.62
718.806	1.62
718.832	-12.38
718.858	-7.38
718.885	-10.38
718.911	-4.38
718.938	12.62
718.964	-8.38
718.99	-8.38
719.017	4.62
719.043	3.62
719.07	-3.38
719.096	-13.38
719.122	1.62
719.149	4.62
719.175	7.62
719.201	5.62
719.228	-7.38
719.254	0.62
719.281	0.62
719.307	-10.38
719.333	-6.38
719.36	10.62
719.386	1.62
719.412	-12.38
719.439	-5.38
719.465	-8.38
719.491	0.62
719.518	-0.38
719.544	17.62
719.57	18.62
719.597	-7.38
719.623	4.62
719.649	7.62
719.675	-18.38
719.702	-13.38
719.728	7.62
719.754	-1.38
719.781	11.62
719.807	4.62
719.833	-3.38
719.86	1.62
719.886	5.62
719.912	-5.38
719.938	-17.38
719.965	-0.38
719.991	-2.38
720.017	-1.38
720.044	3.62
720.07	-3.38
720.096	1.62
720.122	-4.38
720.149	10.62
720.175	15.62
720.201	0.62
720.227	-8.38
720.254	9.62
720.28	13.62
720.306	-3.38
720.332	-8.38
720.359	0.62
720.385	10.62
720.411	15.62
720.437	5.62
720.463	-0.38
720.49	-7.38
720.516	-10.38
720.542	-25.38
720.568	-7.38
720.595	31.62
720.621	-2.38
720.647	0.62
720.673	9.62
720.699	1.62
720.725	-9.38
720.752	11.62
720.778	11.62
720.804	5.62
720.83	0.62
720.856	4.62
720.883	-15.38
720.909	-5.38
720.935	9.62
720.961	28.62
720.987	6.62
721.013	1.62
721.04	-19.38
721.066	-9.38
721.092	1.62
721.118	8.62
721.144	-6.38
721.17	-0.38
721.196	-6.38
721.223	-7.38
721.249	17.62
721.275	19.62
721.301	0.62
721.327	12.62
721.353	10.62
721.379	9.62
721.405	6.62
721.432	18.62
721.458	-10.38
721.484	-5.38
721.51	-18.38
721.536	11.62
721.562	10.62
721.588	-4.38
721.614	-5.38
721.64	5.62
721.666	-2.38
721.693	-6.38
721.719	-6.38
721.745	-27.38
721.771	-17.38
721.797	-15.38
721.823	-6.38
721.849	20.62
721.875	-1.38
721.901	1.62
721.927	5.62
721.953	1.62
721.979	16.62
722.005	13.62
722.031	-5.38
722.057	0.62
722.083	3.62
722.109	1.62
722.135	-8.38
722.161	-5.38
722.187	-6.38
722.214	9.62
722.24	2.62
722.266	5.62
722.292	13.62
722.318	9.62
722.344	-2.38
722.37	9.62
722.396	4.62
722.422	-5.38
722.448	-2.38
722.474	-10.38
722.5	25.62
722.526	11.62
722.552	-4.38
722.578	-6.38
722.603	9.62
722.629	-3.38
722.655	4.62
722.681	1.62
722.707	-3.38
722.733	-1.38
722.759	-3.38
722.785	0.62
722.811	-15.38
722.837	-2.38
722.863	17.62
722.889	-1.38
722.915	18.62
722.941	-2.38
722.967	3.62
722.993	1.62
723.019	8.62
723.045	8.62
723.071	5.62
723.097	-2.38
723.122	0.62
723.148	-10.38
723.174	-0.38
723.2	3.62
723.226	7.62
723.252	3.62
723.278	0.62
723.304	-2.38
723.33	9.62
723.356	-4.38
723.381	-7.38
723.407	-13.38
723.433	8.62
723.459	5.62
723.485	5.62
723.511	10.62
723.537	-9.38
723.563	-12.38
723.588	1.62
723.614	17.62
723.64	7.62
723.666	-10.38
723.692	-2.38
723.718	5.62
723.744	5.62
723.769	-3.38
723.795	-6.38
723.821	13.62
723.847	4.62
723.873	-6.38
723.899	12.62
723.924	1.62
723.95	-4.38
723.976	-8.38
724.002	1.62
724.028	-3.38
724.053	-2.38
724.079	3.62
724.105	2.62
724.131	-3.38
724.157	1.62
724.182	18.62
724.208	7.62
724.234	0.62
724.26	-0.38
724.286	10.62
724.311	-5.38
724.337	0.62
724.363	-2.38
724.389	0.62
724.415	5.62
724.44	18.62
724.466	-7.38
724.492	-9.38
724.518	-2.38
724.543	1.62
724.569	1.62
724.595	11.62
724.621	6.62
724.646	11.62
724.672	-2.38
724.698	-8.38
724.723	-25.38
724.749	20.62
724.775	-7.38
724.801	0.62
724.826	-18.38
724.852	-7.38
724.878	-4.38
724.904	-14.38
724.929	7.62
724.955	-2.38
724.981	4.62
725.006	-8.38
725.032	-4.38
725.058	13.62
725.083	-10.38
725.109	-10.38
725.135	-1.38
725.161	-2.38
725.186	-3.38
725.212	-8.38
725.238	3.62
725.263	-5.38
725.289	-11.38
725.315	-25.38
725.34	4.62
725.366	2.62
725.392	-2.38
725.417	7.62
725.443	10.62
725.468	8.62
725.494	-12.38
725.52	-1.38
725.545	-16.38
725.571	-1.38
725.597	-0.38
725.622	2.62
725.648	-3.38
725.674	12.62
725.699	2.62
725.725	9.62
725.75	16.62
725.776	-0.38
725.802	11.62
725.827	-4.38
725.853	-15.38
725.878	5.62
725.904	-9.38
725.93	-9.38
725.955	-4.38
725.981	-5.38
726.006	-5.38
726.032	8.62
726.057	-5.38
726.083	-25.38
726.109	-2.38
726.134	13.62
726.16	8.62
726.185	-5.38
726.211	-16.38
726.236	2.62
726.262	-0.38
726.288	7.62
726.313	6.62
726.339	13.62
726.364	0.62
726.39	5.62
726.415	0.62
726.441	-16.38
726.466	-6.38
726.492	-10.38
726.517	12.62
726.543	-15.38
726.568	-2.38
726.594	-8.38
726.619	-1.38
726.645	0.62
726.67	-3.38
726.696	23.62
726.721	-7.38
726.747	-12.38
726.772	4.62
726.798	3.62
726.823	7.62
726.849	0.62
726.874	8.62
726.9	18.62
726.925	19.62
726.951	9.62
726.976	10.62
727.002	-9.38
727.027	3.62
727.053	28.62
727.078	-9.38
727.104	6.62
727.129	-11.38
727.155	-5.38
727.18	13.62
727.205	-6.38
727.231	-7.38
727.256	10.62
727.282	17.62
727.307	18.62
727.333	-4.38
727.358	-9.38
727.383	-7.38
727.409	-13.38
727.434	9.62
727.46	9.62
727.485	5.62
727.511	0.62
727.536	-24.38
727.561	-14.38
727.587	-12.38
727.612	-10.38
727.637	13.62
727.663	-13.38
727.688	-1.38
727.714	-3.38
727.739	-6.38
727.764	3.62
727.79	17.62
727.815	5.62
727.841	0.62
727.866	-1.38
727.891	-8.38
727.917	-9.38
727.942	-12.38
727.967	-2.38
727.993	-6.38
728.018	-7.38
728.043	-1.38
728.069	-4.38
728.094	-6.38
728.119	13.62
728.145	1.62
728.17	2.62
728.195	0.62
728.221	6.62
728.246	-3.38
728.271	-10.38
728.297	7.62
728.322	-6.38
728.347	10.62
728.373	7.62
728.398	11.62
728.423	-12.38
728.448	-2.38
728.474	7.62
728.499	6.62
728.524	-5.38
728.55	-23.38
728.575	-8.38
728.6	5.62
728.625	-2.38
728.651	5.62
728.676	12.62
728.701	9.62
728.727	7.62
728.752	-3.38
728.777	22.62
728.802	1.62
728.828	3.62
728.853	-11.38
728.878	1.62
728.903	6.62
728.929	-18.38
728.954	-14.38
728.979	1.62
729.004	-7.38
729.03	9.62
729.055	-1.38
729.08	-19.38
729.105	0.62
729.13	23.62
729.156	16.62
729.181	-8.38
729.206	-22.38
729.231	-5.38
729.256	6.62
729.282	11.62
729.307	-10.38
729.332	-17.38
729.357	-4.38
729.382	-7.38
729.408	-9.38
729.433	-11.38
729.458	5.62
729.483	14.62
729.508	13.62
729.533	10.62
729.559	12.62
729.584	-8.38
729.609	16.62
729.634	9.62
729.659	-3.38
729.684	-15.38
729.71	20.62
729.735	0.62
729.76	4.62
729.785	-3.38
729.81	11.62
729.835	-6.38
729.86	-3.38
729.886	13.62
729.911	20.62
729.936	4.62
729.961	25.62
729.986	14.62
730.011	63.62
730.036	201.62
730.061	977.62
730.086	2702.62
730.112	3390.62
730.137	2833.62
730.162	2095.62
730.187	1617.62
730.212	1248.62
730.237	797.62
730.262	432.62
730.287	233.62
730.312	143.62
730.337	77.62
730.362	62.62
730.387	33.62
730.413	18.62
730.438	11.62
730.463	23.62
730.488	4.62
730.513	10.62
730.538	16.62
730.563	10.62
730.588	17.62
730.613	34.62
730.638	-4.38
730.663	0.62
730.688	21.62
730.713	9.62
730.738	-3.38
730.763	-7.38
730.788	-22.38
730.813	0.62
730.838	7.62
730.863	0.62
730.888	0.62
730.913	-12.38
730.938	-3.38
730.963	31.62
730.988	119.62
731.013	408.62
731.038	630.62
731.063	581.62
731.088	471.62
731.113	349.62
731.138	300.62
731.163	194.62
731.188	103.62
731.213	80.62
731.238	44.62
731.263	7.62
731.288	14.62
731.313	21.62
731.338	4.62
731.363	-6.38
731.388	-1.38
731.413	6.62
731.438	12.62
731.463	8.62
731.487	-2.38
731.512	-14.38
731.537	-7.38
731.562	-2.38
731.587	11.62
731.612	0.62
731.637	5.62
731.662	-3.38
731.687	-8.38
731.712	-7.38
731.737	10.62
731.762	3.62
731.786	0.62
731.811	3.62
731.836	1.62
731.861	1.62
731.886	0.62
731.911	7.62
731.936	9.62
731.961	-1.38
731.986	4.62
732.01	1.62
732.035	11.62
732.06	7.62
732.085	-11.38
732.11	2.62
732.135	2.62
732.16	5.62
732.184	-0.38
732.209	0.62
732.234	2.62
732.259	-3.38
732.284	13.62
732.309	-6.38
732.334	-10.38
732.358	-11.38
732.383	-15.38
732.408	4.62
732.433	11.62
732.458	0.62
732.482	12.62
732.507	4.62
732.532	-8.38
732.557	10.62
732.582	13.62
732.607	8.62
732.631	49.62
732.656	79.62
732.681	147.62
732.706	339.62
732.73	447.62
732.755	378.62
732.78	304.62
732.805	255.62
732.83	185.62
732.854	110.62
732.879	80.62
732.904	37.62
732.929	18.62
732.953	3.62
732.978	-3.38
733.003	-11.38
733.028	-9.38
733.052	-4.38
733.077	-7.38
733.102	15.62
733.127	-7.38
733.151	-7.38
733.176	3.62
733.201	-3.38
733.226	2.62
733.25	9.62
733.275	9.62
733.3	13.62
733.324	27.62
733.349	2.62
733.374	16.62
733.399	-0.38
733.423	1.62
733.448	19.62
733.473	12.62
733.497	0.62
733.522	4.62
733.547	21.62
733.571	19.62
733.596	4.62
733.621	-2.38
733.646	-6.38
733.67	7.62
733.695	-11.38
733.72	10.62
733.744	17.62
733.769	5.62
733.794	17.62
733.818	21.62
733.843	4.62
733.867	7.62
733.892	0.62
733.917	5.62
733.941	6.62
733.966	-12.38
733.991	-16.38
734.015	6.62
734.04	0.62
734.065	-0.38
734.089	0.62
734.114	-2.38
734.138	4.62
734.163	-12.38
734.188	6.62
734.212	7.62
734.237	1.62
734.261	0.62
734.286	1.62
734.311	-9.38
734.335	-6.38
734.36	-6.38
734.384	3.62
734.409	12.62
734.434	-16.38
734.458	-2.38
734.483	-10.38
734.507	-10.38
734.532	-9.38
734.556	-9.38
734.581	4.62
734.606	1.62
734.63	-3.38
734.655	12.62
734.679	8.62
734.704	-2.38
734.728	-2.38
734.753	-3.38
734.777	13.62
734.802	-13.38
734.826	1.62
734.851	-9.38
734.876	7.62
734.9	6.62
734.925	20.62
734.949	5.62
734.974	8.62
734.998	5.62
735.023	-15.38
735.047	-19.38
735.072	11.62
735.096	8.62
735.121	-6.38
735.145	4.62
735.17	5.62
735.194	4.62
735.219	8.62
735.243	4.62
735.268	-8.38
735.292	4.62
735.317	8.62
735.341	-10.38
735.365	-17.38
735.39	2.62
735.414	0.62
735.439	5.62
735.463	3.62
735.488	-0.38
735.512	3.62
735.537	1.62
735.561	-5.38
735.586	3.62
735.61	-1.38
735.634	-0.38
735.659	18.62
735.683	23.62
735.708	11.62
735.732	4.62
735.757	-6.38
735.781	14.62
735.805	-1.38
735.83	-6.38
735.854	11.62
735.879	-6.38
735.903	18.62
735.927	-8.38
735.952	10.62
735.976	-14.38
736.001	-2.38
736.025	4.62
736.049	1.62
736.074	0.62
736.098	-7.38
736.123	1.62
736.147	4.62
736.171	-4.38
736.196	5.62
736.22	-10.38
736.244	2.62
736.269	7.62
736.293	-3.38
736.317	-1.38
736.342	0.62
736.366	9.62
736.39	10.62
736.415	4.62
736.439	-0.38
736.463	13.62
736.488	0.62
736.512	1.62
736.536	10.62
736.561	16.62
736.585	8.62
736.609	1.62
736.634	-1.38
736.658	2.62
736.682	-1.38
736.707	-8.38
736.731	1.62
736.755	-4.38
736.78	9.62
736.804	11.62
736.828	20.62
736.852	1.62
736.877	-7.38
736.901	-0.38
736.925	-5.38
736.949	-7.38
736.974	-21.38
736.998	-6.38
737.022	8.62
737.047	-11.38
737.071	1.62
737.095	-3.38
737.119	20.62
737.144	14.62
737.168	4.62
737.192	-7.38
737.216	-9.38
737.241	-5.38
737.265	-0.38
737.289	9.62
737.313	1.62
737.337	18.62
737.362	5.62
737.386	-2.38
737.41	-7.38
737.434	-0.38
737.459	8.62
737.483	32.62
737.507	12.62
737.531	-3.38
737.555	-10.38
737.58	-3.38
737.604	8.62
737.628	-3.38
737.652	-7.38
737.676	-10.38
737.701	5.62
737.725	-1.38
737.749	1.62
737.773	5.62
737.797	-9.38
737.821	11.62
737.846	7.62
737.87	19.62
737.894	0.62
737.918	9.62
737.942	-1.38
737.966	17.62
737.99	20.62
738.015	9.62
738.039	7.62
738.063	-10.38
738.087	8.62
738.111	13.62
738.135	16.62
738.159	-0.38
738.184	-3.38
738.208	0.62
738.232	5.62
738.256	28.62
738.28	8.62
738.304	18.62
738.328	-12.38
738.352	-2.38
738.376	-8.38
738.4	10.62
738.425	10.62
738.449	-9.38
738.473	-3.38
738.497	-7.38
738.521	7.62
738.545	0.62
738.569	9.62
738.593	14.62
738.617	-6.38
738.641	-16.38
738.665	-0.38
738.689	7.62
738.713	5.62
738.737	7.62
738.762	14.62
738.786	14.62
738.81	-6.38
738.834	9.62
738.858	-2.38
738.882	9.62
738.906	4.62
738.93	-9.38
738.954	-1.38
738.978	4.62
739.002	-1.38
739.026	22.62
739.05	7.62
739.074	-8.38
739.098	18.62
739.122	24.62
739.146	10.62
739.17	8.62
739.194	5.62
739.218	2.62
739.242	9.62
739.266	5.62
739.29	19.62
739.314	20.62
739.338	-0.38
739.362	-4.38
739.386	4.62
739.41	-4.38
739.434	-12.38
739.458	10.62
739.482	8.62
739.506	-2.38
739.53	-5.38
739.554	13.62
739.577	-14.38
739.601	-5.38
739.625	3.62
739.649	12.62
739.673	-6.38
739.697	-1.38
739.721	-7.38
739.745	2.62
739.769	7.62
739.793	1.62
739.817	12.62
739.841	-9.38
739.865	-4.38
739.889	-21.38
739.912	2.62
739.936	-3.38
739.96	4.62
739.984	7.62
740.008	-8.38
740.032	-9.38
740.056	-13.38
740.08	1.62
740.104	-4.38
740.127	4.62
740.151	5.62
740.175	2.62
740.199	1.62
740.223	41.62
740.247	0.62
740.271	5.62
740.295	-11.38
740.318	-12.38
740.342	-1.38
740.366	-3.38
740.39	11.62
740.414	1.62
740.438	1.62
740.461	11.62
740.485	-7.38
740.509	-14.38
740.533	2.62
740.557	6.62
740.581	-14.38
740.604	-15.38
740.628	1.62
740.652	20.62
740.676	21.62
740.7	13.62
740.723	-0.38
740.747	-5.38
740.771	-5.38
740.795	-8.38
740.819	16.62
740.842	5.62
740.866	12.62
740.89	12.62
740.914	2.62
740.938	-8.38
740.961	9.62
740.985	12.62
741.009	0.62
741.033	7.62
741.056	4.62
741.08	-0.38
741.104	-8.38
741.128	-6.38
741.151	23.62
741.175	13.62
741.199	20.62
741.223	10.62
741.246	-6.38
741.27	8.62
741.294	0.62
741.318	-8.38
741.341	4.62
741.365	6.62
741.389	-5.38
741.413	6.62
741.436	-1.38
741.46	14.62
741.484	11.62
741.507	1.62
741.531	37.62
741.555	11.62
741.579	-7.38
741.602	6.62
741.626	8.62
741.65	22.62
741.673	3.62
741.697	4.62
741.721	-6.38
741.744	-16.38
741.768	-6.38
741.792	2.62
741.815	-6.38
741.839	24.62
741.863	32.62
741.886	15.62
741.91	16.62
741.934	3.62
741.957	-7.38
741.981	19.62
742.005	-7.38
742.028	3.62
742.052	4.62
742.075	11.62
742.099	11.62
742.123	5.62
742.146	12.62
742.17	-8.38
742.194	-7.38
742.217	-11.38
742.241	-7.38
742.264	4.62
742.288	16.62
742.312	20.62
742.335	0.62
742.359	9.62
742.382	1.62
742.406	12.62
742.43	-6.38
742.453	13.62
742.477	3.62
742.5	-2.38
742.524	-6.38
742.548	-15.38
742.571	2.62
742.595	-6.38
742.618	0.62
742.642	-2.38
742.665	6.62
742.689	-8.38
742.712	3.62
742.736	2.62
742.76	-11.38
742.783	-10.38
742.807	4.62
742.83	7.62
742.854	-4.38
742.877	-19.38
742.901	7.62
742.924	1.62
742.948	4.62
742.971	22.62
742.995	-6.38
743.018	-14.38
743.042	-17.38
743.065	-15.38
743.089	-3.38
743.112	10.62
743.136	-7.38
743.159	2.62
743.183	5.62
743.206	14.62
743.23	-1.38
743.253	6.62
743.277	4.62
743.3	-3.38
743.324	3.62
743.347	-14.38
743.371	16.62
743.394	12.62
743.418	22.62
743.441	13.62
743.465	-11.38
743.488	1.62
743.512	-1.38
743.535	-3.38
743.558	2.62
743.582	18.62
743.605	-1.38
743.629	20.62
743.652	6.62
743.676	5.62
743.699	14.62
743.723	10.62
743.746	-2.38
743.769	-6.38
743.793	10.62
743.816	-7.38
743.84	20.62
743.863	10.62
743.886	-9.38
743.91	9.62
743.933	8.62
743.957	2.62
743.98	-6.38
744.003	-8.38
744.027	-0.38
744.05	-11.38
744.074	15.62
744.097	-24.38
744.12	-10.38
744.144	-6.38
744.167	15.62
744.19	-16.38
744.214	-2.38
744.237	-9.38
744.26	13.62
744.284	-1.38
744.307	1.62
744.331	11.62
744.354	-1.38
744.377	-17.38
744.401	-2.38
744.424	8.62
744.447	-10.38
744.471	-11.38
