Data from HighRes_mercury_15_13_11_07_2024_HR4C61891__7__15-14-23-886.txt Node

Date: Thu Nov 07 15:14:23 EST 2024
User: crc00042
Spectrometer: HR4C6189
Trigger mode: 4
Integration Time (sec): 1.000000E-1
Scans to average: 1
Electric dark correction enabled: true
Nonlinearity correction enabled: false
Boxcar width: 0
XAxis mode: Wavelengths
Number of Pixels in Spectrum: 3648
>>>>>Begin Spectral Data<<<<<
639.567	-32.77
639.602	-32.77
639.636	-32.77
639.67	-43.77
639.704	-17.77
639.738	-3.77
639.773	16.23
639.807	-14.77
639.841	-8.77
639.875	13.23
639.909	-3.77
639.943	-15.77
639.978	-12.77
640.012	-0.77
640.046	19.23
640.08	11.23
640.114	1.23
640.148	-0.77
640.182	-9.77
640.217	3.23
640.251	11.23
640.285	3.23
640.319	-15.77
640.353	-2.77
640.387	7.23
640.421	6.23
640.455	-7.77
640.49	-15.77
640.524	5.23
640.558	9.23
640.592	10.23
640.626	4.23
640.66	15.23
640.694	-8.77
640.728	-5.77
640.762	12.23
640.796	17.23
640.83	5.23
640.865	-9.77
640.899	-16.77
640.933	-3.77
640.967	-1.77
641.001	4.23
641.035	-9.77
641.069	-13.77
641.103	-1.77
641.137	20.23
641.171	0.23
641.205	13.23
641.239	-13.77
641.273	9.23
641.307	10.23
641.341	-9.77
641.375	-3.77
641.409	4.23
641.443	-1.77
641.477	-1.77
641.511	14.23
641.545	18.23
641.579	-8.77
641.614	12.23
641.648	14.23
641.682	-13.77
641.716	10.23
641.75	27.23
641.784	4.23
641.818	11.23
641.852	2.23
641.886	-2.77
641.919	22.23
641.953	-2.77
641.987	-15.77
642.021	2.23
642.055	2.23
642.089	8.23
642.123	0.23
642.157	-5.77
642.191	0.23
642.225	15.23
642.259	3.23
642.293	7.23
642.327	0.23
642.361	-0.77
642.395	11.23
642.429	7.23
642.463	6.23
642.497	0.23
642.531	-3.77
642.565	0.23
642.599	8.23
642.633	-21.77
642.666	11.23
642.7	6.23
642.734	7.23
642.768	-12.77
642.802	-15.77
642.836	17.23
642.87	-1.77
642.904	0.23
642.938	5.23
642.972	-4.77
643.005	6.23
643.039	22.23
643.073	-3.77
643.107	2.23
643.141	4.23
643.175	2.23
643.209	7.23
643.243	-11.77
643.276	8.23
643.31	-6.77
643.344	9.23
643.378	3.23
643.412	25.23
643.446	-0.77
643.48	-19.77
643.513	0.23
643.547	-5.77
643.581	-3.77
643.615	1.23
643.649	-4.77
643.683	16.23
643.716	-21.77
643.75	0.23
643.784	-7.77
643.818	-5.77
643.852	1.23
643.886	10.23
643.919	14.23
643.953	-1.77
643.987	-14.77
644.021	-2.77
644.055	-1.77
644.088	20.23
644.122	-13.77
644.156	5.23
644.19	-1.77
644.224	2.23
644.257	5.23
644.291	2.23
644.325	-14.77
644.359	-19.77
644.392	20.23
644.426	20.23
644.46	9.23
644.494	10.23
644.527	-1.77
644.561	6.23
644.595	6.23
644.629	-2.77
644.662	5.23
644.696	15.23
644.73	0.23
644.764	17.23
644.797	-3.77
644.831	-4.77
644.865	-4.77
644.899	13.23
644.932	9.23
644.966	-1.77
645	8.23
645.033	16.23
645.067	8.23
645.101	7.23
645.135	-9.77
645.168	5.23
645.202	-1.77
645.236	9.23
645.269	8.23
645.303	8.23
645.337	-11.77
645.37	6.23
645.404	2.23
645.438	-1.77
645.471	-3.77
645.505	5.23
645.539	1.23
645.572	-4.77
645.606	1.23
645.64	4.23
645.673	4.23
645.707	25.23
645.741	2.23
645.774	-24.77
645.808	2.23
645.842	5.23
645.875	11.23
645.909	-17.77
645.943	-21.77
645.976	-9.77
646.01	10.23
646.043	12.23
646.077	16.23
646.111	16.23
646.144	0.23
646.178	12.23
646.212	2.23
646.245	4.23
646.279	10.23
646.312	12.23
646.346	21.23
646.38	-8.77
646.413	9.23
646.447	21.23
646.48	4.23
646.514	4.23
646.547	-4.77
646.581	1.23
646.615	0.23
646.648	-8.77
646.682	8.23
646.715	0.23
646.749	-1.77
646.782	-5.77
646.816	-1.77
646.85	2.23
646.883	-2.77
646.917	14.23
646.95	2.23
646.984	-3.77
647.017	-7.77
647.051	0.23
647.084	7.23
647.118	2.23
647.151	-2.77
647.185	11.23
647.218	-8.77
647.252	8.23
647.285	-9.77
647.319	-10.77
647.353	10.23
647.386	7.23
647.42	3.23
647.453	15.23
647.487	13.23
647.52	4.23
647.553	5.23
647.587	8.23
647.62	-11.77
647.654	1.23
647.687	-5.77
647.721	11.23
647.754	6.23
647.788	4.23
647.821	4.23
647.855	7.23
647.888	17.23
647.922	23.23
647.955	19.23
647.989	4.23
648.022	-8.77
648.055	4.23
648.089	-1.77
648.122	26.23
648.156	-2.77
648.189	21.23
648.223	11.23
648.256	22.23
648.29	1.23
648.323	4.23
648.356	5.23
648.39	16.23
648.423	9.23
648.457	-0.77
648.49	7.23
648.523	16.23
648.557	-6.77
648.59	0.23
648.624	5.23
648.657	13.23
648.69	3.23
648.724	0.23
648.757	10.23
648.791	16.23
648.824	16.23
648.857	10.23
648.891	3.23
648.924	7.23
648.957	16.23
648.991	-11.77
649.024	5.23
649.057	-8.77
649.091	-6.77
649.124	3.23
649.158	14.23
649.191	15.23
649.224	-0.77
649.258	-2.77
649.291	7.23
649.324	4.23
649.358	7.23
649.391	5.23
649.424	11.23
649.458	12.23
649.491	6.23
649.524	-5.77
649.557	-7.77
649.591	-8.77
649.624	14.23
649.657	-6.77
649.691	-16.77
649.724	5.23
649.757	3.23
649.791	-1.77
649.824	27.23
649.857	25.23
649.89	-11.77
649.924	-15.77
649.957	2.23
649.99	-5.77
650.023	-10.77
650.057	-1.77
650.09	16.23
650.123	12.23
650.157	26.23
650.19	6.23
650.223	-13.77
650.256	-14.77
650.29	4.23
650.323	4.23
650.356	2.23
650.389	-13.77
650.423	-5.77
650.456	0.23
650.489	1.23
650.522	18.23
650.555	9.23
650.589	5.23
650.622	1.23
650.655	2.23
650.688	4.23
650.721	17.23
650.755	15.23
650.788	1.23
650.821	4.23
650.854	11.23
650.887	7.23
650.921	-10.77
650.954	-1.77
650.987	-1.77
651.02	6.23
651.053	-7.77
651.087	-17.77
651.12	14.23
651.153	12.23
651.186	-4.77
651.219	-24.77
651.252	1.23
651.286	-15.77
651.319	-3.77
651.352	3.23
651.385	5.23
651.418	7.23
651.451	3.23
651.484	-3.77
651.518	-20.77
651.551	11.23
651.584	-12.77
651.617	16.23
651.65	15.23
651.683	22.23
651.716	12.23
651.749	-9.77
651.783	-4.77
651.816	1.23
651.849	15.23
651.882	-0.77
651.915	-13.77
651.948	-4.77
651.981	-0.77
652.014	-15.77
652.047	-26.77
652.08	-10.77
652.114	-3.77
652.147	4.23
652.18	22.23
652.213	25.23
652.246	11.23
652.279	-10.77
652.312	8.23
652.345	-0.77
652.378	5.23
652.411	34.23
652.444	9.23
652.477	7.23
652.51	-5.77
652.543	-13.77
652.576	-1.77
652.609	8.23
652.642	1.23
652.675	12.23
652.709	0.23
652.742	11.23
652.775	10.23
652.808	18.23
652.841	5.23
652.874	-12.77
652.907	-12.77
652.94	9.23
652.973	0.23
653.006	0.23
653.039	-7.77
653.072	14.23
653.105	-2.77
653.138	-21.77
653.171	-6.77
653.204	-10.77
653.237	8.23
653.27	-0.77
653.303	11.23
653.336	6.23
653.368	-10.77
653.401	0.23
653.434	-6.77
653.467	12.23
653.5	-5.77
653.533	-21.77
653.566	14.23
653.599	-9.77
653.632	4.23
653.665	-13.77
653.698	-9.77
653.731	-6.77
653.764	7.23
653.797	1.23
653.83	5.23
653.863	-8.77
653.896	-3.77
653.929	-2.77
653.961	8.23
653.994	2.23
654.027	-13.77
654.06	-0.77
654.093	4.23
654.126	5.23
654.159	-4.77
654.192	-2.77
654.225	6.23
654.258	2.23
654.29	4.23
654.323	3.23
654.356	-6.77
654.389	-7.77
654.422	2.23
654.455	10.23
654.488	10.23
654.521	-23.77
654.553	-2.77
654.586	15.23
654.619	1.23
654.652	-2.77
654.685	21.23
654.718	15.23
654.751	16.23
654.783	7.23
654.816	34.23
654.849	8.23
654.882	-6.77
654.915	-20.77
654.948	-3.77
654.98	3.23
655.013	-2.77
655.046	-9.77
655.079	-8.77
655.112	0.23
655.144	2.23
655.177	5.23
655.21	1.23
655.243	17.23
655.276	5.23
655.308	-3.77
655.341	-18.77
655.374	12.23
655.407	-4.77
655.44	0.23
655.472	7.23
655.505	-2.77
655.538	-9.77
655.571	15.23
655.603	-2.77
655.636	-17.77
655.669	0.23
655.702	2.23
655.734	-8.77
655.767	-9.77
655.8	-15.77
655.833	-5.77
655.865	4.23
655.898	1.23
655.931	-9.77
655.964	1.23
655.996	-0.77
656.029	3.23
656.062	-9.77
656.095	-1.77
656.127	-23.77
656.16	-8.77
656.193	-7.77
656.225	8.23
656.258	3.23
656.291	1.23
656.324	4.23
656.356	2.23
656.389	-8.77
656.422	10.23
656.454	13.23
656.487	3.23
656.52	5.23
656.552	-1.77
656.585	-9.77
656.618	12.23
656.65	3.23
656.683	1.23
656.716	0.23
656.748	-13.77
656.781	-4.77
656.814	-3.77
656.846	-1.77
656.879	-6.77
656.912	5.23
656.944	-13.77
656.977	-18.77
657.01	-8.77
657.042	9.23
657.075	13.23
657.108	-0.77
657.14	-7.77
657.173	7.23
657.205	31.23
657.238	-0.77
657.271	-1.77
657.303	-21.77
657.336	-6.77
657.369	-0.77
657.401	-2.77
657.434	-12.77
657.466	15.23
657.499	12.23
657.532	-1.77
657.564	0.23
657.597	-9.77
657.629	10.23
657.662	-7.77
657.694	-21.77
657.727	-24.77
657.76	8.23
657.792	-8.77
657.825	-1.77
657.857	22.23
657.89	4.23
657.922	1.23
657.955	-15.77
657.987	-3.77
658.02	5.23
658.053	4.23
658.085	-13.77
658.118	10.23
658.15	6.23
658.183	19.23
658.215	15.23
658.248	-0.77
658.28	4.23
658.313	4.23
658.345	3.23
658.378	3.23
658.41	-15.77
658.443	5.23
658.475	-6.77
658.508	-9.77
658.54	-5.77
658.573	-13.77
658.605	4.23
658.638	-1.77
658.67	2.23
658.703	14.23
658.735	-10.77
658.768	9.23
658.8	-11.77
658.833	9.23
658.865	-18.77
658.898	3.23
658.93	-1.77
658.963	0.23
658.995	-18.77
659.028	1.23
659.06	0.23
659.092	13.23
659.125	-12.77
659.157	-2.77
659.19	-13.77
659.222	-14.77
659.255	0.23
659.287	-0.77
659.32	-6.77
659.352	-9.77
659.384	15.23
659.417	-5.77
659.449	5.23
659.482	-2.77
659.514	-15.77
659.546	-5.77
659.579	-11.77
659.611	7.23
659.644	6.23
659.676	4.23
659.708	-3.77
659.741	-19.77
659.773	0.23
659.806	-1.77
659.838	7.23
659.87	10.23
659.903	-1.77
659.935	4.23
659.967	16.23
660	9.23
660.032	-12.77
660.065	4.23
660.097	7.23
660.129	6.23
660.162	-3.77
660.194	0.23
660.226	-7.77
660.259	-13.77
660.291	-11.77
660.323	-13.77
660.356	1.23
660.388	-5.77
660.42	3.23
660.453	20.23
660.485	6.23
660.517	9.23
660.55	-0.77
660.582	6.23
660.614	7.23
660.647	3.23
660.679	-5.77
660.711	12.23
660.743	-17.77
660.776	-2.77
660.808	11.23
660.84	3.23
660.873	4.23
660.905	-2.77
660.937	3.23
660.969	13.23
661.002	9.23
661.034	13.23
661.066	-5.77
661.099	2.23
661.131	11.23
661.163	-1.77
661.195	15.23
661.228	31.23
661.26	-0.77
661.292	-0.77
661.324	9.23
661.357	0.23
661.389	-7.77
661.421	8.23
661.453	-4.77
661.485	1.23
661.518	14.23
661.55	-0.77
661.582	-19.77
661.614	-12.77
661.647	7.23
661.679	2.23
661.711	-2.77
661.743	-13.77
661.775	1.23
661.808	7.23
661.84	-15.77
661.872	-0.77
661.904	-4.77
661.936	9.23
661.969	-23.77
662.001	-3.77
662.033	0.23
662.065	-1.77
662.097	21.23
662.129	5.23
662.162	-14.77
662.194	14.23
662.226	-10.77
662.258	11.23
662.29	-2.77
662.322	3.23
662.355	-7.77
662.387	16.23
662.419	-8.77
662.451	10.23
662.483	8.23
662.515	-2.77
662.547	11.23
662.58	-10.77
662.612	-12.77
662.644	-14.77
662.676	1.23
662.708	18.23
662.74	0.23
662.772	18.23
662.804	15.23
662.836	3.23
662.869	5.23
662.901	9.23
662.933	-18.77
662.965	16.23
662.997	-5.77
663.029	-2.77
663.061	-15.77
663.093	-9.77
663.125	8.23
663.157	17.23
663.189	1.23
663.221	2.23
663.254	-8.77
663.286	-1.77
663.318	-24.77
663.35	-6.77
663.382	-14.77
663.414	-6.77
663.446	2.23
663.478	0.23
663.51	17.23
663.542	-13.77
663.574	14.23
663.606	12.23
663.638	-1.77
663.67	5.23
663.702	-2.77
663.734	-1.77
663.766	5.23
663.798	-9.77
663.83	-0.77
663.862	8.23
663.894	20.23
663.926	-4.77
663.958	11.23
663.99	-6.77
664.022	-6.77
664.054	10.23
664.086	3.23
664.118	-9.77
664.15	-13.77
664.182	0.23
664.214	-1.77
664.246	18.23
664.278	13.23
664.31	20.23
664.342	0.23
664.374	-1.77
664.406	-1.77
664.438	-10.77
664.47	6.23
664.502	0.23
664.534	15.23
664.566	-5.77
664.598	-10.77
664.63	-3.77
664.662	-10.77
664.693	-8.77
664.725	0.23
664.757	-4.77
664.789	-0.77
664.821	9.23
664.853	6.23
664.885	-4.77
664.917	-10.77
664.949	2.23
664.981	9.23
665.013	1.23
665.045	-8.77
665.076	1.23
665.108	11.23
665.14	4.23
665.172	-12.77
665.204	-5.77
665.236	6.23
665.268	5.23
665.3	-0.77
665.331	-15.77
665.363	-7.77
665.395	-1.77
665.427	-12.77
665.459	1.23
665.491	3.23
665.523	-4.77
665.555	0.23
665.586	-2.77
665.618	9.23
665.65	2.23
665.682	22.23
665.714	-6.77
665.746	-5.77
665.777	7.23
665.809	-3.77
665.841	-0.77
665.873	2.23
665.905	7.23
665.937	6.23
665.968	10.23
666	-0.77
666.032	4.23
666.064	-8.77
666.096	-21.77
666.127	18.23
666.159	11.23
666.191	17.23
666.223	6.23
666.255	5.23
666.286	20.23
666.318	4.23
666.35	37.23
666.382	21.23
666.413	-3.77
666.445	-16.77
666.477	-17.77
666.509	-14.77
666.54	-10.77
666.572	-11.77
666.604	4.23
666.636	1.23
666.667	8.23
666.699	18.23
666.731	-0.77
666.763	-12.77
666.794	-3.77
666.826	9.23
666.858	-3.77
666.89	13.23
666.921	7.23
666.953	0.23
666.985	11.23
667.017	25.23
667.048	7.23
667.08	10.23
667.112	-16.77
667.143	-13.77
667.175	0.23
667.207	8.23
667.238	3.23
667.27	6.23
667.302	3.23
667.334	-0.77
667.365	0.23
667.397	9.23
667.429	1.23
667.46	19.23
667.492	-1.77
667.524	-5.77
667.555	-2.77
667.587	3.23
667.619	-11.77
667.65	6.23
667.682	4.23
667.714	10.23
667.745	2.23
667.777	10.23
667.808	-0.77
667.84	22.23
667.872	0.23
667.903	13.23
667.935	3.23
667.967	10.23
667.998	12.23
668.03	-17.77
668.061	10.23
668.093	-6.77
668.125	-6.77
668.156	-3.77
668.188	0.23
668.22	-4.77
668.251	-4.77
668.283	9.23
668.314	15.23
668.346	-1.77
668.377	11.23
668.409	10.23
668.441	21.23
668.472	7.23
668.504	13.23
668.535	9.23
668.567	2.23
668.599	10.23
668.63	-1.77
668.662	-2.77
668.693	12.23
668.725	5.23
668.756	15.23
668.788	6.23
668.819	2.23
668.851	11.23
668.882	9.23
668.914	-6.77
668.946	-7.77
668.977	0.23
669.009	9.23
669.04	-10.77
669.072	2.23
669.103	-4.77
669.135	-3.77
669.166	3.23
669.198	1.23
669.229	0.23
669.261	19.23
669.292	2.23
669.324	-2.77
669.355	5.23
669.387	2.23
669.418	17.23
669.45	-0.77
669.481	-5.77
669.513	8.23
669.544	18.23
669.576	1.23
669.607	13.23
669.639	13.23
669.67	-13.77
669.701	0.23
669.733	-14.77
669.764	-2.77
669.796	1.23
669.827	0.23
669.859	-7.77
669.89	17.23
669.922	11.23
669.953	14.23
669.985	6.23
670.016	12.23
670.047	0.23
670.079	0.23
670.11	3.23
670.142	0.23
670.173	-6.77
670.204	-24.77
670.236	1.23
670.267	-2.77
670.299	-8.77
670.33	2.23
670.362	-9.77
670.393	-8.77
670.424	-0.77
670.456	-16.77
670.487	6.23
670.518	17.23
670.55	3.23
670.581	0.23
670.613	6.23
670.644	-10.77
670.675	-22.77
670.707	-0.77
670.738	-10.77
670.769	-4.77
670.801	-3.77
670.832	1.23
670.864	-9.77
670.895	-0.77
670.926	2.23
670.958	1.23
670.989	7.23
671.02	-9.77
671.052	-17.77
671.083	1.23
671.114	9.23
671.146	5.23
671.177	-7.77
671.208	-11.77
671.24	-2.77
671.271	3.23
671.302	4.23
671.333	-6.77
671.365	-15.77
671.396	-11.77
671.427	-0.77
671.459	-2.77
671.49	11.23
671.521	1.23
671.553	7.23
671.584	11.23
671.615	-7.77
671.646	1.23
671.678	-2.77
671.709	-6.77
671.74	-14.77
671.771	-1.77
671.803	-5.77
671.834	-10.77
671.865	-4.77
671.896	12.23
671.928	6.23
671.959	-4.77
671.99	-6.77
672.021	-22.77
672.053	-11.77
672.084	14.23
672.115	7.23
672.146	-8.77
672.178	-5.77
672.209	-6.77
672.24	-3.77
672.271	9.23
672.303	-7.77
672.334	-10.77
672.365	4.23
672.396	-9.77
672.427	-9.77
672.459	-0.77
672.49	8.23
672.521	-5.77
672.552	5.23
672.583	13.23
672.615	0.23
672.646	18.23
672.677	-4.77
672.708	-4.77
672.739	0.23
672.77	10.23
672.802	14.23
672.833	-1.77
672.864	-6.77
672.895	1.23
672.926	6.23
672.957	-8.77
672.989	-15.77
673.02	0.23
673.051	4.23
673.082	14.23
673.113	-10.77
673.144	3.23
673.175	-1.77
673.206	-7.77
673.238	9.23
673.269	3.23
673.3	-10.77
673.331	1.23
673.362	15.23
673.393	-0.77
673.424	6.23
673.455	26.23
673.487	-7.77
673.518	7.23
673.549	9.23
673.58	-8.77
673.611	12.23
673.642	5.23
673.673	-36.77
673.704	-9.77
673.735	0.23
673.766	8.23
673.797	-11.77
673.828	-9.77
673.86	-8.77
673.891	-11.77
673.922	-7.77
673.953	-17.77
673.984	-3.77
674.015	0.23
674.046	7.23
674.077	6.23
674.108	-4.77
674.139	-4.77
674.17	-2.77
674.201	-0.77
674.232	6.23
674.263	-9.77
674.294	-10.77
674.325	-17.77
674.356	-1.77
674.387	14.23
674.418	23.23
674.449	1.23
674.48	-6.77
674.511	1.23
674.542	3.23
674.573	-10.77
674.604	12.23
674.635	7.23
674.666	19.23
674.697	-13.77
674.728	-23.77
674.759	-1.77
674.79	-1.77
674.821	3.23
674.852	-13.77
674.883	4.23
674.914	9.23
674.945	0.23
674.976	7.23
675.007	-2.77
675.038	0.23
675.069	-19.77
675.1	-2.77
675.131	-7.77
675.162	-11.77
675.193	-11.77
675.224	2.23
675.254	9.23
675.285	6.23
675.316	13.23
675.347	-0.77
675.378	-14.77
675.409	-2.77
675.44	17.23
675.471	-11.77
675.502	-1.77
675.533	-2.77
675.564	-3.77
675.595	12.23
675.625	20.23
675.656	24.23
675.687	-0.77
675.718	-15.77
675.749	10.23
675.78	0.23
675.811	1.23
675.842	0.23
675.873	-3.77
675.903	0.23
675.934	-4.77
675.965	-2.77
675.996	-10.77
676.027	9.23
676.058	0.23
676.089	-16.77
676.119	6.23
676.15	-0.77
676.181	1.23
676.212	6.23
676.243	14.23
676.274	5.23
676.304	24.23
676.335	0.23
676.366	11.23
676.397	3.23
676.428	-13.77
676.459	10.23
676.489	18.23
676.52	9.23
676.551	-4.77
676.582	-3.77
676.613	9.23
676.643	3.23
676.674	9.23
676.705	-5.77
676.736	8.23
676.767	20.23
676.797	4.23
676.828	8.23
676.859	1.23
676.89	-10.77
676.92	8.23
676.951	3.23
676.982	-0.77
677.013	-1.77
677.044	26.23
677.074	22.23
677.105	-8.77
677.136	20.23
677.167	3.23
677.197	9.23
677.228	8.23
677.259	-0.77
677.289	8.23
677.32	-0.77
677.351	-2.77
677.382	-15.77
677.412	7.23
677.443	17.23
677.474	-3.77
677.505	-13.77
677.535	-22.77
677.566	2.23
677.597	-21.77
677.627	-10.77
677.658	-6.77
677.689	8.23
677.72	1.23
677.75	-2.77
677.781	11.23
677.812	-4.77
677.842	14.23
677.873	-5.77
677.904	2.23
677.934	-7.77
677.965	-13.77
677.996	-26.77
678.026	1.23
678.057	-2.77
678.088	-5.77
678.118	0.23
678.149	-16.77
678.18	-5.77
678.21	-0.77
678.241	3.23
678.272	0.23
678.302	-2.77
678.333	3.23
678.363	-13.77
678.394	7.23
678.425	-15.77
678.455	6.23
678.486	15.23
678.517	6.23
678.547	-3.77
678.578	-4.77
678.608	-11.77
678.639	20.23
678.67	9.23
678.7	-7.77
678.731	-2.77
678.761	-1.77
678.792	19.23
678.823	19.23
678.853	7.23
678.884	-4.77
678.914	2.23
678.945	14.23
678.975	-4.77
679.006	-8.77
679.037	-25.77
679.067	10.23
679.098	-6.77
679.128	-0.77
679.159	3.23
679.189	21.23
679.22	-8.77
679.25	-7.77
679.281	-0.77
679.312	17.23
679.342	11.23
679.373	21.23
679.403	9.23
679.434	2.23
679.464	3.23
679.495	2.23
679.525	-3.77
679.556	-5.77
679.586	7.23
679.617	-0.77
679.647	-0.77
679.678	5.23
679.708	-9.77
679.739	9.23
679.769	1.23
679.8	-2.77
679.83	-1.77
679.861	18.23
679.891	2.23
679.922	-22.77
679.952	-8.77
679.983	-4.77
680.013	4.23
680.044	-6.77
680.074	-4.77
680.105	2.23
680.135	-3.77
680.165	7.23
680.196	1.23
680.226	1.23
680.257	10.23
680.287	1.23
680.318	-10.77
680.348	-14.77
680.379	8.23
680.409	-2.77
680.439	6.23
680.47	-6.77
680.5	-2.77
680.531	4.23
680.561	21.23
680.592	6.23
680.622	4.23
680.652	-15.77
680.683	10.23
680.713	4.23
680.744	-0.77
680.774	5.23
680.804	0.23
680.835	-8.77
680.865	-12.77
680.896	21.23
680.926	16.23
680.956	-5.77
680.987	3.23
681.017	2.23
681.047	6.23
681.078	-2.77
681.108	-3.77
681.139	-6.77
681.169	-3.77
681.199	-2.77
681.23	5.23
681.26	-2.77
681.29	12.23
681.321	-7.77
681.351	4.23
681.381	-7.77
681.412	4.23
681.442	5.23
681.472	10.23
681.503	6.23
681.533	2.23
681.563	-10.77
681.594	-2.77
681.624	2.23
681.654	-7.77
681.685	-3.77
681.715	-2.77
681.745	-5.77
681.775	-13.77
681.806	-0.77
681.836	4.23
681.866	-2.77
681.897	-4.77
681.927	-8.77
681.957	-20.77
681.987	-7.77
682.018	5.23
682.048	-4.77
682.078	-0.77
682.109	10.23
682.139	8.23
682.169	3.23
682.199	-5.77
682.23	9.23
682.26	23.23
682.29	8.23
682.32	5.23
682.351	-1.77
682.381	1.23
682.411	0.23
682.441	-17.77
682.472	-13.77
682.502	-5.77
682.532	-9.77
682.562	7.23
682.592	5.23
682.623	19.23
682.653	7.23
682.683	-4.77
682.713	-2.77
682.743	6.23
682.774	1.23
682.804	10.23
682.834	17.23
682.864	-6.77
682.894	-15.77
682.925	-19.77
682.955	-12.77
682.985	14.23
683.015	14.23
683.045	15.23
683.076	-23.77
683.106	-8.77
683.136	11.23
683.166	-3.77
683.196	-1.77
683.226	-2.77
683.257	-6.77
683.287	-5.77
683.317	-11.77
683.347	4.23
683.377	-9.77
683.407	4.23
683.437	13.23
683.468	18.23
683.498	3.23
683.528	13.23
683.558	0.23
683.588	8.23
683.618	3.23
683.648	-7.77
683.678	-2.77
683.708	11.23
683.739	5.23
683.769	-6.77
683.799	-2.77
683.829	3.23
683.859	-3.77
683.889	7.23
683.919	0.23
683.949	4.23
683.979	-14.77
684.009	2.23
684.039	-7.77
684.07	1.23
684.1	15.23
684.13	2.23
684.16	6.23
684.19	-5.77
684.22	2.23
684.25	1.23
684.28	-6.77
684.31	9.23
684.34	17.23
684.37	4.23
684.4	-20.77
684.43	0.23
684.46	-17.77
684.49	-3.77
684.52	5.23
684.55	29.23
684.58	1.23
684.61	6.23
684.64	3.23
684.67	5.23
684.7	2.23
684.73	0.23
684.76	9.23
684.79	12.23
684.82	-10.77
684.85	-10.77
684.88	12.23
684.91	8.23
684.94	-1.77
684.97	5.23
685	-12.77
685.03	-12.77
685.06	-9.77
685.09	1.23
685.12	-0.77
685.15	1.23
685.18	0.23
685.21	1.23
685.24	11.23
685.27	16.23
685.3	-2.77
685.33	12.23
685.36	-1.77
685.39	0.23
685.42	-13.77
685.45	-9.77
685.48	15.23
685.51	1.23
685.54	15.23
685.569	5.23
685.599	17.23
685.629	2.23
685.659	-0.77
685.689	-0.77
685.719	0.23
685.749	-4.77
685.779	-4.77
685.809	4.23
685.839	-2.77
685.869	25.23
685.898	5.23
685.928	3.23
685.958	5.23
685.988	17.23
686.018	0.23
686.048	-2.77
686.078	5.23
686.108	19.23
686.137	4.23
686.167	4.23
686.197	-27.77
686.227	-11.77
686.257	24.23
686.287	-1.77
686.317	-10.77
686.346	-3.77
686.376	-1.77
686.406	2.23
686.436	5.23
686.466	4.23
686.496	7.23
686.525	0.23
686.555	3.23
686.585	13.23
686.615	18.23
686.645	11.23
686.675	-1.77
686.704	3.23
686.734	5.23
686.764	4.23
686.794	-7.77
686.824	-3.77
686.853	7.23
686.883	0.23
686.913	12.23
686.943	3.23
686.973	-3.77
687.002	-9.77
687.032	-2.77
687.062	2.23
687.092	7.23
687.121	-3.77
687.151	0.23
687.181	-6.77
687.211	20.23
687.24	-5.77
687.27	16.23
687.3	-5.77
687.33	3.23
687.359	-11.77
687.389	-8.77
687.419	-11.77
687.449	3.23
687.478	14.23
687.508	3.23
687.538	10.23
687.568	8.23
687.597	-0.77
687.627	-4.77
687.657	5.23
687.686	-3.77
687.716	13.23
687.746	-5.77
687.776	15.23
687.805	-2.77
687.835	2.23
687.865	22.23
687.894	15.23
687.924	-1.77
687.954	2.23
687.983	17.23
688.013	10.23
688.043	17.23
688.072	5.23
688.102	10.23
688.132	4.23
688.161	-3.77
688.191	-3.77
688.221	11.23
688.25	-2.77
688.28	10.23
688.31	-1.77
688.339	0.23
688.369	-1.77
688.399	-11.77
688.428	9.23
688.458	-2.77
688.488	-10.77
688.517	17.23
688.547	8.23
688.576	33.23
688.606	1.23
688.636	-11.77
688.665	-3.77
688.695	0.23
688.725	5.23
688.754	6.23
688.784	9.23
688.813	10.23
688.843	-0.77
688.873	-1.77
688.902	0.23
688.932	9.23
688.961	-2.77
688.991	9.23
689.02	8.23
689.05	0.23
689.08	16.23
689.109	4.23
689.139	0.23
689.168	-7.77
689.198	6.23
689.227	-1.77
689.257	14.23
689.287	13.23
689.316	1.23
689.346	-13.77
689.375	-1.77
689.405	9.23
689.434	11.23
689.464	-6.77
689.493	-18.77
689.523	1.23
689.552	-3.77
689.582	10.23
689.611	-13.77
689.641	12.23
689.67	-8.77
689.7	-2.77
689.73	6.23
689.759	9.23
689.789	17.23
689.818	-0.77
689.848	5.23
689.877	21.23
689.906	-6.77
689.936	-8.77
689.965	-8.77
689.995	-11.77
690.024	13.23
690.054	5.23
690.083	8.23
690.113	-2.77
690.142	12.23
690.172	-5.77
690.201	-0.77
690.231	-3.77
690.26	-0.77
690.29	-5.77
690.319	28.23
690.348	-6.77
690.378	0.23
690.407	-2.77
690.437	-7.77
690.466	-8.77
690.496	-2.77
690.525	-6.77
690.555	-2.77
690.584	0.23
690.613	-1.77
690.643	1.23
690.672	20.23
690.702	9.23
690.731	-4.77
690.76	22.23
690.79	50.23
690.819	32.23
690.849	35.23
690.878	28.23
690.907	29.23
690.937	20.23
690.966	15.23
690.996	-8.77
691.025	8.23
691.054	-2.77
691.084	-1.77
691.113	-4.77
691.142	-7.77
691.172	6.23
691.201	12.23
691.23	2.23
691.26	13.23
691.289	1.23
691.319	-0.77
691.348	-3.77
691.377	17.23
691.407	6.23
691.436	17.23
691.465	-1.77
691.495	-4.77
691.524	-12.77
691.553	-6.77
691.583	4.23
691.612	9.23
691.641	9.23
691.67	9.23
691.7	11.23
691.729	-4.77
691.758	8.23
691.788	-1.77
691.817	-1.77
691.846	1.23
691.876	-7.77
691.905	-1.77
691.934	-0.77
691.963	5.23
691.993	5.23
692.022	-10.77
692.051	-6.77
692.081	5.23
692.11	14.23
692.139	2.23
692.168	3.23
692.198	28.23
692.227	11.23
692.256	6.23
692.285	-0.77
692.315	4.23
692.344	24.23
692.373	8.23
692.402	-26.77
692.432	-22.77
692.461	-15.77
692.49	-1.77
692.519	-2.77
692.548	16.23
692.578	1.23
692.607	-15.77
692.636	-15.77
692.665	4.23
692.694	-2.77
692.724	-12.77
692.753	16.23
692.782	35.23
692.811	5.23
692.84	9.23
692.87	15.23
692.899	-24.77
692.928	-12.77
692.957	4.23
692.986	1.23
693.016	2.23
693.045	-3.77
693.074	-0.77
693.103	4.23
693.132	-16.77
693.161	5.23
693.191	-3.77
693.22	0.23
693.249	3.23
693.278	-7.77
693.307	14.23
693.336	-9.77
693.365	-24.77
693.395	0.23
693.424	7.23
693.453	19.23
693.482	-4.77
693.511	16.23
693.54	14.23
693.569	8.23
693.598	-0.77
693.628	18.23
693.657	11.23
693.686	27.23
693.715	6.23
693.744	4.23
693.773	22.23
693.802	1.23
693.831	-10.77
693.86	20.23
693.889	-1.77
693.919	2.23
693.948	12.23
693.977	7.23
694.006	-6.77
694.035	-0.77
694.064	0.23
694.093	-14.77
694.122	-13.77
694.151	-10.77
694.18	6.23
694.209	38.23
694.238	-12.77
694.267	21.23
694.296	9.23
694.325	6.23
694.354	20.23
694.383	7.23
694.412	16.23
694.441	8.23
694.471	-9.77
694.5	-7.77
694.529	3.23
694.558	12.23
694.587	14.23
694.616	-0.77
694.645	-10.77
694.674	23.23
694.703	17.23
694.732	-3.77
694.761	14.23
694.79	6.23
694.819	-7.77
694.848	13.23
694.877	14.23
694.906	33.23
694.935	6.23
694.963	18.23
694.992	-7.77
695.021	13.23
695.05	5.23
695.079	7.23
695.108	4.23
695.137	21.23
695.166	4.23
695.195	4.23
695.224	14.23
695.253	4.23
695.282	8.23
695.311	3.23
695.34	2.23
695.369	16.23
695.398	6.23
695.427	20.23
695.456	7.23
695.485	2.23
695.513	12.23
695.542	0.23
695.571	3.23
695.6	9.23
695.629	14.23
695.658	10.23
695.687	13.23
695.716	-9.77
695.745	15.23
695.774	-10.77
695.802	14.23
695.831	22.23
695.86	1.23
695.889	4.23
695.918	-10.77
695.947	-6.77
695.976	2.23
696.005	7.23
696.033	13.23
696.062	24.23
696.091	8.23
696.12	15.23
696.149	21.23
696.178	6.23
696.207	13.23
696.235	-8.77
696.264	20.23
696.293	11.23
696.322	5.23
696.351	13.23
696.38	8.23
696.408	14.23
696.437	2.23
696.466	1.23
696.495	19.23
696.524	3.23
696.553	-2.77
696.581	16.23
696.61	12.23
696.639	1.23
696.668	5.23
696.697	-7.77
696.725	29.23
696.754	8.23
696.783	-14.77
696.812	-6.77
696.84	12.23
696.869	3.23
696.898	8.23
696.927	-2.77
696.956	11.23
696.984	-8.77
697.013	0.23
697.042	-6.77
697.071	5.23
697.099	18.23
697.128	16.23
697.157	7.23
697.186	3.23
697.214	-4.77
697.243	0.23
697.272	-0.77
697.301	2.23
697.329	14.23
697.358	16.23
697.387	15.23
697.415	1.23
697.444	-0.77
697.473	5.23
697.502	-5.77
697.53	16.23
697.559	4.23
697.588	-6.77
697.616	-10.77
697.645	-1.77
697.674	19.23
697.703	1.23
697.731	16.23
697.76	5.23
697.789	1.23
697.817	7.23
697.846	30.23
697.875	8.23
697.903	23.23
697.932	18.23
697.961	19.23
697.989	11.23
698.018	28.23
698.047	3.23
698.075	21.23
698.104	-6.77
698.133	-12.77
698.161	-3.77
698.19	-1.77
698.218	18.23
698.247	10.23
698.276	6.23
698.304	-1.77
698.333	7.23
698.362	-2.77
698.39	-13.77
698.419	5.23
698.447	-8.77
698.476	-1.77
698.505	28.23
698.533	15.23
698.562	12.23
698.591	3.23
698.619	-11.77
698.648	-0.77
698.676	7.23
698.705	7.23
698.733	-25.77
698.762	4.23
698.791	13.23
698.819	11.23
698.848	1.23
698.876	-1.77
698.905	5.23
698.933	11.23
698.962	-1.77
698.991	-3.77
699.019	21.23
699.048	6.23
699.076	15.23
699.105	-5.77
699.133	9.23
699.162	11.23
699.19	5.23
699.219	0.23
699.248	0.23
699.276	7.23
699.305	9.23
699.333	11.23
699.362	-1.77
699.39	4.23
699.419	5.23
699.447	21.23
699.476	1.23
699.504	-9.77
699.533	7.23
699.561	-15.77
699.59	-1.77
699.618	-4.77
699.647	15.23
699.675	-6.77
699.704	19.23
699.732	2.23
699.761	0.23
699.789	0.23
699.818	12.23
699.846	-0.77
699.874	9.23
699.903	-5.77
699.931	-6.77
699.96	10.23
699.988	10.23
700.017	-9.77
700.045	8.23
700.074	-3.77
700.102	3.23
700.13	6.23
700.159	10.23
700.187	12.23
700.216	7.23
700.244	-3.77
700.273	3.23
700.301	-0.77
700.329	25.23
700.358	9.23
700.386	-10.77
700.415	17.23
700.443	-8.77
700.472	-3.77
700.5	3.23
700.528	-1.77
700.557	-1.77
700.585	-7.77
700.614	-3.77
700.642	8.23
700.67	13.23
700.699	13.23
700.727	6.23
700.755	11.23
700.784	4.23
700.812	0.23
700.841	14.23
700.869	5.23
700.897	-6.77
700.926	11.23
700.954	16.23
700.982	24.23
701.011	6.23
701.039	2.23
701.067	-16.77
701.096	21.23
701.124	-1.77
701.152	7.23
701.181	19.23
701.209	12.23
701.237	15.23
701.266	-1.77
701.294	-2.77
701.322	9.23
701.351	24.23
701.379	11.23
701.407	9.23
701.435	2.23
701.464	0.23
701.492	20.23
701.52	6.23
701.549	-6.77
701.577	-22.77
701.605	-5.77
701.634	11.23
701.662	0.23
701.69	-2.77
701.718	-0.77
701.747	10.23
701.775	-10.77
701.803	-0.77
701.831	23.23
701.86	-3.77
701.888	10.23
701.916	14.23
701.944	1.23
701.973	4.23
702.001	-6.77
702.029	-3.77
702.057	-2.77
702.086	-1.77
702.114	1.23
702.142	4.23
702.17	9.23
702.199	5.23
702.227	0.23
702.255	-6.77
702.283	-2.77
702.311	-1.77
702.34	16.23
702.368	-5.77
702.396	-0.77
702.424	-7.77
702.452	5.23
702.481	0.23
702.509	0.23
702.537	-9.77
702.565	5.23
702.593	-15.77
702.621	8.23
702.65	22.23
702.678	9.23
702.706	13.23
702.734	0.23
702.762	-8.77
702.79	9.23
702.819	12.23
702.847	0.23
702.875	6.23
702.903	1.23
702.931	-11.77
702.959	-17.77
702.988	-0.77
703.016	-11.77
703.044	-7.77
703.072	-12.77
703.1	0.23
703.128	-4.77
703.156	-9.77
703.184	9.23
703.212	9.23
703.241	13.23
703.269	-8.77
703.297	1.23
703.325	12.23
703.353	-1.77
703.381	3.23
703.409	5.23
703.437	10.23
703.465	2.23
703.493	-5.77
703.522	0.23
703.55	8.23
703.578	0.23
703.606	-5.77
703.634	3.23
703.662	-11.77
703.69	-6.77
703.718	4.23
703.746	9.23
703.774	16.23
703.802	-0.77
703.83	1.23
703.858	1.23
703.886	-6.77
703.914	-10.77
703.942	9.23
703.97	4.23
703.998	0.23
704.027	28.23
704.055	9.23
704.083	-1.77
704.111	-3.77
704.139	-2.77
704.167	-2.77
704.195	0.23
704.223	2.23
704.251	1.23
704.279	4.23
704.307	-2.77
704.335	-9.77
704.363	7.23
704.391	1.23
704.419	-7.77
704.447	-6.77
704.475	10.23
704.503	-6.77
704.531	16.23
704.558	2.23
704.586	6.23
704.614	-0.77
704.642	7.23
704.67	-16.77
704.698	5.23
704.726	11.23
704.754	4.23
704.782	-3.77
704.81	-13.77
704.838	4.23
704.866	1.23
704.894	-5.77
704.922	-14.77
704.95	2.23
704.978	-7.77
705.006	0.23
705.034	12.23
705.061	-3.77
705.089	-1.77
705.117	-6.77
705.145	0.23
705.173	-10.77
705.201	-1.77
705.229	10.23
705.257	-10.77
705.285	-2.77
705.313	-6.77
705.34	-8.77
705.368	-14.77
705.396	-3.77
705.424	-1.77
705.452	2.23
705.48	7.23
705.508	-7.77
705.536	13.23
705.563	-15.77
705.591	2.23
705.619	1.23
705.647	-14.77
705.675	6.23
705.703	4.23
705.731	18.23
705.758	13.23
705.786	15.23
705.814	16.23
705.842	9.23
705.87	3.23
705.898	11.23
705.925	-3.77
705.953	-3.77
705.981	-0.77
706.009	-1.77
706.037	20.23
706.065	0.23
706.092	-16.77
706.12	1.23
706.148	1.23
706.176	-4.77
706.204	8.23
706.231	14.23
706.259	-0.77
706.287	-3.77
706.315	7.23
706.342	-0.77
706.37	10.23
706.398	6.23
706.426	1.23
706.454	-7.77
706.481	-0.77
706.509	2.23
706.537	4.23
706.565	-7.77
706.592	13.23
706.62	0.23
706.648	-0.77
706.676	-16.77
706.703	8.23
706.731	5.23
706.759	-1.77
706.787	-4.77
706.814	8.23
706.842	5.23
706.87	-10.77
706.897	8.23
706.925	9.23
706.953	15.23
706.981	15.23
707.008	-1.77
707.036	0.23
707.064	-2.77
707.091	-29.77
707.119	25.23
707.147	0.23
707.174	6.23
707.202	20.23
707.23	-1.77
707.258	1.23
707.285	-11.77
707.313	-3.77
707.341	-26.77
707.368	-8.77
707.396	-1.77
707.424	14.23
707.451	14.23
707.479	-3.77
707.507	-9.77
707.534	-3.77
707.562	5.23
707.59	-1.77
707.617	-6.77
707.645	9.23
707.672	11.23
707.7	7.23
707.728	17.23
707.755	4.23
707.783	5.23
707.811	16.23
707.838	-0.77
707.866	2.23
707.893	-0.77
707.921	-9.77
707.949	-1.77
707.976	7.23
708.004	0.23
708.031	-10.77
708.059	0.23
708.087	0.23
708.114	9.23
708.142	10.23
708.169	-3.77
708.197	-26.77
708.225	2.23
708.252	-2.77
708.28	15.23
708.307	10.23
708.335	6.23
708.362	-1.77
708.39	-6.77
708.418	-3.77
708.445	-14.77
708.473	-6.77
708.5	-0.77
708.528	16.23
708.555	-8.77
708.583	-8.77
708.61	-20.77
708.638	5.23
708.665	0.23
708.693	2.23
708.72	-15.77
708.748	-6.77
708.776	6.23
708.803	7.23
708.831	3.23
708.858	4.23
708.886	6.23
708.913	9.23
708.941	-12.77
708.968	17.23
708.996	11.23
709.023	20.23
709.051	6.23
709.078	0.23
709.105	13.23
709.133	2.23
709.16	-2.77
709.188	25.23
709.215	23.23
709.243	0.23
709.27	1.23
709.298	6.23
709.325	2.23
709.353	10.23
709.38	12.23
709.408	11.23
709.435	6.23
709.462	9.23
709.49	1.23
709.517	-10.77
709.545	-13.77
709.572	-3.77
709.6	-11.77
709.627	3.23
709.655	-9.77
709.682	-9.77
709.709	-1.77
709.737	-9.77
709.764	-17.77
709.792	7.23
709.819	-12.77
709.846	-4.77
709.874	12.23
709.901	19.23
709.929	7.23
709.956	8.23
709.983	3.23
710.011	6.23
710.038	3.23
710.066	-5.77
710.093	15.23
710.12	3.23
710.148	-19.77
710.175	-7.77
710.202	2.23
710.23	0.23
710.257	-8.77
710.284	3.23
710.312	-11.77
710.339	-0.77
710.366	-8.77
710.394	1.23
710.421	27.23
710.448	9.23
710.476	-12.77
710.503	-3.77
710.53	14.23
710.558	13.23
710.585	26.23
710.612	6.23
710.64	12.23
710.667	20.23
710.694	7.23
710.722	-0.77
710.749	-3.77
710.776	-1.77
710.804	13.23
710.831	9.23
710.858	-16.77
710.885	0.23
710.913	-21.77
710.94	15.23
710.967	1.23
710.995	10.23
711.022	-6.77
711.049	-1.77
711.076	-6.77
711.104	-8.77
711.131	-18.77
711.158	-6.77
711.185	-3.77
711.213	-13.77
711.24	-14.77
711.267	-8.77
711.294	-15.77
711.322	17.23
711.349	-4.77
711.376	0.23
711.403	-0.77
711.431	3.23
711.458	0.23
711.485	-0.77
711.512	19.23
711.54	-6.77
711.567	-0.77
711.594	-2.77
711.621	10.23
711.648	5.23
711.676	4.23
711.703	-2.77
711.73	-16.77
711.757	-6.77
711.784	0.23
711.812	-2.77
711.839	-0.77
711.866	-8.77
711.893	-12.77
711.92	4.23
711.947	3.23
711.975	2.23
712.002	-20.77
712.029	4.23
712.056	-3.77
712.083	5.23
712.11	-14.77
712.138	-9.77
712.165	-6.77
712.192	-6.77
712.219	-5.77
712.246	-8.77
712.273	-14.77
712.3	-3.77
712.328	8.23
712.355	-4.77
712.382	-3.77
712.409	14.23
712.436	-10.77
712.463	15.23
712.49	14.23
712.517	1.23
712.544	-4.77
712.572	20.23
712.599	8.23
712.626	-0.77
712.653	-4.77
712.68	0.23
712.707	6.23
712.734	-3.77
712.761	-1.77
712.788	6.23
712.815	2.23
712.842	18.23
712.87	-14.77
712.897	-13.77
712.924	-17.77
712.951	2.23
712.978	9.23
713.005	4.23
713.032	26.23
713.059	7.23
713.086	-1.77
713.113	-10.77
713.14	-13.77
713.167	8.23
713.194	9.23
713.221	4.23
713.248	9.23
713.275	-12.77
713.302	0.23
713.329	-11.77
713.356	-11.77
713.383	-5.77
713.41	14.23
713.437	-4.77
713.464	2.23
713.491	9.23
713.518	-1.77
713.545	-5.77
713.572	1.23
713.599	4.23
713.626	9.23
713.653	6.23
713.68	1.23
713.707	1.23
713.734	5.23
713.761	1.23
713.788	-4.77
713.815	8.23
713.842	11.23
713.869	7.23
713.896	-0.77
713.923	-7.77
713.95	-3.77
713.977	-7.77
714.004	8.23
714.031	-4.77
714.058	-5.77
714.085	-9.77
714.112	8.23
714.139	-6.77
714.165	-2.77
714.192	0.23
714.219	-8.77
714.246	7.23
714.273	-3.77
714.3	-9.77
714.327	6.23
714.354	7.23
714.381	4.23
714.408	20.23
714.435	-7.77
714.461	-4.77
714.488	9.23
714.515	-7.77
714.542	-12.77
714.569	-2.77
714.596	-3.77
714.623	-6.77
714.65	-22.77
714.677	-3.77
714.703	-3.77
714.73	19.23
714.757	4.23
714.784	10.23
714.811	-4.77
714.838	-7.77
714.865	-5.77
714.891	-2.77
714.918	12.23
714.945	-21.77
714.972	-2.77
714.999	4.23
715.026	-13.77
715.052	1.23
715.079	-10.77
715.106	11.23
715.133	13.23
715.16	-5.77
715.187	4.23
715.213	4.23
715.24	-15.77
715.267	5.23
715.294	0.23
715.321	0.23
715.347	0.23
715.374	-20.77
715.401	-6.77
715.428	-5.77
715.455	-3.77
715.481	-28.77
715.508	10.23
715.535	-6.77
715.562	22.23
715.588	4.23
715.615	18.23
715.642	-1.77
715.669	0.23
715.695	-8.77
715.722	-16.77
715.749	-3.77
715.776	-4.77
715.802	4.23
715.829	3.23
715.856	-1.77
715.883	6.23
715.909	-6.77
715.936	-14.77
715.963	0.23
715.99	-10.77
716.016	5.23
716.043	13.23
716.07	-11.77
716.096	-11.77
716.123	3.23
716.15	5.23
716.177	-3.77
716.203	0.23
716.23	12.23
716.257	22.23
716.283	18.23
716.31	-7.77
716.337	10.23
716.363	-2.77
716.39	15.23
716.417	11.23
716.443	-9.77
716.47	10.23
716.497	1.23
716.523	8.23
716.55	-4.77
716.577	19.23
716.603	1.23
716.63	3.23
716.657	14.23
716.683	-13.77
716.71	0.23
716.737	8.23
716.763	5.23
716.79	-1.77
716.817	-0.77
716.843	-2.77
716.87	-3.77
716.897	-3.77
716.923	7.23
716.95	-14.77
716.976	-11.77
717.003	-5.77
717.03	-2.77
717.056	2.23
717.083	-0.77
717.109	-1.77
717.136	-4.77
717.163	7.23
717.189	6.23
717.216	-7.77
717.242	-8.77
717.269	-19.77
717.296	11.23
717.322	5.23
717.349	3.23
717.375	3.23
717.402	-3.77
717.428	-11.77
717.455	19.23
717.481	12.23
717.508	9.23
717.535	6.23
717.561	0.23
717.588	3.23
717.614	-7.77
717.641	4.23
717.667	10.23
717.694	0.23
717.72	3.23
717.747	3.23
717.773	-0.77
717.8	9.23
717.826	9.23
717.853	7.23
717.88	6.23
717.906	-9.77
717.933	17.23
717.959	-6.77
717.986	-5.77
718.012	-11.77
718.039	7.23
718.065	10.23
718.092	18.23
718.118	1.23
718.144	-0.77
718.171	1.23
718.197	19.23
718.224	-6.77
718.25	-2.77
718.277	1.23
718.303	-1.77
718.33	2.23
718.356	-7.77
718.383	-19.77
718.409	-10.77
718.436	-2.77
718.462	0.23
718.489	-4.77
718.515	18.23
718.541	3.23
718.568	11.23
718.594	15.23
718.621	13.23
718.647	-6.77
718.674	21.23
718.7	-4.77
718.726	0.23
718.753	7.23
718.779	13.23
718.806	-1.77
718.832	9.23
718.858	4.23
718.885	-4.77
718.911	-2.77
718.938	6.23
718.964	-18.77
718.99	10.23
719.017	2.23
719.043	-3.77
719.07	10.23
719.096	-6.77
719.122	8.23
719.149	-8.77
719.175	-3.77
719.201	-10.77
719.228	-5.77
719.254	-5.77
719.281	-7.77
719.307	0.23
719.333	0.23
719.36	8.23
719.386	-6.77
719.412	15.23
719.439	-12.77
719.465	0.23
719.491	-8.77
719.518	11.23
719.544	-5.77
719.57	-6.77
719.597	-2.77
719.623	-12.77
719.649	-11.77
719.675	-6.77
719.702	4.23
719.728	16.23
719.754	-6.77
719.781	8.23
719.807	6.23
719.833	7.23
719.86	-1.77
719.886	-0.77
719.912	-5.77
719.938	-11.77
719.965	1.23
719.991	4.23
720.017	-7.77
720.044	-7.77
720.07	10.23
720.096	5.23
720.122	-1.77
720.149	10.23
720.175	21.23
720.201	12.23
720.227	-1.77
720.254	-5.77
720.28	-1.77
720.306	-9.77
720.332	-0.77
720.359	-0.77
720.385	1.23
720.411	1.23
720.437	2.23
720.463	7.23
720.49	16.23
720.516	-7.77
720.542	-9.77
720.568	6.23
720.595	9.23
720.621	-4.77
720.647	9.23
720.673	-3.77
720.699	-9.77
720.725	-4.77
720.752	-1.77
720.778	-6.77
720.804	6.23
720.83	12.23
720.856	-2.77
720.883	-6.77
720.909	-3.77
720.935	9.23
720.961	6.23
720.987	7.23
721.013	1.23
721.04	-3.77
721.066	-8.77
721.092	-1.77
721.118	0.23
721.144	-3.77
721.17	-3.77
721.196	-4.77
721.223	4.23
721.249	0.23
721.275	22.23
721.301	-8.77
721.327	9.23
721.353	6.23
721.379	-6.77
721.405	12.23
721.432	20.23
721.458	1.23
721.484	9.23
721.51	-7.77
721.536	-5.77
721.562	-10.77
721.588	1.23
721.614	1.23
721.64	0.23
721.666	11.23
721.693	-10.77
721.719	16.23
721.745	5.23
721.771	-5.77
721.797	3.23
721.823	9.23
721.849	24.23
721.875	6.23
721.901	7.23
721.927	1.23
721.953	0.23
721.979	10.23
722.005	20.23
722.031	4.23
722.057	5.23
722.083	6.23
722.109	5.23
722.135	4.23
722.161	17.23
722.187	-5.77
722.214	4.23
722.24	1.23
722.266	-11.77
722.292	9.23
722.318	14.23
722.344	6.23
722.37	9.23
722.396	16.23
722.422	-6.77
722.448	1.23
722.474	-8.77
722.5	9.23
722.526	8.23
722.552	-0.77
722.578	-9.77
722.603	6.23
722.629	-9.77
722.655	-4.77
722.681	6.23
722.707	-2.77
722.733	0.23
722.759	-1.77
722.785	0.23
722.811	-10.77
722.837	-2.77
722.863	17.23
722.889	6.23
722.915	12.23
722.941	3.23
722.967	0.23
722.993	21.23
723.019	11.23
723.045	9.23
723.071	1.23
723.097	0.23
723.122	-1.77
723.148	10.23
723.174	-13.77
723.2	4.23
723.226	-9.77
723.252	-6.77
723.278	6.23
723.304	-5.77
723.33	-10.77
723.356	-4.77
723.381	2.23
723.407	-16.77
723.433	7.23
723.459	3.23
723.485	-2.77
723.511	10.23
723.537	-3.77
723.563	-17.77
723.588	0.23
723.614	7.23
723.64	5.23
723.666	2.23
723.692	3.23
723.718	1.23
723.744	0.23
723.769	-0.77
723.795	7.23
723.821	-6.77
723.847	-0.77
723.873	-6.77
723.899	-1.77
723.924	-4.77
723.95	8.23
723.976	-11.77
724.002	0.23
724.028	-3.77
724.053	-15.77
724.079	3.23
724.105	-1.77
724.131	7.23
724.157	-4.77
724.182	8.23
724.208	-10.77
724.234	-8.77
724.26	-10.77
724.286	2.23
724.311	5.23
724.337	-3.77
724.363	-11.77
724.389	0.23
724.415	1.23
724.44	20.23
724.466	-9.77
724.492	12.23
724.518	17.23
724.543	-13.77
724.569	4.23
724.595	8.23
724.621	-3.77
724.646	-9.77
724.672	-6.77
724.698	-5.77
724.723	-6.77
724.749	-20.77
724.775	6.23
724.801	12.23
724.826	-2.77
724.852	-13.77
724.878	-12.77
724.904	-23.77
724.929	1.23
724.955	1.23
724.981	-0.77
725.006	5.23
725.032	-8.77
725.058	10.23
725.083	-1.77
725.109	13.23
725.135	11.23
725.161	7.23
725.186	-2.77
725.212	1.23
725.238	8.23
725.263	1.23
725.289	-9.77
725.315	-14.77
725.34	-3.77
725.366	9.23
725.392	-13.77
725.417	-15.77
725.443	2.23
725.468	5.23
725.494	1.23
725.52	3.23
725.545	-5.77
725.571	-6.77
725.597	0.23
725.622	-13.77
725.648	6.23
725.674	17.23
725.699	8.23
725.725	4.23
725.75	32.23
725.776	5.23
725.802	10.23
725.827	14.23
725.853	-2.77
725.878	9.23
725.904	1.23
725.93	7.23
725.955	-3.77
725.981	-8.77
726.006	-9.77
726.032	10.23
726.057	-7.77
726.083	-18.77
726.109	-0.77
726.134	-0.77
726.16	0.23
726.185	-4.77
726.211	-8.77
726.236	6.23
726.262	-12.77
726.288	-14.77
726.313	7.23
726.339	-0.77
726.364	-3.77
726.39	15.23
726.415	3.23
726.441	6.23
726.466	-2.77
726.492	2.23
726.517	5.23
726.543	12.23
726.568	-8.77
726.594	1.23
726.619	11.23
726.645	-3.77
726.67	-11.77
726.696	-1.77
726.721	-15.77
726.747	0.23
726.772	14.23
726.798	2.23
726.823	26.23
726.849	-0.77
726.874	3.23
726.9	13.23
726.925	15.23
726.951	7.23
726.976	27.23
727.002	-10.77
727.027	-9.77
727.053	10.23
727.078	-7.77
727.104	3.23
727.129	-8.77
727.155	-1.77
727.18	-2.77
727.205	-5.77
727.231	-7.77
727.256	1.23
727.282	0.23
727.307	23.23
727.333	-2.77
727.358	-15.77
727.383	-16.77
727.409	7.23
727.434	15.23
727.46	-7.77
727.485	3.23
727.511	7.23
727.536	-8.77
727.561	0.23
727.587	-0.77
727.612	-8.77
727.637	-3.77
727.663	0.23
727.688	13.23
727.714	-8.77
727.739	-14.77
727.764	-5.77
727.79	-1.77
727.815	16.23
727.841	3.23
727.866	-1.77
727.891	-2.77
727.917	-4.77
727.942	-5.77
727.967	-2.77
727.993	-27.77
728.018	-5.77
728.043	12.23
728.069	0.23
728.094	11.23
728.119	4.23
728.145	14.23
728.17	12.23
728.195	9.23
728.221	13.23
728.246	14.23
728.271	-7.77
728.297	1.23
728.322	-7.77
728.347	4.23
728.373	9.23
728.398	-5.77
728.423	-4.77
728.448	11.23
728.474	9.23
728.499	-3.77
728.524	-10.77
728.55	-7.77
728.575	-12.77
728.6	2.23
728.625	-13.77
728.651	10.23
728.676	-0.77
728.701	-3.77
728.727	5.23
728.752	-16.77
728.777	-11.77
728.802	-1.77
728.828	-5.77
728.853	1.23
728.878	9.23
728.903	-12.77
728.929	6.23
728.954	-17.77
728.979	11.23
729.004	-3.77
729.03	-9.77
729.055	11.23
729.08	-3.77
729.105	-8.77
729.13	16.23
729.156	11.23
729.181	2.23
729.206	-18.77
729.231	-12.77
729.256	10.23
729.282	-1.77
729.307	-3.77
729.332	-11.77
729.357	-14.77
729.382	-12.77
729.408	-3.77
729.433	-2.77
729.458	-4.77
729.483	6.23
729.508	17.23
729.533	4.23
729.559	-6.77
729.584	-7.77
729.609	-2.77
729.634	11.23
729.659	-11.77
729.684	-5.77
729.71	7.23
729.735	14.23
729.76	-12.77
729.785	7.23
729.81	23.23
729.835	5.23
729.86	1.23
729.886	11.23
729.911	8.23
729.936	9.23
729.961	17.23
729.986	32.23
730.011	68.23
730.036	221.23
730.061	1062.23
730.086	2752.23
730.112	3441.23
730.137	2901.23
730.162	2148.23
730.187	1633.23
730.212	1263.23
730.237	791.23
730.262	460.23
730.287	248.23
730.312	159.23
730.337	77.23
730.362	77.23
730.387	65.23
730.413	28.23
730.438	23.23
730.463	19.23
730.488	-5.77
730.513	17.23
730.538	1.23
730.563	18.23
730.588	8.23
730.613	21.23
730.638	-1.77
730.663	7.23
730.688	31.23
730.713	16.23
730.738	15.23
730.763	2.23
730.788	-9.77
730.813	5.23
730.838	5.23
730.863	10.23
730.888	-4.77
730.913	-14.77
730.938	0.23
730.963	32.23
730.988	125.23
731.013	429.23
731.038	657.23
731.063	641.23
731.088	457.23
731.113	333.23
731.138	270.23
731.163	189.23
731.188	104.23
731.213	55.23
731.238	42.23
731.263	16.23
731.288	-7.77
731.313	-6.77
731.338	4.23
731.363	-9.77
731.388	-2.77
731.413	-6.77
731.438	4.23
731.463	-2.77
731.487	-0.77
731.512	-5.77
731.537	4.23
731.562	-7.77
731.587	-1.77
731.612	-5.77
731.637	-1.77
731.662	-2.77
731.687	2.23
731.712	-9.77
731.737	-3.77
731.762	1.23
731.786	4.23
731.811	-2.77
731.836	9.23
731.861	6.23
731.886	5.23
731.911	18.23
731.936	28.23
731.961	8.23
731.986	12.23
732.01	9.23
732.035	3.23
732.06	16.23
732.085	-0.77
732.11	6.23
732.135	-4.77
732.16	1.23
732.184	-1.77
732.209	-7.77
732.234	3.23
732.259	1.23
732.284	18.23
732.309	-6.77
732.334	-14.77
732.358	-17.77
732.383	-19.77
732.408	-4.77
732.433	-4.77
732.458	-6.77
732.482	5.23
732.507	-22.77
732.532	-1.77
732.557	9.23
732.582	2.23
732.607	14.23
732.631	37.23
732.656	85.23
732.681	148.23
732.706	335.23
732.73	476.23
732.755	419.23
732.78	312.23
732.805	237.23
732.83	170.23
732.854	112.23
732.879	85.23
732.904	32.23
732.929	22.23
732.953	19.23
732.978	-1.77
733.003	5.23
733.028	5.23
733.052	-6.77
733.077	-8.77
733.102	16.23
733.127	3.23
733.151	8.23
733.176	15.23
733.201	-3.77
733.226	-6.77
733.25	-2.77
733.275	-9.77
733.3	2.23
733.324	15.23
733.349	11.23
733.374	25.23
733.399	-3.77
733.423	-1.77
733.448	0.23
733.473	-3.77
733.497	1.23
733.522	-10.77
733.547	10.23
733.571	9.23
733.596	2.23
733.621	3.23
733.646	-0.77
733.67	6.23
733.695	3.23
733.72	9.23
733.744	16.23
733.769	-10.77
733.794	7.23
733.818	3.23
733.843	-5.77
733.867	7.23
733.892	-3.77
733.917	-3.77
733.941	14.23
733.966	-7.77
733.991	18.23
734.015	21.23
734.04	20.23
734.065	13.23
734.089	6.23
734.114	-3.77
734.138	22.23
734.163	-7.77
734.188	7.23
734.212	4.23
734.237	3.23
734.261	6.23
734.286	-3.77
734.311	-0.77
734.335	-10.77
734.36	1.23
734.384	4.23
734.409	-2.77
734.434	-19.77
734.458	6.23
734.483	-7.77
734.507	5.23
734.532	-7.77
734.556	-1.77
734.581	-1.77
734.606	-3.77
734.63	-8.77
734.655	-8.77
734.679	-9.77
734.704	4.23
734.728	14.23
734.753	-10.77
734.777	-3.77
734.802	-1.77
734.826	-3.77
734.851	4.23
734.876	2.23
734.9	-5.77
734.925	-13.77
734.949	-4.77
734.974	-8.77
734.998	4.23
735.023	-25.77
735.047	-10.77
735.072	24.23
735.096	3.23
735.121	-4.77
735.145	-13.77
735.17	-2.77
735.194	6.23
735.219	-3.77
735.243	-3.77
735.268	-5.77
735.292	-1.77
735.317	-2.77
735.341	-1.77
735.365	-13.77
735.39	-5.77
735.414	-6.77
735.439	-1.77
735.463	4.23
735.488	-5.77
735.512	4.23
735.537	10.23
735.561	-14.77
735.586	-2.77
735.61	4.23
735.634	5.23
735.659	5.23
735.683	22.23
735.708	-9.77
735.732	-7.77
735.757	-5.77
735.781	-3.77
735.805	21.23
735.83	-5.77
735.854	-7.77
735.879	2.23
735.903	7.23
735.927	2.23
735.952	-5.77
735.976	-8.77
736.001	1.23
736.025	-7.77
736.049	-10.77
736.074	-12.77
736.098	-14.77
736.123	-2.77
736.147	2.23
736.171	-4.77
736.196	-5.77
736.22	-8.77
736.244	-10.77
736.269	-3.77
736.293	-14.77
736.317	-7.77
736.342	18.23
736.366	15.23
736.39	4.23
736.415	-3.77
736.439	-5.77
736.463	13.23
736.488	2.23
736.512	6.23
736.536	12.23
736.561	1.23
736.585	1.23
736.609	7.23
736.634	-15.77
736.658	-15.77
736.682	-5.77
736.707	-18.77
736.731	-14.77
736.755	-0.77
736.78	7.23
736.804	8.23
736.828	16.23
736.852	7.23
736.877	2.23
736.901	-2.77
736.925	1.23
736.949	-6.77
736.974	-8.77
736.998	-2.77
737.022	8.23
737.047	-3.77
737.071	-2.77
737.095	5.23
737.119	22.23
737.144	0.23
737.168	4.23
737.192	-6.77
737.216	10.23
737.241	6.23
737.265	12.23
737.289	-5.77
737.313	-23.77
737.337	-15.77
737.362	5.23
737.386	5.23
737.41	-6.77
737.434	6.23
737.459	5.23
737.483	10.23
737.507	13.23
737.531	12.23
737.555	-7.77
737.58	-2.77
737.604	6.23
737.628	-14.77
737.652	-10.77
737.676	-5.77
737.701	14.23
737.725	-3.77
737.749	18.23
737.773	10.23
737.797	-14.77
737.821	-15.77
737.846	-7.77
737.87	8.23
737.894	-16.77
737.918	-7.77
737.942	-4.77
737.966	3.23
737.99	4.23
738.015	13.23
738.039	10.23
738.063	-9.77
738.087	0.23
738.111	1.23
738.135	6.23
738.159	7.23
738.184	-6.77
738.208	8.23
738.232	6.23
738.256	20.23
738.28	11.23
738.304	17.23
738.328	-8.77
738.352	7.23
738.376	-2.77
738.4	9.23
738.425	7.23
738.449	8.23
738.473	23.23
738.497	12.23
738.521	6.23
738.545	16.23
738.569	5.23
738.593	18.23
738.617	-3.77
738.641	-14.77
738.665	1.23
738.689	9.23
738.713	9.23
738.737	5.23
738.762	18.23
738.786	3.23
738.81	-11.77
738.834	8.23
738.858	4.23
738.882	2.23
738.906	0.23
738.93	16.23
738.954	-0.77
738.978	6.23
739.002	-10.77
739.026	-5.77
739.05	4.23
739.074	-3.77
739.098	24.23
739.122	1.23
739.146	4.23
739.17	-9.77
739.194	11.23
739.218	8.23
739.242	5.23
739.266	-3.77
739.29	10.23
739.314	5.23
739.338	9.23
739.362	4.23
739.386	-0.77
739.41	-10.77
739.434	8.23
739.458	21.23
739.482	-3.77
739.506	13.23
739.53	-10.77
739.554	-1.77
739.577	1.23
739.601	2.23
739.625	4.23
739.649	-7.77
739.673	1.23
739.697	12.23
739.721	-9.77
739.745	15.23
739.769	12.23
739.793	11.23
739.817	10.23
739.841	-9.77
739.865	-3.77
739.889	-2.77
739.912	7.23
739.936	-7.77
739.96	6.23
739.984	-1.77
740.008	-6.77
740.032	-1.77
740.056	-18.77
740.08	-9.77
740.104	-9.77
740.127	8.23
740.151	4.23
740.175	1.23
740.199	10.23
740.223	52.23
740.247	9.23
740.271	8.23
740.295	-7.77
740.318	-15.77
740.342	-2.77
740.366	-3.77
740.39	12.23
740.414	-5.77
740.438	-2.77
740.461	20.23
740.485	9.23
740.509	-11.77
740.533	7.23
740.557	-0.77
740.581	1.23
740.604	-4.77
740.628	-4.77
740.652	16.23
740.676	0.23
740.7	-2.77
740.723	-0.77
740.747	-2.77
740.771	6.23
740.795	-6.77
740.819	-5.77
740.842	2.23
740.866	-2.77
740.89	4.23
740.914	-1.77
740.938	-10.77
740.961	0.23
740.985	0.23
741.009	-11.77
741.033	9.23
741.056	5.23
741.08	-0.77
741.104	3.23
741.128	-3.77
741.151	13.23
741.175	7.23
741.199	7.23
741.223	7.23
741.246	-1.77
741.27	11.23
741.294	-1.77
741.318	-4.77
741.341	-1.77
741.365	7.23
741.389	2.23
741.413	1.23
741.436	8.23
741.46	15.23
741.484	28.23
741.507	1.23
741.531	30.23
741.555	11.23
741.579	-0.77
741.602	13.23
741.626	10.23
741.65	-2.77
741.673	6.23
741.697	8.23
741.721	4.23
741.744	-14.77
741.768	-2.77
741.792	5.23
741.815	2.23
741.839	18.23
741.863	8.23
741.886	8.23
741.91	8.23
741.934	12.23
741.957	-10.77
741.981	21.23
742.005	2.23
742.028	-3.77
742.052	-10.77
742.075	2.23
742.099	14.23
742.123	1.23
742.146	24.23
742.17	2.23
742.194	-15.77
742.217	-8.77
742.241	1.23
742.264	-10.77
742.288	20.23
742.312	6.23
742.335	-6.77
742.359	-13.77
742.382	22.23
742.406	2.23
742.43	-5.77
742.453	0.23
742.477	-9.77
742.5	4.23
742.524	-13.77
742.548	-19.77
742.571	-13.77
742.595	-17.77
742.618	-6.77
742.642	-0.77
742.665	21.23
742.689	1.23
742.712	8.23
742.736	-7.77
742.76	5.23
742.783	-3.77
742.807	8.23
742.83	6.23
742.854	0.23
742.877	4.23
742.901	0.23
742.924	-16.77
742.948	-4.77
742.971	10.23
742.995	0.23
743.018	-16.77
743.042	-7.77
743.065	-2.77
743.089	-10.77
743.112	-3.77
743.136	-24.77
743.159	-11.77
743.183	-9.77
743.206	5.23
743.23	-13.77
743.253	5.23
743.277	8.23
743.3	-4.77
743.324	-5.77
743.347	-6.77
743.371	6.23
743.394	6.23
743.418	14.23
743.441	-1.77
743.465	-13.77
743.488	2.23
743.512	-17.77
743.535	-6.77
743.558	3.23
743.582	6.23
743.605	-8.77
743.629	12.23
743.652	7.23
743.676	6.23
743.699	22.23
743.723	14.23
743.746	-3.77
743.769	-4.77
743.793	-2.77
743.816	-12.77
743.84	16.23
743.863	-17.77
743.886	-10.77
743.91	7.23
743.933	6.23
743.957	0.23
743.98	3.23
744.003	13.23
744.027	23.23
744.05	3.23
744.074	-3.77
744.097	-14.77
744.12	-2.77
744.144	-6.77
744.167	-0.77
744.19	-13.77
744.214	8.23
744.237	-9.77
744.26	14.23
744.284	0.23
744.307	-15.77
744.331	-1.77
744.354	-3.77
744.377	-13.77
744.401	-3.77
744.424	5.23
744.447	-14.77
744.471	-21.77
