Data from HighRes_mercury_15_13_11_07_2024_HR4C61891__63__15-14-29-486.txt Node

Date: Thu Nov 07 15:14:29 EST 2024
User: crc00042
Spectrometer: HR4C6189
Trigger mode: 4
Integration Time (sec): 1.000000E-1
Scans to average: 1
Electric dark correction enabled: true
Nonlinearity correction enabled: false
Boxcar width: 0
XAxis mode: Wavelengths
Number of Pixels in Spectrum: 3648
>>>>>Begin Spectral Data<<<<<
639.567	-63.77
639.602	-63.77
639.636	-63.77
639.67	-35.77
639.704	-3.77
639.738	-0.77
639.773	14.23
639.807	-3.77
639.841	-2.77
639.875	10.23
639.909	-1.77
639.943	3.23
639.978	-0.77
640.012	1.23
640.046	0.23
640.08	-11.77
640.114	-2.77
640.148	-4.77
640.182	-18.77
640.217	-6.77
640.251	5.23
640.285	1.23
640.319	-17.77
640.353	-10.77
640.387	22.23
640.421	-4.77
640.455	-7.77
640.49	-6.77
640.524	-0.77
640.558	1.23
640.592	-1.77
640.626	5.23
640.66	0.23
640.694	-6.77
640.728	3.23
640.762	6.23
640.796	6.23
640.83	2.23
640.865	-4.77
640.899	-8.77
640.933	-3.77
640.967	-10.77
641.001	8.23
641.035	-4.77
641.069	-13.77
641.103	-11.77
641.137	-8.77
641.171	-19.77
641.205	4.23
641.239	1.23
641.273	1.23
641.307	-11.77
641.341	0.23
641.375	-3.77
641.409	-2.77
641.443	-5.77
641.477	-14.77
641.511	-12.77
641.545	3.23
641.579	-15.77
641.614	10.23
641.648	16.23
641.682	-23.77
641.716	-7.77
641.75	16.23
641.784	7.23
641.818	-18.77
641.852	-10.77
641.886	-7.77
641.919	1.23
641.953	6.23
641.987	-11.77
642.021	-2.77
642.055	-9.77
642.089	3.23
642.123	-13.77
642.157	-11.77
642.191	-5.77
642.225	6.23
642.259	-6.77
642.293	4.23
642.327	-12.77
642.361	-24.77
642.395	21.23
642.429	6.23
642.463	0.23
642.497	9.23
642.531	0.23
642.565	-18.77
642.599	-4.77
642.633	-6.77
642.666	0.23
642.7	1.23
642.734	4.23
642.768	-16.77
642.802	-7.77
642.836	1.23
642.87	4.23
642.904	-3.77
642.938	5.23
642.972	-1.77
643.005	2.23
643.039	16.23
643.073	4.23
643.107	10.23
643.141	-15.77
643.175	-0.77
643.209	-12.77
643.243	6.23
643.276	12.23
643.31	-10.77
643.344	-14.77
643.378	-1.77
643.412	11.23
643.446	-1.77
643.48	-19.77
643.513	-19.77
643.547	-2.77
643.581	5.23
643.615	1.23
643.649	0.23
643.683	7.23
643.716	1.23
643.75	-7.77
643.784	-6.77
643.818	0.23
643.852	-8.77
643.886	-7.77
643.919	0.23
643.953	-2.77
643.987	0.23
644.021	-2.77
644.055	9.23
644.088	-9.77
644.122	-29.77
644.156	-10.77
644.19	-10.77
644.224	7.23
644.257	4.23
644.291	8.23
644.325	-4.77
644.359	-3.77
644.392	-2.77
644.426	1.23
644.46	-11.77
644.494	-6.77
644.527	-6.77
644.561	-4.77
644.595	-8.77
644.629	-0.77
644.662	0.23
644.696	4.23
644.73	0.23
644.764	-1.77
644.797	-9.77
644.831	6.23
644.865	-4.77
644.899	-6.77
644.932	0.23
644.966	-2.77
645	10.23
645.033	17.23
645.067	3.23
645.101	2.23
645.135	-5.77
645.168	-15.77
645.202	-10.77
645.236	-8.77
645.269	9.23
645.303	-4.77
645.337	-21.77
645.37	-18.77
645.404	2.23
645.438	-6.77
645.471	-17.77
645.505	3.23
645.539	-2.77
645.572	-12.77
645.606	-0.77
645.64	1.23
645.673	-4.77
645.707	11.23
645.741	2.23
645.774	2.23
645.808	0.23
645.842	-17.77
645.875	-3.77
645.909	-11.77
645.943	-13.77
645.976	1.23
646.01	-3.77
646.043	6.23
646.077	5.23
646.111	5.23
646.144	7.23
646.178	8.23
646.212	-10.77
646.245	0.23
646.279	7.23
646.312	3.23
646.346	2.23
646.38	2.23
646.413	13.23
646.447	-10.77
646.48	-0.77
646.514	3.23
646.547	-26.77
646.581	-16.77
646.615	-16.77
646.648	-15.77
646.682	-0.77
646.715	-9.77
646.749	-7.77
646.782	1.23
646.816	-11.77
646.85	2.23
646.883	-0.77
646.917	1.23
646.95	3.23
646.984	11.23
647.017	-10.77
647.051	4.23
647.084	-13.77
647.118	-13.77
647.151	2.23
647.185	3.23
647.218	-15.77
647.252	-2.77
647.285	-21.77
647.319	4.23
647.353	-3.77
647.386	0.23
647.42	-2.77
647.453	-2.77
647.487	0.23
647.52	-4.77
647.553	-10.77
647.587	-9.77
647.62	-5.77
647.654	2.23
647.687	-0.77
647.721	-8.77
647.754	1.23
647.788	-13.77
647.821	-23.77
647.855	-8.77
647.888	20.23
647.922	5.23
647.955	1.23
647.989	12.23
648.022	2.23
648.055	7.23
648.089	-23.77
648.122	23.23
648.156	-1.77
648.189	-3.77
648.223	-9.77
648.256	25.23
648.29	12.23
648.323	4.23
648.356	9.23
648.39	6.23
648.423	-1.77
648.457	-18.77
648.49	-0.77
648.523	4.23
648.557	-11.77
648.59	-14.77
648.624	7.23
648.657	1.23
648.69	15.23
648.724	18.23
648.757	24.23
648.791	5.23
648.824	11.23
648.857	14.23
648.891	5.23
648.924	0.23
648.957	12.23
648.991	-3.77
649.024	9.23
649.057	-17.77
649.091	-16.77
649.124	17.23
649.158	-3.77
649.191	23.23
649.224	-6.77
649.258	-8.77
649.291	-6.77
649.324	7.23
649.358	-13.77
649.391	-2.77
649.424	4.23
649.458	1.23
649.491	-2.77
649.524	-6.77
649.557	-21.77
649.591	-11.77
649.624	21.23
649.657	-4.77
649.691	-3.77
649.724	0.23
649.757	11.23
649.791	-13.77
649.824	1.23
649.857	12.23
649.89	12.23
649.924	-13.77
649.957	-16.77
649.99	-7.77
650.023	-12.77
650.057	-15.77
650.09	0.23
650.123	1.23
650.157	9.23
650.19	16.23
650.223	-13.77
650.256	-17.77
650.29	0.23
650.323	9.23
650.356	5.23
650.389	-0.77
650.423	-4.77
650.456	-6.77
650.489	12.23
650.522	19.23
650.555	16.23
650.589	11.23
650.622	-9.77
650.655	14.23
650.688	4.23
650.721	2.23
650.755	9.23
650.788	5.23
650.821	0.23
650.854	-19.77
650.887	-14.77
650.921	-4.77
650.954	-22.77
650.987	-4.77
651.02	-10.77
651.053	-12.77
651.087	-29.77
651.12	-5.77
651.153	3.23
651.186	3.23
651.219	-24.77
651.252	-1.77
651.286	-8.77
651.319	-17.77
651.352	-0.77
651.385	-8.77
651.418	-0.77
651.451	-0.77
651.484	-4.77
651.518	-17.77
651.551	18.23
651.584	-4.77
651.617	13.23
651.65	2.23
651.683	5.23
651.716	-7.77
651.749	-0.77
651.783	1.23
651.816	10.23
651.849	-8.77
651.882	-0.77
651.915	1.23
651.948	2.23
651.981	-5.77
652.014	-10.77
652.047	-20.77
652.08	-9.77
652.114	-11.77
652.147	4.23
652.18	16.23
652.213	15.23
652.246	-4.77
652.279	-14.77
652.312	0.23
652.345	-7.77
652.378	1.23
652.411	10.23
652.444	-1.77
652.477	-18.77
652.51	0.23
652.543	-11.77
652.576	3.23
652.609	-26.77
652.642	-6.77
652.675	-3.77
652.709	-6.77
652.742	-10.77
652.775	-9.77
652.808	-5.77
652.841	-15.77
652.874	-0.77
652.907	-0.77
652.94	-6.77
652.973	-27.77
653.006	-33.77
653.039	-0.77
653.072	11.23
653.105	-14.77
653.138	-12.77
653.171	-6.77
653.204	-10.77
653.237	-5.77
653.27	-6.77
653.303	19.23
653.336	13.23
653.368	-8.77
653.401	-5.77
653.434	-23.77
653.467	-16.77
653.5	-17.77
653.533	-21.77
653.566	-1.77
653.599	3.23
653.632	0.23
653.665	1.23
653.698	-1.77
653.731	-13.77
653.764	9.23
653.797	-14.77
653.83	-10.77
653.863	0.23
653.896	-3.77
653.929	4.23
653.961	-0.77
653.994	-3.77
654.027	-21.77
654.06	4.23
654.093	-0.77
654.126	9.23
654.159	0.23
654.192	1.23
654.225	-12.77
654.258	-0.77
654.29	-2.77
654.323	-2.77
654.356	-2.77
654.389	-7.77
654.422	-9.77
654.455	-11.77
654.488	1.23
654.521	-16.77
654.553	-10.77
654.586	7.23
654.619	-0.77
654.652	-19.77
654.685	0.23
654.718	-6.77
654.751	-0.77
654.783	1.23
654.816	17.23
654.849	-15.77
654.882	-5.77
654.915	-24.77
654.948	6.23
654.98	-5.77
655.013	-1.77
655.046	-19.77
655.079	-2.77
655.112	-12.77
655.144	-16.77
655.177	-2.77
655.21	4.23
655.243	0.23
655.276	-2.77
655.308	-17.77
655.341	-16.77
655.374	-4.77
655.407	-29.77
655.44	-6.77
655.472	2.23
655.505	-2.77
655.538	-6.77
655.571	1.23
655.603	-7.77
655.636	-12.77
655.669	12.23
655.702	-1.77
655.734	-18.77
655.767	-37.77
655.8	-1.77
655.833	-11.77
655.865	-10.77
655.898	0.23
655.931	1.23
655.964	6.23
655.996	-7.77
656.029	1.23
656.062	-1.77
656.095	-8.77
656.127	-6.77
656.16	8.23
656.193	-6.77
656.225	2.23
656.258	1.23
656.291	-14.77
656.324	1.23
656.356	-0.77
656.389	-1.77
656.422	4.23
656.454	-26.77
656.487	-3.77
656.52	10.23
656.552	-2.77
656.585	-6.77
656.618	-0.77
656.65	4.23
656.683	-5.77
656.716	-10.77
656.748	-10.77
656.781	-8.77
656.814	-17.77
656.846	-6.77
656.879	-5.77
656.912	-11.77
656.944	-28.77
656.977	-7.77
657.01	-3.77
657.042	-7.77
657.075	2.23
657.108	-6.77
657.14	10.23
657.173	-0.77
657.205	10.23
657.238	10.23
657.271	10.23
657.303	-1.77
657.336	-6.77
657.369	-5.77
657.401	-6.77
657.434	-3.77
657.466	-13.77
657.499	-0.77
657.532	1.23
657.564	6.23
657.597	-2.77
657.629	-2.77
657.662	-15.77
657.694	-4.77
657.727	-9.77
657.76	5.23
657.792	-12.77
657.825	-13.77
657.857	-3.77
657.89	-17.77
657.922	-1.77
657.955	-8.77
657.987	-1.77
658.02	-0.77
658.053	4.23
658.085	-9.77
658.118	2.23
658.15	15.23
658.183	10.23
658.215	4.23
658.248	-9.77
658.28	-10.77
658.313	3.23
658.345	7.23
658.378	-22.77
658.41	-14.77
658.443	9.23
658.475	-5.77
658.508	-9.77
658.54	-6.77
658.573	-7.77
658.605	7.23
658.638	-10.77
658.67	-12.77
658.703	-4.77
658.735	-15.77
658.768	-7.77
658.8	-15.77
658.833	13.23
658.865	-1.77
658.898	-16.77
658.93	-15.77
658.963	4.23
658.995	-19.77
659.028	-4.77
659.06	-18.77
659.092	-15.77
659.125	-19.77
659.157	0.23
659.19	-14.77
659.222	-21.77
659.255	9.23
659.287	-0.77
659.32	-1.77
659.352	-12.77
659.384	1.23
659.417	-14.77
659.449	0.23
659.482	4.23
659.514	-24.77
659.546	-5.77
659.579	-5.77
659.611	6.23
659.644	-2.77
659.676	-22.77
659.708	-16.77
659.741	-10.77
659.773	-3.77
659.806	-5.77
659.838	3.23
659.87	-12.77
659.903	-26.77
659.935	-5.77
659.967	-3.77
660	11.23
660.032	-11.77
660.065	-4.77
660.097	-20.77
660.129	-25.77
660.162	-28.77
660.194	-8.77
660.226	3.23
660.259	-2.77
660.291	-5.77
660.323	-13.77
660.356	-7.77
660.388	-2.77
660.42	-0.77
660.453	4.23
660.485	0.23
660.517	12.23
660.55	6.23
660.582	7.23
660.614	10.23
660.647	-8.77
660.679	-27.77
660.711	4.23
660.743	-13.77
660.776	-14.77
660.808	-23.77
660.84	-6.77
660.873	1.23
660.905	11.23
660.937	-2.77
660.969	-1.77
661.002	-11.77
661.034	-0.77
661.066	-3.77
661.099	-1.77
661.131	-5.77
661.163	-16.77
661.195	-13.77
661.228	-10.77
661.26	1.23
661.292	-10.77
661.324	4.23
661.357	-1.77
661.389	-15.77
661.421	-4.77
661.453	-4.77
661.485	6.23
661.518	6.23
661.55	-19.77
661.582	-8.77
661.614	-2.77
661.647	1.23
661.679	-3.77
661.711	-0.77
661.743	-2.77
661.775	12.23
661.808	14.23
661.84	4.23
661.872	4.23
661.904	-14.77
661.936	-7.77
661.969	-30.77
662.001	-7.77
662.033	0.23
662.065	-0.77
662.097	13.23
662.129	-6.77
662.162	-4.77
662.194	-6.77
662.226	2.23
662.258	1.23
662.29	-0.77
662.322	-22.77
662.355	-24.77
662.387	8.23
662.419	-5.77
662.451	10.23
662.483	-12.77
662.515	0.23
662.547	1.23
662.58	-8.77
662.612	2.23
662.644	-1.77
662.676	5.23
662.708	5.23
662.74	-1.77
662.772	-1.77
662.804	-5.77
662.836	-3.77
662.869	-5.77
662.901	4.23
662.933	-14.77
662.965	4.23
662.997	11.23
663.029	-0.77
663.061	-10.77
663.093	-7.77
663.125	7.23
663.157	6.23
663.189	-8.77
663.221	-5.77
663.254	8.23
663.286	5.23
663.318	-12.77
663.35	-26.77
663.382	-9.77
663.414	3.23
663.446	-1.77
663.478	-13.77
663.51	10.23
663.542	-5.77
663.574	-2.77
663.606	3.23
663.638	-6.77
663.67	-5.77
663.702	-23.77
663.734	-16.77
663.766	-3.77
663.798	-5.77
663.83	2.23
663.862	-1.77
663.894	2.23
663.926	-15.77
663.958	-0.77
663.99	-6.77
664.022	-24.77
664.054	-7.77
664.086	-2.77
664.118	-0.77
664.15	-34.77
664.182	-21.77
664.214	-15.77
664.246	6.23
664.278	-2.77
664.31	18.23
664.342	2.23
664.374	-15.77
664.406	-7.77
664.438	-9.77
664.47	15.23
664.502	-13.77
664.534	-18.77
664.566	-24.77
664.598	3.23
664.63	-10.77
664.662	-5.77
664.693	14.23
664.725	-11.77
664.757	-0.77
664.789	-18.77
664.821	-4.77
664.853	13.23
664.885	-3.77
664.917	-3.77
664.949	7.23
664.981	10.23
665.013	-5.77
665.045	-3.77
665.076	-3.77
665.108	-1.77
665.14	-2.77
665.172	-10.77
665.204	-2.77
665.236	-9.77
665.268	20.23
665.3	-18.77
665.331	-19.77
665.363	-7.77
665.395	-9.77
665.427	8.23
665.459	-2.77
665.491	-8.77
665.523	12.23
665.555	-5.77
665.586	0.23
665.618	-14.77
665.65	-14.77
665.682	-8.77
665.714	-6.77
665.746	-18.77
665.777	-6.77
665.809	-21.77
665.841	-5.77
665.873	-21.77
665.905	5.23
665.937	10.23
665.968	0.23
666	-17.77
666.032	-2.77
666.064	-7.77
666.096	14.23
666.127	-11.77
666.159	0.23
666.191	2.23
666.223	5.23
666.255	14.23
666.286	0.23
666.318	-13.77
666.35	8.23
666.382	0.23
666.413	-16.77
666.445	-11.77
666.477	-12.77
666.509	-8.77
666.54	-2.77
666.572	7.23
666.604	1.23
666.636	-6.77
666.667	15.23
666.699	-0.77
666.731	-26.77
666.763	-15.77
666.794	-16.77
666.826	-2.77
666.858	-8.77
666.89	-6.77
666.921	-11.77
666.953	-8.77
666.985	1.23
667.017	13.23
667.048	18.23
667.08	-14.77
667.112	-11.77
667.143	-14.77
667.175	-3.77
667.207	4.23
667.238	0.23
667.27	9.23
667.302	6.23
667.334	-9.77
667.365	15.23
667.397	-4.77
667.429	-15.77
667.46	17.23
667.492	-1.77
667.524	-13.77
667.555	-13.77
667.587	-2.77
667.619	-12.77
667.65	-10.77
667.682	-4.77
667.714	6.23
667.745	-1.77
667.777	-2.77
667.808	5.23
667.84	7.23
667.872	-9.77
667.903	12.23
667.935	2.23
667.967	-7.77
667.998	2.23
668.03	-7.77
668.061	2.23
668.093	3.23
668.125	1.23
668.156	-4.77
668.188	-19.77
668.22	-15.77
668.251	1.23
668.283	0.23
668.314	-0.77
668.346	-19.77
668.377	-4.77
668.409	6.23
668.441	25.23
668.472	-0.77
668.504	6.23
668.535	1.23
668.567	2.23
668.599	-3.77
668.63	0.23
668.662	-9.77
668.693	16.23
668.725	0.23
668.756	10.23
668.788	-13.77
668.819	-12.77
668.851	1.23
668.882	7.23
668.914	-27.77
668.946	-9.77
668.977	-18.77
669.009	-21.77
669.04	-18.77
669.072	5.23
669.103	-10.77
669.135	-6.77
669.166	-9.77
669.198	-13.77
669.229	1.23
669.261	1.23
669.292	-3.77
669.324	-1.77
669.355	-0.77
669.387	1.23
669.418	7.23
669.45	-7.77
669.481	12.23
669.513	0.23
669.544	8.23
669.576	-14.77
669.607	7.23
669.639	17.23
669.67	-6.77
669.701	-1.77
669.733	-6.77
669.764	-3.77
669.796	-12.77
669.827	-15.77
669.859	-4.77
669.89	6.23
669.922	0.23
669.953	-10.77
669.985	2.23
670.016	11.23
670.047	-17.77
670.079	-18.77
670.11	-5.77
670.142	0.23
670.173	-2.77
670.204	-11.77
670.236	-13.77
670.267	-3.77
670.299	7.23
670.33	-4.77
670.362	-2.77
670.393	-1.77
670.424	3.23
670.456	-9.77
670.487	-17.77
670.518	-18.77
670.55	-6.77
670.581	-6.77
670.613	-1.77
670.644	-3.77
670.675	-4.77
670.707	-7.77
670.738	-1.77
670.769	5.23
670.801	-13.77
670.832	19.23
670.864	2.23
670.895	-3.77
670.926	2.23
670.958	-7.77
670.989	-4.77
671.02	-5.77
671.052	-1.77
671.083	-2.77
671.114	-6.77
671.146	11.23
671.177	3.23
671.208	-12.77
671.24	-23.77
671.271	-2.77
671.302	-0.77
671.333	-1.77
671.365	-12.77
671.396	-19.77
671.427	-1.77
671.459	2.23
671.49	9.23
671.521	-12.77
671.553	-16.77
671.584	5.23
671.615	-9.77
671.646	7.23
671.678	-12.77
671.709	-14.77
671.74	-24.77
671.771	-15.77
671.803	-15.77
671.834	0.23
671.865	10.23
671.896	-3.77
671.928	1.23
671.959	-8.77
671.99	-18.77
672.021	12.23
672.053	-20.77
672.084	-4.77
672.115	5.23
672.146	3.23
672.178	-22.77
672.209	-15.77
672.24	4.23
672.271	16.23
672.303	-13.77
672.334	-10.77
672.365	-23.77
672.396	0.23
672.427	0.23
672.459	3.23
672.49	22.23
672.521	0.23
672.552	-11.77
672.583	-10.77
672.615	-17.77
672.646	-2.77
672.677	-13.77
672.708	-10.77
672.739	10.23
672.77	13.23
672.802	-0.77
672.833	-16.77
672.864	0.23
672.895	-17.77
672.926	-13.77
672.957	-8.77
672.989	2.23
673.02	0.23
673.051	-8.77
673.082	8.23
673.113	12.23
673.144	24.23
673.175	9.23
673.206	-12.77
673.238	-11.77
673.269	5.23
673.3	-8.77
673.331	8.23
673.362	-12.77
673.393	-11.77
673.424	11.23
673.455	16.23
673.487	13.23
673.518	29.23
673.549	12.23
673.58	-7.77
673.611	-1.77
673.642	-8.77
673.673	-19.77
673.704	-15.77
673.735	11.23
673.766	-4.77
673.797	-13.77
673.828	-4.77
673.86	-7.77
673.891	-1.77
673.922	-9.77
673.953	-14.77
673.984	-7.77
674.015	1.23
674.046	3.23
674.077	-0.77
674.108	-15.77
674.139	-8.77
674.17	-11.77
674.201	-20.77
674.232	-7.77
674.263	-11.77
674.294	-2.77
674.325	-8.77
674.356	-6.77
674.387	-7.77
674.418	9.23
674.449	4.23
674.48	-17.77
674.511	0.23
674.542	0.23
674.573	-26.77
674.604	4.23
674.635	-10.77
674.666	-6.77
674.697	9.23
674.728	-11.77
674.759	5.23
674.79	-13.77
674.821	-0.77
674.852	-1.77
674.883	-27.77
674.914	2.23
674.945	-1.77
674.976	-5.77
675.007	2.23
675.038	-8.77
675.069	-16.77
675.1	0.23
675.131	-8.77
675.162	-11.77
675.193	-15.77
675.224	-12.77
675.254	5.23
675.285	10.23
675.316	24.23
675.347	-9.77
675.378	-10.77
675.409	-12.77
675.44	-7.77
675.471	9.23
675.502	-8.77
675.533	1.23
675.564	4.23
675.595	-13.77
675.625	19.23
675.656	8.23
675.687	-7.77
675.718	-34.77
675.749	-5.77
675.78	-13.77
675.811	-3.77
675.842	-6.77
675.873	-11.77
675.903	-12.77
675.934	-4.77
675.965	-14.77
675.996	-31.77
676.027	4.23
676.058	-9.77
676.089	-23.77
676.119	-3.77
676.15	9.23
676.181	-8.77
676.212	-8.77
676.243	10.23
676.274	4.23
676.304	-2.77
676.335	-13.77
676.366	8.23
676.397	-1.77
676.428	-15.77
676.459	1.23
676.489	6.23
676.52	9.23
676.551	0.23
676.582	3.23
676.613	-8.77
676.643	-9.77
676.674	1.23
676.705	-4.77
676.736	-14.77
676.767	6.23
676.797	4.23
676.828	-3.77
676.859	-10.77
676.89	-11.77
676.92	14.23
676.951	2.23
676.982	-6.77
677.013	-13.77
677.044	5.23
677.074	6.23
677.105	-12.77
677.136	-2.77
677.167	-13.77
677.197	-9.77
677.228	-8.77
677.259	-10.77
677.289	7.23
677.32	-9.77
677.351	-12.77
677.382	-15.77
677.412	-19.77
677.443	-16.77
677.474	1.23
677.505	-5.77
677.535	-3.77
677.566	-19.77
677.597	-31.77
677.627	-24.77
677.658	-1.77
677.689	-5.77
677.72	-10.77
677.75	-22.77
677.781	-14.77
677.812	-1.77
677.842	-3.77
677.873	1.23
677.904	-2.77
677.934	-3.77
677.965	-14.77
677.996	-26.77
678.026	-5.77
678.057	0.23
678.088	-20.77
678.118	-9.77
678.149	-22.77
678.18	-14.77
678.21	-7.77
678.241	0.23
678.272	6.23
678.302	2.23
678.333	-2.77
678.363	-11.77
678.394	-3.77
678.425	-3.77
678.455	-5.77
678.486	-3.77
678.517	-18.77
678.547	-2.77
678.578	-12.77
678.608	-4.77
678.639	-3.77
678.67	2.23
678.7	-27.77
678.731	-3.77
678.761	-3.77
678.792	7.23
678.823	7.23
678.853	5.23
678.884	-20.77
678.914	-9.77
678.945	10.23
678.975	-15.77
679.006	3.23
679.037	0.23
679.067	16.23
679.098	-8.77
679.128	-4.77
679.159	-6.77
679.189	22.23
679.22	-7.77
679.25	-10.77
679.281	-16.77
679.312	9.23
679.342	10.23
679.373	24.23
679.403	2.23
679.434	-6.77
679.464	-15.77
679.495	-3.77
679.525	0.23
679.556	-7.77
679.586	1.23
679.617	5.23
679.647	-4.77
679.678	-5.77
679.708	-12.77
679.739	-8.77
679.769	-7.77
679.8	-5.77
679.83	-4.77
679.861	0.23
679.891	-8.77
679.922	-6.77
679.952	-8.77
679.983	-5.77
680.013	-6.77
680.044	0.23
680.074	3.23
680.105	10.23
680.135	-0.77
680.165	17.23
680.196	8.23
680.226	-9.77
680.257	-2.77
680.287	-11.77
680.318	-10.77
680.348	-13.77
680.379	3.23
680.409	-12.77
680.439	-12.77
680.47	-4.77
680.5	-10.77
680.531	-13.77
680.561	0.23
680.592	16.23
680.622	1.23
680.652	-9.77
680.683	15.23
680.713	-4.77
680.744	-13.77
680.774	-10.77
680.804	17.23
680.835	-28.77
680.865	-8.77
680.896	12.23
680.926	2.23
680.956	-15.77
680.987	2.23
681.017	-8.77
681.047	4.23
681.078	-11.77
681.108	2.23
681.139	0.23
681.169	-5.77
681.199	-2.77
681.23	-0.77
681.26	-4.77
681.29	-3.77
681.321	-18.77
681.351	-8.77
681.381	-20.77
681.412	5.23
681.442	1.23
681.472	3.23
681.503	6.23
681.533	-3.77
681.563	-5.77
681.594	-11.77
681.624	-2.77
681.654	-12.77
681.685	2.23
681.715	-10.77
681.745	7.23
681.775	-3.77
681.806	-6.77
681.836	9.23
681.866	5.23
681.897	2.23
681.927	-13.77
681.957	-6.77
681.987	-9.77
682.018	-7.77
682.048	-12.77
682.078	-16.77
682.109	9.23
682.139	-4.77
682.169	-6.77
682.199	-1.77
682.23	-6.77
682.26	-7.77
682.29	-8.77
682.32	-14.77
682.351	-17.77
682.381	-7.77
682.411	-11.77
682.441	-14.77
682.472	-13.77
682.502	-7.77
682.532	-12.77
682.562	-10.77
682.592	12.23
682.623	0.23
682.653	-4.77
682.683	-11.77
682.713	-13.77
682.743	-1.77
682.774	-5.77
682.804	-8.77
682.834	5.23
682.864	-1.77
682.894	-16.77
682.925	-17.77
682.955	-16.77
682.985	-11.77
683.015	-0.77
683.045	4.23
683.076	-36.77
683.106	-3.77
683.136	-7.77
683.166	-6.77
683.196	-5.77
683.226	-11.77
683.257	0.23
683.287	-14.77
683.317	-24.77
683.347	-5.77
683.377	-11.77
683.407	-2.77
683.437	11.23
683.468	4.23
683.498	-11.77
683.528	-23.77
683.558	-4.77
683.588	-5.77
683.618	-13.77
683.648	-7.77
683.678	8.23
683.708	-1.77
683.739	-17.77
683.769	-9.77
683.799	-10.77
683.829	-2.77
683.859	-4.77
683.889	1.23
683.919	-2.77
683.949	2.23
683.979	1.23
684.009	-3.77
684.039	-13.77
684.07	1.23
684.1	6.23
684.13	-5.77
684.16	1.23
684.19	-6.77
684.22	-5.77
684.25	3.23
684.28	-18.77
684.31	1.23
684.34	-3.77
684.37	5.23
684.4	-7.77
684.43	0.23
684.46	4.23
684.49	-7.77
684.52	8.23
684.55	14.23
684.58	1.23
684.61	-1.77
684.64	10.23
684.67	-6.77
684.7	7.23
684.73	8.23
684.76	-3.77
684.79	10.23
684.82	-7.77
684.85	-1.77
684.88	1.23
684.91	-12.77
684.94	1.23
684.97	-4.77
685	-18.77
685.03	-14.77
685.06	-1.77
685.09	3.23
685.12	11.23
685.15	-8.77
685.18	-0.77
685.21	-13.77
685.24	10.23
685.27	3.23
685.3	0.23
685.33	1.23
685.36	-10.77
685.39	-10.77
685.42	-26.77
685.45	-3.77
685.48	-3.77
685.51	0.23
685.54	-7.77
685.569	1.23
685.599	-2.77
685.629	0.23
685.659	9.23
685.689	-27.77
685.719	-15.77
685.749	-13.77
685.779	-10.77
685.809	-5.77
685.839	-4.77
685.869	1.23
685.898	-4.77
685.928	-14.77
685.958	-5.77
685.988	8.23
686.018	-2.77
686.048	1.23
686.078	14.23
686.108	7.23
686.137	-4.77
686.167	-3.77
686.197	-12.77
686.227	-3.77
686.257	26.23
686.287	19.23
686.317	-1.77
686.346	-16.77
686.376	-17.77
686.406	-11.77
686.436	6.23
686.466	-9.77
686.496	-3.77
686.525	-14.77
686.555	-14.77
686.585	5.23
686.615	8.23
686.645	-1.77
686.675	-7.77
686.704	-0.77
686.734	-5.77
686.764	-14.77
686.794	-17.77
686.824	-3.77
686.853	5.23
686.883	-5.77
686.913	3.23
686.943	6.23
686.973	-6.77
687.002	0.23
687.032	-6.77
687.062	-17.77
687.092	1.23
687.121	5.23
687.151	-3.77
687.181	2.23
687.211	1.23
687.24	-6.77
687.27	-17.77
687.3	-4.77
687.33	-3.77
687.359	-15.77
687.389	-5.77
687.419	-4.77
687.449	-0.77
687.478	8.23
687.508	8.23
687.538	4.23
687.568	-5.77
687.597	-15.77
687.627	-8.77
687.657	12.23
687.686	1.23
687.716	-4.77
687.746	-14.77
687.776	-8.77
687.805	-4.77
687.835	-12.77
687.865	9.23
687.894	-0.77
687.924	-3.77
687.954	2.23
687.983	-7.77
688.013	4.23
688.043	2.23
688.072	11.23
688.102	4.23
688.132	-21.77
688.161	-19.77
688.191	-16.77
688.221	6.23
688.25	-27.77
688.28	-12.77
688.31	-5.77
688.339	3.23
688.369	-13.77
688.399	-16.77
688.428	4.23
688.458	4.23
688.488	-24.77
688.517	4.23
688.547	-6.77
688.576	20.23
688.606	10.23
688.636	-4.77
688.665	-2.77
688.695	-4.77
688.725	-7.77
688.754	-5.77
688.784	-9.77
688.813	19.23
688.843	-4.77
688.873	-3.77
688.902	-22.77
688.932	-7.77
688.961	-4.77
688.991	8.23
689.02	9.23
689.05	-12.77
689.08	15.23
689.109	10.23
689.139	-2.77
689.168	-6.77
689.198	1.23
689.227	9.23
689.257	-0.77
689.287	-0.77
689.316	-13.77
689.346	-32.77
689.375	-12.77
689.405	9.23
689.434	0.23
689.464	5.23
689.493	-8.77
689.523	-22.77
689.552	-18.77
689.582	-5.77
689.611	-15.77
689.641	-0.77
689.67	-4.77
689.7	1.23
689.73	0.23
689.759	9.23
689.789	24.23
689.818	-11.77
689.848	-7.77
689.877	-0.77
689.906	-11.77
689.936	-1.77
689.965	-0.77
689.995	7.23
690.024	13.23
690.054	6.23
690.083	17.23
690.113	-3.77
690.142	-4.77
690.172	1.23
690.201	-7.77
690.231	3.23
690.26	17.23
690.29	13.23
690.319	-4.77
690.348	-7.77
690.378	0.23
690.407	-1.77
690.437	0.23
690.466	14.23
690.496	-3.77
690.525	7.23
690.555	-8.77
690.584	6.23
690.613	13.23
690.643	12.23
690.672	5.23
690.702	-3.77
690.731	4.23
690.76	20.23
690.79	49.23
690.819	42.23
690.849	22.23
690.878	29.23
690.907	21.23
690.937	15.23
690.966	12.23
690.996	-10.77
691.025	-5.77
691.054	-2.77
691.084	13.23
691.113	12.23
691.142	-3.77
691.172	2.23
691.201	12.23
691.23	0.23
691.26	3.23
691.289	3.23
691.319	-4.77
691.348	-3.77
691.377	11.23
691.407	-11.77
691.436	-12.77
691.465	-6.77
691.495	-15.77
691.524	-10.77
691.553	-13.77
691.583	-0.77
691.612	15.23
691.641	1.23
691.67	-1.77
691.7	-19.77
691.729	-19.77
691.758	-2.77
691.788	-2.77
691.817	-8.77
691.846	-7.77
691.876	-3.77
691.905	-6.77
691.934	-7.77
691.963	6.23
691.993	14.23
692.022	-9.77
692.051	-12.77
692.081	6.23
692.11	16.23
692.139	-9.77
692.168	9.23
692.198	17.23
692.227	10.23
692.256	-7.77
692.285	-0.77
692.315	4.23
692.344	14.23
692.373	4.23
692.402	-19.77
692.432	-19.77
692.461	-1.77
692.49	-12.77
692.519	-3.77
692.548	8.23
692.578	19.23
692.607	-2.77
692.636	-14.77
692.665	-3.77
692.694	4.23
692.724	-2.77
692.753	-6.77
692.782	19.23
692.811	-2.77
692.84	-8.77
692.87	-5.77
692.899	-0.77
692.928	6.23
692.957	7.23
692.986	7.23
693.016	-7.77
693.045	0.23
693.074	-6.77
693.103	-4.77
693.132	-7.77
693.161	0.23
693.191	-9.77
693.22	-23.77
693.249	-13.77
693.278	-11.77
693.307	5.23
693.336	-18.77
693.365	-20.77
693.395	-8.77
693.424	7.23
693.453	16.23
693.482	-5.77
693.511	18.23
693.54	-0.77
693.569	-4.77
693.598	1.23
693.628	2.23
693.657	10.23
693.686	7.23
693.715	3.23
693.744	4.23
693.773	12.23
693.802	-1.77
693.831	-3.77
693.86	14.23
693.889	-26.77
693.919	1.23
693.948	9.23
693.977	-7.77
694.006	-14.77
694.035	0.23
694.064	-15.77
694.093	-0.77
694.122	-8.77
694.151	5.23
694.18	12.23
694.209	4.23
694.238	13.23
694.267	27.23
694.296	4.23
694.325	4.23
694.354	9.23
694.383	17.23
694.412	-6.77
694.441	-19.77
694.471	-13.77
694.5	-22.77
694.529	7.23
694.558	23.23
694.587	7.23
694.616	-13.77
694.645	2.23
694.674	2.23
694.703	4.23
694.732	-11.77
694.761	0.23
694.79	17.23
694.819	-10.77
694.848	-2.77
694.877	11.23
694.906	-2.77
694.935	-2.77
694.963	16.23
694.992	1.23
695.021	-7.77
695.05	2.23
695.079	4.23
695.108	-1.77
695.137	9.23
695.166	-12.77
695.195	-15.77
695.224	14.23
695.253	11.23
695.282	-2.77
695.311	-8.77
695.34	4.23
695.369	-0.77
695.398	-4.77
695.427	23.23
695.456	-2.77
695.485	-9.77
695.513	4.23
695.542	1.23
695.571	-17.77
695.6	18.23
695.629	1.23
695.658	5.23
695.687	-8.77
695.716	-11.77
695.745	-1.77
695.774	-2.77
695.802	-3.77
695.831	5.23
695.86	15.23
695.889	4.23
695.918	-3.77
695.947	-15.77
695.976	5.23
696.005	5.23
696.033	16.23
696.062	20.23
696.091	-5.77
696.12	-3.77
696.149	6.23
696.178	8.23
696.207	14.23
696.235	-15.77
696.264	-2.77
696.293	5.23
696.322	17.23
696.351	-11.77
696.38	5.23
696.408	3.23
696.437	-7.77
696.466	-3.77
696.495	12.23
696.524	-1.77
696.553	-0.77
696.581	3.23
696.61	-14.77
696.639	2.23
696.668	2.23
696.697	1.23
696.725	4.23
696.754	8.23
696.783	-3.77
696.812	-6.77
696.84	-4.77
696.869	-3.77
696.898	5.23
696.927	8.23
696.956	13.23
696.984	-8.77
697.013	-18.77
697.042	-0.77
697.071	-6.77
697.099	15.23
697.128	20.23
697.157	11.23
697.186	6.23
697.214	-13.77
697.243	-6.77
697.272	-10.77
697.301	-15.77
697.329	-3.77
697.358	4.23
697.387	20.23
697.415	18.23
697.444	8.23
697.473	-6.77
697.502	-14.77
697.53	9.23
697.559	14.23
697.588	17.23
697.616	-4.77
697.645	2.23
697.674	9.23
697.703	-9.77
697.731	14.23
697.76	-5.77
697.789	1.23
697.817	2.23
697.846	26.23
697.875	8.23
697.903	10.23
697.932	10.23
697.961	4.23
697.989	6.23
698.018	12.23
698.047	-3.77
698.075	12.23
698.104	-8.77
698.133	-8.77
698.161	-0.77
698.19	13.23
698.218	-1.77
698.247	-2.77
698.276	-7.77
698.304	3.23
698.333	1.23
698.362	2.23
698.39	13.23
698.419	-11.77
698.447	-15.77
698.476	-7.77
698.505	4.23
698.533	-0.77
698.562	-1.77
698.591	-9.77
698.619	-21.77
698.648	-6.77
698.676	3.23
698.705	-8.77
698.733	-19.77
698.762	7.23
698.791	-0.77
698.819	1.23
698.848	-6.77
698.876	10.23
698.905	1.23
698.933	13.23
698.962	5.23
698.991	-0.77
699.019	6.23
699.048	-3.77
699.076	-2.77
699.105	-10.77
699.133	-1.77
699.162	4.23
699.19	28.23
699.219	6.23
699.248	-3.77
699.276	-8.77
699.305	-2.77
699.333	0.23
699.362	3.23
699.39	-9.77
699.419	-2.77
699.447	-8.77
699.476	0.23
699.504	-3.77
699.533	-4.77
699.561	-5.77
699.59	2.23
699.618	8.23
699.647	13.23
699.675	-9.77
699.704	15.23
699.732	-12.77
699.761	-4.77
699.789	-9.77
699.818	3.23
699.846	-8.77
699.874	-8.77
699.903	-2.77
699.931	-2.77
699.96	-5.77
699.988	-17.77
700.017	-9.77
700.045	6.23
700.074	13.23
700.102	-2.77
700.13	-5.77
700.159	-0.77
700.187	6.23
700.216	3.23
700.244	-8.77
700.273	-5.77
700.301	0.23
700.329	2.23
700.358	-5.77
700.386	-12.77
700.415	-0.77
700.443	-8.77
700.472	6.23
700.5	-2.77
700.528	17.23
700.557	4.23
700.585	-1.77
700.614	-7.77
700.642	12.23
700.67	3.23
700.699	21.23
700.727	-0.77
700.755	-1.77
700.784	0.23
700.812	-5.77
700.841	9.23
700.869	-9.77
700.897	-22.77
700.926	-6.77
700.954	-1.77
700.982	-4.77
701.011	-17.77
701.039	-3.77
701.067	-14.77
701.096	-5.77
701.124	-16.77
701.152	11.23
701.181	-3.77
701.209	-15.77
701.237	3.23
701.266	-15.77
701.294	-3.77
701.322	-14.77
701.351	-23.77
701.379	-5.77
701.407	-8.77
701.435	9.23
701.464	6.23
701.492	20.23
701.52	-5.77
701.549	-4.77
701.577	-12.77
701.605	-8.77
701.634	-18.77
701.662	6.23
701.69	-12.77
701.718	-14.77
701.747	10.23
701.775	-1.77
701.803	-6.77
701.831	-8.77
701.86	-8.77
701.888	2.23
701.916	6.23
701.944	-3.77
701.973	-15.77
702.001	-15.77
702.029	-20.77
702.057	-12.77
702.086	-14.77
702.114	-20.77
702.142	-1.77
702.17	-9.77
702.199	3.23
702.227	2.23
702.255	-7.77
702.283	-8.77
702.311	2.23
702.34	0.23
702.368	-15.77
702.396	-0.77
702.424	-7.77
702.452	-5.77
702.481	-4.77
702.509	3.23
702.537	4.23
702.565	-5.77
702.593	-40.77
702.621	-20.77
702.65	-3.77
702.678	-5.77
702.706	3.23
702.734	-10.77
702.762	8.23
702.79	-2.77
702.819	5.23
702.847	6.23
702.875	4.23
702.903	-5.77
702.931	-22.77
702.959	-24.77
702.988	-14.77
703.016	-22.77
703.044	-10.77
703.072	-10.77
703.1	-16.77
703.128	-7.77
703.156	1.23
703.184	-11.77
703.212	3.23
703.241	-16.77
703.269	8.23
703.297	-3.77
703.325	-16.77
703.353	-21.77
703.381	-14.77
703.409	3.23
703.437	-6.77
703.465	-6.77
703.493	-12.77
703.522	11.23
703.55	-2.77
703.578	-2.77
703.606	-0.77
703.634	-14.77
703.662	-1.77
703.69	-2.77
703.718	-11.77
703.746	7.23
703.774	1.23
703.802	19.23
703.83	-2.77
703.858	-17.77
703.886	2.23
703.914	13.23
703.942	12.23
703.97	-3.77
703.998	0.23
704.027	7.23
704.055	7.23
704.083	6.23
704.111	-17.77
704.139	-14.77
704.167	-2.77
704.195	-2.77
704.223	-3.77
704.251	-6.77
704.279	3.23
704.307	-7.77
704.335	-8.77
704.363	-0.77
704.391	-5.77
704.419	-15.77
704.447	-0.77
704.475	1.23
704.503	-8.77
704.531	5.23
704.558	1.23
704.586	1.23
704.614	-3.77
704.642	0.23
704.67	-16.77
704.698	-8.77
704.726	8.23
704.754	-7.77
704.782	-5.77
704.81	-10.77
704.838	10.23
704.866	-12.77
704.894	-22.77
704.922	-11.77
704.95	-8.77
704.978	-1.77
705.006	1.23
705.034	-0.77
705.061	-5.77
705.089	-8.77
705.117	-14.77
705.145	-9.77
705.173	13.23
705.201	-2.77
705.229	1.23
705.257	2.23
705.285	14.23
705.313	10.23
705.34	5.23
705.368	-14.77
705.396	1.23
705.424	-12.77
705.452	-4.77
705.48	-0.77
705.508	-10.77
705.536	2.23
705.563	-10.77
705.591	-5.77
705.619	-4.77
705.647	-10.77
705.675	-4.77
705.703	8.23
705.731	0.23
705.758	16.23
705.786	-3.77
705.814	4.23
705.842	-1.77
705.87	16.23
705.898	8.23
705.925	-5.77
705.953	0.23
705.981	-18.77
706.009	-2.77
706.037	3.23
706.065	-5.77
706.092	-2.77
706.12	-0.77
706.148	-10.77
706.176	-14.77
706.204	15.23
706.231	-5.77
706.259	-19.77
706.287	-12.77
706.315	-2.77
706.342	-1.77
706.37	8.23
706.398	-8.77
706.426	-12.77
706.454	-8.77
706.481	0.23
706.509	-3.77
706.537	-11.77
706.565	-9.77
706.592	-0.77
706.62	2.23
706.648	7.23
706.676	8.23
706.703	-4.77
706.731	1.23
706.759	-5.77
706.787	-12.77
706.814	6.23
706.842	3.23
706.87	-6.77
706.897	-8.77
706.925	-6.77
706.953	0.23
706.981	0.23
707.008	8.23
707.036	-1.77
707.064	-5.77
707.091	-22.77
707.119	-3.77
707.147	0.23
707.174	-11.77
707.202	-7.77
707.23	-12.77
707.258	-3.77
707.285	-15.77
707.313	-1.77
707.341	-19.77
707.368	-18.77
707.396	4.23
707.424	21.23
707.451	7.23
707.479	-0.77
707.507	-5.77
707.534	-14.77
707.562	-7.77
707.59	-5.77
707.617	5.23
707.645	-13.77
707.672	-2.77
707.7	-12.77
707.728	12.23
707.755	-2.77
707.783	-13.77
707.811	-0.77
707.838	-3.77
707.866	2.23
707.893	-17.77
707.921	-6.77
707.949	-15.77
707.976	7.23
708.004	0.23
708.031	-8.77
708.059	-18.77
708.087	-22.77
708.114	-14.77
708.142	5.23
708.169	-7.77
708.197	-0.77
708.225	-4.77
708.252	5.23
708.28	15.23
708.307	2.23
708.335	1.23
708.362	-7.77
708.39	-20.77
708.418	16.23
708.445	-17.77
708.473	-16.77
708.5	-24.77
708.528	0.23
708.555	-17.77
708.583	-6.77
708.61	-8.77
708.638	19.23
708.665	-11.77
708.693	-8.77
708.72	-15.77
708.748	-3.77
708.776	10.23
708.803	6.23
708.831	9.23
708.858	-12.77
708.886	-10.77
708.913	-1.77
708.941	-2.77
708.968	17.23
708.996	-0.77
709.023	32.23
709.051	-8.77
709.078	-13.77
709.105	-5.77
709.133	-13.77
709.16	-12.77
709.188	-7.77
709.215	3.23
709.243	12.23
709.27	-7.77
709.298	-7.77
709.325	-2.77
709.353	2.23
709.38	-4.77
709.408	8.23
709.435	5.23
709.462	5.23
709.49	-0.77
709.517	0.23
709.545	-11.77
709.572	-0.77
709.6	-0.77
709.627	-2.77
709.655	-26.77
709.682	-22.77
709.709	-9.77
709.737	-10.77
709.764	-11.77
709.792	-0.77
709.819	-2.77
709.846	-10.77
709.874	-17.77
709.901	-5.77
709.929	3.23
709.956	2.23
709.983	-7.77
710.011	-6.77
710.038	-16.77
710.066	-3.77
710.093	12.23
710.12	-3.77
710.148	-15.77
710.175	6.23
710.202	-23.77
710.23	5.23
710.257	-6.77
710.284	16.23
710.312	-8.77
710.339	-2.77
710.366	1.23
710.394	-8.77
710.421	-11.77
710.448	-3.77
710.476	-24.77
710.503	6.23
710.53	-3.77
710.558	2.23
710.585	8.23
710.612	-0.77
710.64	-3.77
710.667	-15.77
710.694	-9.77
710.722	6.23
710.749	-18.77
710.776	-7.77
710.804	6.23
710.831	5.23
710.858	14.23
710.885	-3.77
710.913	-12.77
710.94	22.23
710.967	3.23
710.995	-3.77
711.022	-7.77
711.049	4.23
711.076	-14.77
711.104	-8.77
711.131	-20.77
711.158	-19.77
711.185	2.23
711.213	-20.77
711.24	-11.77
711.267	-13.77
711.294	-9.77
711.322	-0.77
711.349	-3.77
711.376	-6.77
711.403	2.23
711.431	-8.77
711.458	-13.77
711.485	-12.77
711.512	3.23
711.54	-8.77
711.567	-9.77
711.594	-14.77
711.621	-15.77
711.648	-3.77
711.676	10.23
711.703	-0.77
711.73	-30.77
711.757	-13.77
711.784	-3.77
711.812	-0.77
711.839	-10.77
711.866	-20.77
711.893	-11.77
711.92	0.23
711.947	3.23
711.975	2.23
712.002	2.23
712.029	5.23
712.056	0.23
712.083	-14.77
712.11	-13.77
712.138	21.23
712.165	2.23
712.192	-19.77
712.219	-16.77
712.246	-20.77
712.273	-10.77
712.3	-25.77
712.328	3.23
712.355	2.23
712.382	-6.77
712.409	1.23
712.436	-8.77
712.463	10.23
712.49	5.23
712.517	7.23
712.544	4.23
712.572	8.23
712.599	-13.77
712.626	-11.77
712.653	-1.77
712.68	-3.77
712.707	11.23
712.734	0.23
712.761	-2.77
712.788	2.23
712.815	-13.77
712.842	4.23
712.87	-14.77
712.897	-16.77
712.924	-20.77
712.951	-11.77
712.978	4.23
713.005	11.23
713.032	12.23
713.059	-5.77
713.086	14.23
713.113	-6.77
713.14	-9.77
713.167	-3.77
713.194	1.23
713.221	-14.77
713.248	2.23
713.275	-14.77
713.302	-13.77
713.329	-11.77
713.356	13.23
713.383	-6.77
713.41	6.23
713.437	-6.77
713.464	-7.77
713.491	6.23
713.518	6.23
713.545	-1.77
713.572	-11.77
713.599	16.23
713.626	-15.77
713.653	-1.77
713.68	-0.77
713.707	8.23
713.734	-6.77
713.761	-9.77
713.788	-4.77
713.815	-7.77
713.842	6.23
713.869	2.23
713.896	-6.77
713.923	6.23
713.95	5.23
713.977	-13.77
714.004	-16.77
714.031	-20.77
714.058	4.23
714.085	-5.77
714.112	9.23
714.139	-10.77
714.165	-13.77
714.192	-20.77
714.219	2.23
714.246	-5.77
714.273	-8.77
714.3	-12.77
714.327	-11.77
714.354	5.23
714.381	-4.77
714.408	0.23
714.435	-5.77
714.461	-3.77
714.488	4.23
714.515	-16.77
714.542	-27.77
714.569	-6.77
714.596	-17.77
714.623	-23.77
714.65	-28.77
714.677	-12.77
714.703	-9.77
714.73	4.23
714.757	-1.77
714.784	2.23
714.811	-22.77
714.838	9.23
714.865	-2.77
714.891	2.23
714.918	-2.77
714.945	-14.77
714.972	-5.77
714.999	4.23
715.026	-14.77
715.052	-7.77
715.079	-0.77
715.106	-0.77
715.133	9.23
715.16	-0.77
715.187	-3.77
715.213	6.23
715.24	-1.77
715.267	-7.77
715.294	-7.77
715.321	-7.77
715.347	1.23
715.374	-22.77
715.401	-20.77
715.428	-7.77
715.455	12.23
715.481	-14.77
715.508	5.23
715.535	-4.77
715.562	13.23
715.588	-7.77
715.615	-7.77
715.642	-6.77
715.669	5.23
715.695	-13.77
715.722	-6.77
715.749	8.23
715.776	1.23
715.802	-1.77
715.829	15.23
715.856	2.23
715.883	19.23
715.909	-12.77
715.936	-6.77
715.963	-9.77
715.99	-15.77
716.016	-11.77
716.043	-4.77
716.07	-12.77
716.096	-6.77
716.123	-16.77
716.15	-4.77
716.177	-8.77
716.203	-1.77
716.23	-1.77
716.257	-3.77
716.283	11.23
716.31	-6.77
716.337	-2.77
716.363	-0.77
716.39	-4.77
716.417	12.23
716.443	-3.77
716.47	5.23
716.497	9.23
716.523	12.23
716.55	-2.77
716.577	13.23
716.603	-10.77
716.63	-8.77
716.657	-3.77
716.683	-5.77
716.71	8.23
716.737	-1.77
716.763	6.23
716.79	-5.77
716.817	19.23
716.843	-7.77
716.87	-10.77
716.897	5.23
716.923	24.23
716.95	5.23
716.976	-22.77
717.003	-0.77
717.03	3.23
717.056	5.23
717.083	-12.77
717.109	-3.77
717.136	7.23
717.163	-2.77
717.189	2.23
717.216	2.23
717.242	-12.77
717.269	-10.77
717.296	-0.77
717.322	6.23
717.349	4.23
717.375	-13.77
717.402	-17.77
717.428	-14.77
717.455	2.23
717.481	-13.77
717.508	1.23
717.535	-4.77
717.561	-2.77
717.588	-8.77
717.614	-5.77
717.641	-11.77
717.667	-6.77
717.694	-0.77
717.72	-8.77
717.747	2.23
717.773	-13.77
717.8	-10.77
717.826	5.23
717.853	4.23
717.88	15.23
717.906	-7.77
717.933	4.23
717.959	11.23
717.986	-9.77
718.012	-8.77
718.039	4.23
718.065	15.23
718.092	2.23
718.118	-22.77
718.144	-15.77
718.171	19.23
718.197	8.23
718.224	0.23
718.25	3.23
718.277	-0.77
718.303	3.23
718.33	-3.77
718.356	-10.77
718.383	-7.77
718.409	-0.77
718.436	-0.77
718.462	-2.77
718.489	-18.77
718.515	1.23
718.541	14.23
718.568	0.23
718.594	-7.77
718.621	-7.77
718.647	-11.77
718.674	7.23
718.7	7.23
718.726	-8.77
718.753	-13.77
718.779	13.23
718.806	-6.77
718.832	-4.77
718.858	15.23
718.885	-11.77
718.911	-0.77
718.938	14.23
718.964	-18.77
718.99	-11.77
719.017	-4.77
719.043	-2.77
719.07	13.23
719.096	-12.77
719.122	6.23
719.149	-0.77
719.175	-3.77
719.201	-13.77
719.228	-0.77
719.254	8.23
719.281	-4.77
719.307	-12.77
719.333	-14.77
719.36	16.23
719.386	-6.77
719.412	-11.77
719.439	-26.77
719.465	-19.77
719.491	-20.77
719.518	1.23
719.544	8.23
719.57	8.23
719.597	5.23
719.623	-9.77
719.649	5.23
719.675	-1.77
719.702	-5.77
719.728	4.23
719.754	-13.77
719.781	-11.77
719.807	-8.77
719.833	-8.77
719.86	-9.77
719.886	-11.77
719.912	3.23
719.938	0.23
719.965	3.23
719.991	-5.77
720.017	3.23
720.044	-29.77
720.07	-10.77
720.096	-0.77
720.122	-6.77
720.149	7.23
720.175	16.23
720.201	9.23
720.227	-2.77
720.254	-8.77
720.28	8.23
720.306	-2.77
720.332	0.23
720.359	7.23
720.385	15.23
720.411	10.23
720.437	2.23
720.463	-14.77
720.49	11.23
720.516	-12.77
720.542	-8.77
720.568	2.23
720.595	9.23
720.621	-10.77
720.647	2.23
720.673	5.23
720.699	-12.77
720.725	-5.77
720.752	0.23
720.778	9.23
720.804	3.23
720.83	0.23
720.856	-2.77
720.883	-0.77
720.909	6.23
720.935	3.23
720.961	6.23
720.987	6.23
721.013	-3.77
721.04	-8.77
721.066	-15.77
721.092	-4.77
721.118	13.23
721.144	7.23
721.17	-13.77
721.196	15.23
721.223	0.23
721.249	0.23
721.275	13.23
721.301	0.23
721.327	12.23
721.353	4.23
721.379	1.23
721.405	11.23
721.432	4.23
721.458	-14.77
721.484	-3.77
721.51	-9.77
721.536	-8.77
721.562	0.23
721.588	-2.77
721.614	-9.77
721.64	0.23
721.666	-12.77
721.693	-16.77
721.719	-12.77
721.745	7.23
721.771	-12.77
721.797	-13.77
721.823	8.23
721.849	12.23
721.875	15.23
721.901	-2.77
721.927	-15.77
721.953	-10.77
721.979	14.23
722.005	3.23
722.031	-3.77
722.057	-1.77
722.083	9.23
722.109	8.23
722.135	3.23
722.161	3.23
722.187	-13.77
722.214	-2.77
722.24	12.23
722.266	3.23
722.292	5.23
722.318	17.23
722.344	17.23
722.37	3.23
722.396	0.23
722.422	-13.77
722.448	3.23
722.474	-12.77
722.5	2.23
722.526	4.23
722.552	3.23
722.578	-19.77
722.603	-0.77
722.629	-7.77
722.655	-4.77
722.681	-13.77
722.707	-7.77
722.733	-6.77
722.759	-7.77
722.785	-4.77
722.811	-12.77
722.837	-19.77
722.863	-1.77
722.889	0.23
722.915	3.23
722.941	-0.77
722.967	-7.77
722.993	-3.77
723.019	-4.77
723.045	-0.77
723.071	-15.77
723.097	-1.77
723.122	3.23
723.148	-23.77
723.174	-4.77
723.2	3.23
723.226	-2.77
723.252	-7.77
723.278	-15.77
723.304	-9.77
723.33	-5.77
723.356	-10.77
723.381	-6.77
723.407	-7.77
723.433	-6.77
723.459	2.23
723.485	-11.77
723.511	9.23
723.537	-8.77
723.563	-14.77
723.588	-5.77
723.614	10.23
723.64	-7.77
723.666	-1.77
723.692	16.23
723.718	8.23
723.744	-1.77
723.769	-12.77
723.795	-10.77
723.821	16.23
723.847	-4.77
723.873	2.23
723.899	11.23
723.924	-3.77
723.95	-10.77
723.976	-18.77
724.002	-8.77
724.028	5.23
724.053	-16.77
724.079	-13.77
724.105	-3.77
724.131	1.23
724.157	6.23
724.182	2.23
724.208	10.23
724.234	-4.77
724.26	-1.77
724.286	10.23
724.311	-8.77
724.337	-22.77
724.363	3.23
724.389	2.23
724.415	-3.77
724.44	0.23
724.466	-3.77
724.492	-2.77
724.518	8.23
724.543	-0.77
724.569	-11.77
724.595	-5.77
724.621	-8.77
724.646	-5.77
724.672	-11.77
724.698	-23.77
724.723	-17.77
724.749	-12.77
724.775	-2.77
724.801	-3.77
724.826	-15.77
724.852	-7.77
724.878	-3.77
724.904	-20.77
724.929	-2.77
724.955	-19.77
724.981	-0.77
725.006	3.23
725.032	-7.77
725.058	5.23
725.083	-13.77
725.109	4.23
725.135	-21.77
725.161	0.23
725.186	-10.77
725.212	-3.77
725.238	10.23
725.263	4.23
725.289	-20.77
725.315	-14.77
725.34	-7.77
725.366	-4.77
725.392	10.23
725.417	-3.77
725.443	-3.77
725.468	-2.77
725.494	-4.77
725.52	1.23
725.545	-7.77
725.571	-10.77
725.597	-24.77
725.622	-18.77
725.648	-9.77
725.674	-3.77
725.699	-15.77
725.725	-8.77
725.75	16.23
725.776	-11.77
725.802	6.23
725.827	10.23
725.853	-2.77
725.878	2.23
725.904	-6.77
725.93	-8.77
725.955	-7.77
725.981	-10.77
726.006	1.23
726.032	19.23
726.057	-0.77
726.083	-18.77
726.109	-27.77
726.134	-4.77
726.16	-10.77
726.185	-6.77
726.211	-4.77
726.236	-1.77
726.262	-10.77
726.288	9.23
726.313	-9.77
726.339	-1.77
726.364	3.23
726.39	12.23
726.415	-16.77
726.441	-7.77
726.466	-2.77
726.492	-12.77
726.517	13.23
726.543	-6.77
726.568	-6.77
726.594	-8.77
726.619	-7.77
726.645	16.23
726.67	-4.77
726.696	7.23
726.721	4.23
726.747	-2.77
726.772	-4.77
726.798	-11.77
726.823	-0.77
726.849	0.23
726.874	-4.77
726.9	13.23
726.925	3.23
726.951	-3.77
726.976	1.23
727.002	3.23
727.027	-0.77
727.053	3.23
727.078	-13.77
727.104	-8.77
727.129	-18.77
727.155	0.23
727.18	3.23
727.205	6.23
727.231	-9.77
727.256	2.23
727.282	0.23
727.307	2.23
727.333	2.23
727.358	4.23
727.383	-16.77
727.409	-8.77
727.434	5.23
727.46	-5.77
727.485	0.23
727.511	0.23
727.536	-8.77
727.561	-24.77
727.587	-19.77
727.612	-15.77
727.637	-4.77
727.663	-10.77
727.688	2.23
727.714	-17.77
727.739	-13.77
727.764	-9.77
727.79	0.23
727.815	-2.77
727.841	-6.77
727.866	1.23
727.891	10.23
727.917	-12.77
727.942	-26.77
727.967	-12.77
727.993	-18.77
728.018	-4.77
728.043	-4.77
728.069	7.23
728.094	13.23
728.119	-10.77
728.145	-1.77
728.17	11.23
728.195	4.23
728.221	19.23
728.246	-20.77
728.271	-12.77
728.297	5.23
728.322	-14.77
728.347	-2.77
728.373	-6.77
728.398	-3.77
728.423	-11.77
728.448	1.23
728.474	-4.77
728.499	-3.77
728.524	-24.77
728.55	-7.77
728.575	0.23
728.6	11.23
728.625	-11.77
728.651	0.23
728.676	-2.77
728.701	-21.77
728.727	-7.77
728.752	-5.77
728.777	2.23
728.802	2.23
728.828	19.23
728.853	3.23
728.878	-6.77
728.903	-3.77
728.929	-8.77
728.954	-10.77
728.979	-15.77
729.004	-15.77
729.03	-8.77
729.055	-0.77
729.08	0.23
729.105	-12.77
729.13	12.23
729.156	-2.77
729.181	2.23
729.206	-22.77
729.231	-20.77
729.256	3.23
729.282	2.23
729.307	-23.77
729.332	-14.77
729.357	1.23
729.382	2.23
729.408	-0.77
729.433	-3.77
729.458	9.23
729.483	8.23
729.508	13.23
729.533	11.23
729.559	1.23
729.584	-16.77
729.609	-3.77
729.634	-5.77
729.659	-15.77
729.684	-14.77
729.71	13.23
729.735	4.23
729.76	6.23
729.785	-8.77
729.81	15.23
729.835	-15.77
729.86	0.23
729.886	12.23
729.911	-0.77
729.936	3.23
729.961	26.23
729.986	20.23
730.011	62.23
730.036	196.23
730.061	969.23
730.086	2671.23
730.112	3381.23
730.137	2839.23
730.162	2134.23
730.187	1680.23
730.212	1265.23
730.237	812.23
730.262	459.23
730.287	240.23
730.312	128.23
730.337	85.23
730.362	69.23
730.387	28.23
730.413	27.23
730.438	12.23
730.463	8.23
730.488	-0.77
730.513	6.23
730.538	-2.77
730.563	3.23
730.588	21.23
730.613	23.23
730.638	5.23
730.663	1.23
730.688	16.23
730.713	8.23
730.738	-6.77
730.763	4.23
730.788	-8.77
730.813	5.23
730.838	-8.77
730.863	2.23
730.888	3.23
730.913	-5.77
730.938	-10.77
730.963	26.23
730.988	114.23
731.013	406.23
731.038	601.23
731.063	600.23
731.088	462.23
731.113	324.23
731.138	252.23
731.163	189.23
731.188	105.23
731.213	56.23
731.238	40.23
731.263	6.23
731.288	-3.77
731.313	4.23
731.338	6.23
731.363	-5.77
731.388	3.23
731.413	1.23
731.438	17.23
731.463	0.23
731.487	14.23
731.512	-4.77
731.537	-3.77
731.562	-18.77
731.587	7.23
731.612	-0.77
731.637	2.23
731.662	3.23
731.687	-12.77
731.712	-11.77
731.737	-5.77
731.762	1.23
731.786	-12.77
731.811	10.23
731.836	-7.77
731.861	-4.77
731.886	-20.77
731.911	-5.77
731.936	-4.77
731.961	-12.77
731.986	-21.77
732.01	5.23
732.035	0.23
732.06	11.23
732.085	1.23
732.11	-3.77
732.135	-24.77
732.16	-15.77
732.184	-15.77
732.209	1.23
732.234	-11.77
732.259	-16.77
732.284	-12.77
732.309	-22.77
732.334	-14.77
732.358	-13.77
732.383	-12.77
732.408	-19.77
732.433	-0.77
732.458	4.23
732.482	-7.77
732.507	-3.77
732.532	-0.77
732.557	-7.77
732.582	-16.77
732.607	7.23
732.631	52.23
732.656	81.23
732.681	146.23
732.706	323.23
732.73	450.23
732.755	389.23
732.78	275.23
732.805	228.23
732.83	149.23
732.854	104.23
732.879	78.23
732.904	29.23
732.929	4.23
732.953	5.23
732.978	-14.77
733.003	-16.77
733.028	-4.77
733.052	7.23
733.077	5.23
733.102	6.23
733.127	-9.77
733.151	-4.77
733.176	6.23
733.201	-11.77
733.226	-6.77
733.25	4.23
733.275	-7.77
733.3	-7.77
733.324	17.23
733.349	-2.77
733.374	23.23
733.399	9.23
733.423	-6.77
733.448	-4.77
733.473	-24.77
733.497	-18.77
733.522	-14.77
733.547	-2.77
733.571	10.23
733.596	5.23
733.621	0.23
733.646	1.23
733.67	2.23
733.695	2.23
733.72	-6.77
733.744	-14.77
733.769	-13.77
733.794	2.23
733.818	-2.77
733.843	-4.77
733.867	-15.77
733.892	-9.77
733.917	-13.77
733.941	-7.77
733.966	-6.77
733.991	-15.77
734.015	2.23
734.04	-2.77
734.065	4.23
734.089	7.23
734.114	1.23
734.138	1.23
734.163	-15.77
734.188	-4.77
734.212	-2.77
734.237	-2.77
734.261	-9.77
734.286	3.23
734.311	-8.77
734.335	-0.77
734.36	-8.77
734.384	8.23
734.409	3.23
734.434	-5.77
734.458	-6.77
734.483	-14.77
734.507	-6.77
734.532	-0.77
734.556	-7.77
734.581	-8.77
734.606	-10.77
734.63	-9.77
734.655	10.23
734.679	1.23
734.704	-4.77
734.728	-4.77
734.753	-18.77
734.777	-9.77
734.802	-3.77
734.826	3.23
734.851	-5.77
734.876	-1.77
734.9	-3.77
734.925	-10.77
734.949	4.23
734.974	-7.77
734.998	9.23
735.023	-6.77
735.047	-28.77
735.072	16.23
735.096	-12.77
735.121	3.23
735.145	-12.77
735.17	-6.77
735.194	7.23
735.219	6.23
735.243	4.23
735.268	0.23
735.292	-4.77
735.317	-4.77
735.341	-14.77
735.365	-23.77
735.39	-5.77
735.414	-3.77
735.439	-10.77
735.463	-1.77
735.488	-13.77
735.512	-7.77
735.537	-18.77
735.561	-17.77
735.586	-10.77
735.61	3.23
735.634	-5.77
735.659	5.23
735.683	19.23
735.708	-4.77
735.732	2.23
735.757	-10.77
735.781	6.23
735.805	2.23
735.83	-18.77
735.854	-11.77
735.879	3.23
735.903	6.23
735.927	-3.77
735.952	-10.77
735.976	-1.77
736.001	-5.77
736.025	-18.77
736.049	1.23
736.074	-10.77
736.098	-13.77
736.123	-10.77
736.147	-7.77
736.171	-6.77
736.196	14.23
736.22	-12.77
736.244	-0.77
736.269	-7.77
736.293	-0.77
736.317	-5.77
736.342	-3.77
736.366	12.23
736.39	-8.77
736.415	-8.77
736.439	-7.77
736.463	-3.77
736.488	0.23
736.512	-2.77
736.536	5.23
736.561	18.23
736.585	-7.77
736.609	-2.77
736.634	-4.77
736.658	-10.77
736.682	-11.77
736.707	1.23
736.731	3.23
736.755	4.23
736.78	8.23
736.804	27.23
736.828	1.23
736.852	-11.77
736.877	0.23
736.901	11.23
736.925	1.23
736.949	18.23
736.974	-10.77
736.998	-13.77
737.022	0.23
737.047	-0.77
737.071	3.23
737.095	8.23
737.119	25.23
737.144	3.23
737.168	-14.77
737.192	-13.77
737.216	7.23
737.241	0.23
737.265	-4.77
737.289	-0.77
737.313	-9.77
737.337	-2.77
737.362	-5.77
737.386	-2.77
737.41	-1.77
737.434	9.23
737.459	9.23
737.483	10.23
737.507	4.23
737.531	3.23
737.555	1.23
737.58	10.23
737.604	9.23
737.628	-0.77
737.652	-0.77
737.676	-19.77
737.701	-3.77
737.725	-10.77
737.749	11.23
737.773	0.23
737.797	-21.77
737.821	-4.77
737.846	-8.77
737.87	14.23
737.894	4.23
737.918	8.23
737.942	-11.77
737.966	12.23
737.99	0.23
738.015	-4.77
738.039	6.23
738.063	-6.77
738.087	0.23
738.111	-2.77
738.135	9.23
738.159	-0.77
738.184	3.23
738.208	-4.77
738.232	15.23
738.256	18.23
738.28	17.23
738.304	7.23
738.328	-2.77
738.352	-3.77
738.376	-17.77
738.4	17.23
738.425	-0.77
738.449	-11.77
738.473	8.23
738.497	-0.77
738.521	2.23
738.545	2.23
738.569	-0.77
738.593	15.23
738.617	9.23
738.641	0.23
738.665	6.23
738.689	-14.77
738.713	-11.77
738.737	-7.77
738.762	-7.77
738.786	4.23
738.81	-11.77
738.834	9.23
738.858	-0.77
738.882	-5.77
738.906	-10.77
738.93	-3.77
738.954	-0.77
738.978	-9.77
739.002	-13.77
739.026	0.23
739.05	6.23
739.074	-1.77
739.098	12.23
739.122	1.23
739.146	-10.77
739.17	-2.77
739.194	1.23
739.218	-15.77
739.242	-11.77
739.266	4.23
739.29	13.23
739.314	0.23
739.338	-11.77
739.362	-0.77
739.386	2.23
739.41	-18.77
739.434	-20.77
739.458	5.23
739.482	-15.77
739.506	13.23
739.53	-4.77
739.554	5.23
739.577	-6.77
739.601	1.23
739.625	-11.77
739.649	-7.77
739.673	-3.77
739.697	-0.77
739.721	-13.77
739.745	12.23
739.769	4.23
739.793	16.23
739.817	8.23
739.841	-4.77
739.865	-5.77
739.889	-15.77
739.912	1.23
739.936	-12.77
739.96	-4.77
739.984	-6.77
740.008	-10.77
740.032	-12.77
740.056	-8.77
740.08	-5.77
740.104	-8.77
740.127	-5.77
740.151	0.23
740.175	-2.77
740.199	7.23
740.223	36.23
740.247	1.23
740.271	4.23
740.295	-11.77
740.318	-21.77
740.342	-1.77
740.366	10.23
740.39	1.23
740.414	4.23
740.438	-14.77
740.461	1.23
740.485	4.23
740.509	9.23
740.533	8.23
740.557	-6.77
740.581	-7.77
740.604	-19.77
740.628	-13.77
740.652	18.23
740.676	-19.77
740.7	-7.77
740.723	2.23
740.747	-8.77
740.771	2.23
740.795	-7.77
740.819	11.23
740.842	10.23
740.866	-4.77
740.89	-0.77
740.914	-7.77
740.938	-13.77
740.961	5.23
740.985	-0.77
741.009	-1.77
741.033	7.23
741.056	-7.77
741.08	2.23
741.104	-5.77
741.128	-24.77
741.151	-5.77
741.175	0.23
741.199	6.23
741.223	-5.77
741.246	-0.77
741.27	8.23
741.294	-6.77
741.318	-8.77
741.341	2.23
741.365	-11.77
741.389	-6.77
741.413	20.23
741.436	12.23
741.46	-13.77
741.484	7.23
741.507	-7.77
741.531	18.23
741.555	10.23
741.579	0.23
741.602	3.23
741.626	11.23
741.65	1.23
741.673	9.23
741.697	7.23
741.721	0.23
741.744	-14.77
741.768	-12.77
741.792	-3.77
741.815	-4.77
741.839	-9.77
741.863	14.23
741.886	9.23
741.91	20.23
741.934	-6.77
741.957	-11.77
741.981	6.23
742.005	-3.77
742.028	-7.77
742.052	-4.77
742.075	3.23
742.099	-0.77
742.123	-0.77
742.146	-0.77
742.17	0.23
742.194	-10.77
742.217	-12.77
742.241	-3.77
742.264	8.23
742.288	2.23
742.312	-11.77
742.335	-8.77
742.359	3.23
742.382	7.23
742.406	8.23
742.43	-11.77
742.453	11.23
742.477	-6.77
742.5	-9.77
742.524	-17.77
742.548	-14.77
742.571	-4.77
742.595	-4.77
742.618	-14.77
742.642	-11.77
742.665	4.23
742.689	-19.77
742.712	-1.77
742.736	-2.77
742.76	-6.77
742.783	-11.77
742.807	0.23
742.83	-8.77
742.854	-15.77
742.877	-17.77
742.901	-6.77
742.924	9.23
742.948	-7.77
742.971	-7.77
742.995	-3.77
743.018	-17.77
743.042	-23.77
743.065	-8.77
743.089	-1.77
743.112	-4.77
743.136	-4.77
743.159	-10.77
743.183	-2.77
743.206	3.23
743.23	-16.77
743.253	0.23
743.277	-3.77
743.3	-18.77
743.324	-15.77
743.347	-28.77
743.371	21.23
743.394	-1.77
743.418	30.23
743.441	4.23
743.465	11.23
743.488	-11.77
743.512	-7.77
743.535	-0.77
743.558	1.23
743.582	18.23
743.605	-2.77
743.629	1.23
743.652	19.23
743.676	-1.77
743.699	2.23
743.723	1.23
743.746	5.23
743.769	3.23
743.793	0.23
743.816	-0.77
743.84	6.23
743.863	-7.77
743.886	-6.77
743.91	9.23
743.933	14.23
743.957	21.23
743.98	-11.77
744.003	-2.77
744.027	-3.77
744.05	-5.77
744.074	-12.77
744.097	-28.77
744.12	-15.77
744.144	-4.77
744.167	-7.77
744.19	-7.77
744.214	-8.77
744.237	-11.77
744.26	8.23
744.284	-13.77
744.307	-11.77
744.331	9.23
744.354	-11.77
744.377	-12.77
744.401	-18.77
744.424	-16.77
744.447	-11.77
744.471	-12.77
