Data from HighRes_mercury_15_13_11_07_2024_HR4C61891__29__15-14-26-086.txt Node

Date: Thu Nov 07 15:14:26 EST 2024
User: crc00042
Spectrometer: HR4C6189
Trigger mode: 4
Integration Time (sec): 1.000000E-1
Scans to average: 1
Electric dark correction enabled: true
Nonlinearity correction enabled: false
Boxcar width: 0
XAxis mode: Wavelengths
Number of Pixels in Spectrum: 3648
>>>>>Begin Spectral Data<<<<<
639.567	-48.38
639.602	-48.38
639.636	-48.38
639.67	-44.38
639.704	-14.38
639.738	2.62
639.773	2.62
639.807	-20.38
639.841	-9.38
639.875	8.62
639.909	1.62
639.943	-3.38
639.978	4.62
640.012	-4.38
640.046	-3.38
640.08	2.62
640.114	11.62
640.148	6.62
640.182	-10.38
640.217	-16.38
640.251	14.62
640.285	10.62
640.319	2.62
640.353	5.62
640.387	7.62
640.421	2.62
640.455	-2.38
640.49	-18.38
640.524	-0.38
640.558	11.62
640.592	5.62
640.626	4.62
640.66	4.62
640.694	-14.38
640.728	-7.38
640.762	9.62
640.796	35.62
640.83	32.62
640.865	-9.38
640.899	6.62
640.933	11.62
640.967	12.62
641.001	0.62
641.035	4.62
641.069	-9.38
641.103	-13.38
641.137	-9.38
641.171	-7.38
641.205	10.62
641.239	8.62
641.273	23.62
641.307	9.62
641.341	-11.38
641.375	2.62
641.409	-16.38
641.443	-0.38
641.477	13.62
641.511	32.62
641.545	20.62
641.579	5.62
641.614	11.62
641.648	1.62
641.682	-0.38
641.716	0.62
641.75	13.62
641.784	-0.38
641.818	-2.38
641.852	2.62
641.886	-8.38
641.919	18.62
641.953	6.62
641.987	-12.38
642.021	-5.38
642.055	1.62
642.089	15.62
642.123	-5.38
642.157	-9.38
642.191	-8.38
642.225	13.62
642.259	0.62
642.293	9.62
642.327	-7.38
642.361	-14.38
642.395	4.62
642.429	-1.38
642.463	-5.38
642.497	22.62
642.531	-0.38
642.565	-2.38
642.599	9.62
642.633	-2.38
642.666	11.62
642.7	2.62
642.734	-0.38
642.768	10.62
642.802	5.62
642.836	6.62
642.87	5.62
642.904	-12.38
642.938	16.62
642.972	5.62
643.005	7.62
643.039	16.62
643.073	-0.38
643.107	3.62
643.141	5.62
643.175	2.62
643.209	7.62
643.243	7.62
643.276	7.62
643.31	4.62
643.344	-5.38
643.378	1.62
643.412	4.62
643.446	6.62
643.48	3.62
643.513	17.62
643.547	2.62
643.581	0.62
643.615	17.62
643.649	14.62
643.683	-3.38
643.716	-10.38
643.75	13.62
643.784	-12.38
643.818	7.62
643.852	-11.38
643.886	-4.38
643.919	1.62
643.953	-2.38
643.987	4.62
644.021	3.62
644.055	-2.38
644.088	-17.38
644.122	-15.38
644.156	-4.38
644.19	4.62
644.224	3.62
644.257	18.62
644.291	16.62
644.325	4.62
644.359	12.62
644.392	31.62
644.426	24.62
644.46	-1.38
644.494	1.62
644.527	-7.38
644.561	1.62
644.595	3.62
644.629	-7.38
644.662	-7.38
644.696	18.62
644.73	-15.38
644.764	-13.38
644.797	2.62
644.831	-1.38
644.865	13.62
644.899	10.62
644.932	27.62
644.966	19.62
645	4.62
645.033	19.62
645.067	-11.38
645.101	0.62
645.135	2.62
645.168	2.62
645.202	-14.38
645.236	15.62
645.269	6.62
645.303	3.62
645.337	-24.38
645.37	-8.38
645.404	-0.38
645.438	-2.38
645.471	-14.38
645.505	13.62
645.539	15.62
645.572	-16.38
645.606	-11.38
645.64	1.62
645.673	19.62
645.707	21.62
645.741	3.62
645.774	-22.38
645.808	4.62
645.842	3.62
645.875	-6.38
645.909	-11.38
645.943	-16.38
645.976	-2.38
646.01	12.62
646.043	1.62
646.077	15.62
646.111	12.62
646.144	3.62
646.178	-8.38
646.212	-15.38
646.245	-10.38
646.279	7.62
646.312	8.62
646.346	11.62
646.38	-5.38
646.413	1.62
646.447	0.62
646.48	14.62
646.514	-4.38
646.547	-7.38
646.581	-17.38
646.615	-4.38
646.648	-17.38
646.682	5.62
646.715	9.62
646.749	17.62
646.782	-6.38
646.816	-8.38
646.85	15.62
646.883	-7.38
646.917	3.62
646.95	-3.38
646.984	16.62
647.017	-2.38
647.051	4.62
647.084	14.62
647.118	-7.38
647.151	6.62
647.185	9.62
647.218	-10.38
647.252	-7.38
647.285	-11.38
647.319	-33.38
647.353	9.62
647.386	17.62
647.42	3.62
647.453	-12.38
647.487	0.62
647.52	-2.38
647.553	10.62
647.587	1.62
647.62	-4.38
647.654	-6.38
647.687	11.62
647.721	0.62
647.754	4.62
647.788	16.62
647.821	0.62
647.855	11.62
647.888	13.62
647.922	10.62
647.955	25.62
647.989	4.62
648.022	1.62
648.055	4.62
648.089	-4.38
648.122	26.62
648.156	-3.38
648.189	-15.38
648.223	11.62
648.256	11.62
648.29	3.62
648.323	5.62
648.356	23.62
648.39	20.62
648.423	6.62
648.457	-1.38
648.49	17.62
648.523	14.62
648.557	-6.38
648.59	-9.38
648.624	-4.38
648.657	6.62
648.69	19.62
648.724	19.62
648.757	19.62
648.791	6.62
648.824	11.62
648.857	30.62
648.891	5.62
648.924	-12.38
648.957	9.62
648.991	1.62
649.024	14.62
649.057	-6.38
649.091	-6.38
649.124	2.62
649.158	18.62
649.191	25.62
649.224	-13.38
649.258	-3.38
649.291	0.62
649.324	-5.38
649.358	-8.38
649.391	-1.38
649.424	-1.38
649.458	-3.38
649.491	10.62
649.524	-16.38
649.557	-8.38
649.591	-18.38
649.624	10.62
649.657	-7.38
649.691	-12.38
649.724	-1.38
649.757	7.62
649.791	-3.38
649.824	6.62
649.857	10.62
649.89	5.62
649.924	-15.38
649.957	10.62
649.99	-4.38
650.023	2.62
650.057	1.62
650.09	17.62
650.123	-2.38
650.157	1.62
650.19	16.62
650.223	2.62
650.256	-8.38
650.29	2.62
650.323	-3.38
650.356	9.62
650.389	12.62
650.423	-7.38
650.456	6.62
650.489	-11.38
650.522	4.62
650.555	15.62
650.589	-0.38
650.622	5.62
650.655	11.62
650.688	5.62
650.721	3.62
650.755	-2.38
650.788	5.62
650.821	6.62
650.854	5.62
650.887	6.62
650.921	8.62
650.954	-18.38
650.987	-0.38
651.02	-10.38
651.053	-11.38
651.087	-16.38
651.12	29.62
651.153	12.62
651.186	18.62
651.219	-8.38
651.252	-5.38
651.286	12.62
651.319	-5.38
651.352	-2.38
651.385	0.62
651.418	5.62
651.451	25.62
651.484	11.62
651.518	-9.38
651.551	20.62
651.584	-10.38
651.617	36.62
651.65	11.62
651.683	20.62
651.716	5.62
651.749	-6.38
651.783	12.62
651.816	11.62
651.849	20.62
651.882	7.62
651.915	-5.38
651.948	-4.38
651.981	-6.38
652.014	-14.38
652.047	-15.38
652.08	3.62
652.114	11.62
652.147	0.62
652.18	7.62
652.213	20.62
652.246	-2.38
652.279	-14.38
652.312	11.62
652.345	5.62
652.378	-2.38
652.411	7.62
652.444	18.62
652.477	8.62
652.51	-2.38
652.543	0.62
652.576	5.62
652.609	-5.38
652.642	10.62
652.675	4.62
652.709	4.62
652.742	6.62
652.775	-2.38
652.808	8.62
652.841	-2.38
652.874	-2.38
652.907	-5.38
652.94	-11.38
652.973	-9.38
653.006	-15.38
653.039	-5.38
653.072	-7.38
653.105	-10.38
653.138	-20.38
653.171	-4.38
653.204	10.62
653.237	13.62
653.27	0.62
653.303	11.62
653.336	9.62
653.368	-8.38
653.401	-1.38
653.434	-5.38
653.467	6.62
653.5	-12.38
653.533	-7.38
653.566	13.62
653.599	1.62
653.632	16.62
653.665	5.62
653.698	-11.38
653.731	3.62
653.764	8.62
653.797	8.62
653.83	16.62
653.863	6.62
653.896	2.62
653.929	-4.38
653.961	6.62
653.994	-5.38
654.027	0.62
654.06	5.62
654.093	3.62
654.126	1.62
654.159	-4.38
654.192	17.62
654.225	-7.38
654.258	-5.38
654.29	6.62
654.323	6.62
654.356	-3.38
654.389	10.62
654.422	5.62
654.455	2.62
654.488	12.62
654.521	-4.38
654.553	-16.38
654.586	16.62
654.619	-7.38
654.652	3.62
654.685	17.62
654.718	10.62
654.751	14.62
654.783	-9.38
654.816	9.62
654.849	-1.38
654.882	-13.38
654.915	-24.38
654.948	-1.38
654.98	3.62
655.013	5.62
655.046	-3.38
655.079	-2.38
655.112	5.62
655.144	-21.38
655.177	2.62
655.21	4.62
655.243	5.62
655.276	2.62
655.308	6.62
655.341	-11.38
655.374	5.62
655.407	-3.38
655.44	13.62
655.472	33.62
655.505	3.62
655.538	-15.38
655.571	8.62
655.603	9.62
655.636	7.62
655.669	20.62
655.702	-7.38
655.734	-14.38
655.767	-11.38
655.8	-2.38
655.833	9.62
655.865	6.62
655.898	5.62
655.931	-3.38
655.964	12.62
655.996	-1.38
656.029	0.62
656.062	-0.38
656.095	-5.38
656.127	-6.38
656.16	-1.38
656.193	-7.38
656.225	3.62
656.258	11.62
656.291	2.62
656.324	-1.38
656.356	7.62
656.389	-10.38
656.422	5.62
656.454	-8.38
656.487	7.62
656.52	10.62
656.552	-0.38
656.585	15.62
656.618	11.62
656.65	7.62
656.683	3.62
656.716	0.62
656.748	-8.38
656.781	-7.38
656.814	-9.38
656.846	11.62
656.879	3.62
656.912	3.62
656.944	-10.38
656.977	-11.38
657.01	-2.38
657.042	5.62
657.075	10.62
657.108	19.62
657.14	22.62
657.173	16.62
657.205	26.62
657.238	0.62
657.271	4.62
657.303	-9.38
657.336	-2.38
657.369	5.62
657.401	0.62
657.434	3.62
657.466	-4.38
657.499	-5.38
657.532	0.62
657.564	21.62
657.597	10.62
657.629	7.62
657.662	9.62
657.694	-5.38
657.727	-12.38
657.76	3.62
657.792	-11.38
657.825	-8.38
657.857	-3.38
657.89	2.62
657.922	1.62
657.955	-4.38
657.987	3.62
658.02	16.62
658.053	8.62
658.085	8.62
658.118	4.62
658.15	5.62
658.183	5.62
658.215	-1.38
658.248	0.62
658.28	3.62
658.313	32.62
658.345	1.62
658.378	3.62
658.41	11.62
658.443	14.62
658.475	21.62
658.508	1.62
658.54	9.62
658.573	1.62
658.605	-5.38
658.638	1.62
658.67	-6.38
658.703	-6.38
658.735	-4.38
658.768	7.62
658.8	-13.38
658.833	32.62
658.865	5.62
658.898	-3.38
658.93	-2.38
658.963	8.62
658.995	-19.38
659.028	14.62
659.06	-1.38
659.092	6.62
659.125	3.62
659.157	-8.38
659.19	-13.38
659.222	-13.38
659.255	-3.38
659.287	-1.38
659.32	3.62
659.352	3.62
659.384	9.62
659.417	-1.38
659.449	4.62
659.482	23.62
659.514	-4.38
659.546	-4.38
659.579	-12.38
659.611	18.62
659.644	-5.38
659.676	-2.38
659.708	-9.38
659.741	-8.38
659.773	-6.38
659.806	-1.38
659.838	9.62
659.87	7.62
659.903	-4.38
659.935	11.62
659.967	-0.38
660	10.62
660.032	-29.38
660.065	3.62
660.097	7.62
660.129	-1.38
660.162	-0.38
660.194	1.62
660.226	21.62
660.259	9.62
660.291	4.62
660.323	8.62
660.356	-2.38
660.388	-11.38
660.42	-1.38
660.453	22.62
660.485	20.62
660.517	20.62
660.55	12.62
660.582	3.62
660.614	9.62
660.647	6.62
660.679	-8.38
660.711	15.62
660.743	-8.38
660.776	-13.38
660.808	1.62
660.84	-3.38
660.873	-9.38
660.905	-2.38
660.937	8.62
660.969	-4.38
661.002	6.62
661.034	7.62
661.066	-10.38
661.099	5.62
661.131	23.62
661.163	4.62
661.195	6.62
661.228	5.62
661.26	-4.38
661.292	4.62
661.324	-3.38
661.357	-2.38
661.389	14.62
661.421	10.62
661.453	6.62
661.485	17.62
661.518	8.62
661.55	-18.38
661.582	-10.38
661.614	-4.38
661.647	2.62
661.679	3.62
661.711	-1.38
661.743	-1.38
661.775	-3.38
661.808	19.62
661.84	-3.38
661.872	1.62
661.904	-2.38
661.936	8.62
661.969	1.62
662.001	3.62
662.033	9.62
662.065	9.62
662.097	11.62
662.129	20.62
662.162	-7.38
662.194	-4.38
662.226	1.62
662.258	0.62
662.29	7.62
662.322	-18.38
662.355	-8.38
662.387	9.62
662.419	9.62
662.451	25.62
662.483	17.62
662.515	-15.38
662.547	6.62
662.58	0.62
662.612	-2.38
662.644	-9.38
662.676	-10.38
662.708	7.62
662.74	3.62
662.772	-5.38
662.804	12.62
662.836	3.62
662.869	19.62
662.901	11.62
662.933	10.62
662.965	2.62
662.997	-6.38
663.029	-0.38
663.061	-4.38
663.093	-17.38
663.125	5.62
663.157	24.62
663.189	0.62
663.221	7.62
663.254	13.62
663.286	0.62
663.318	-22.38
663.35	-27.38
663.382	4.62
663.414	-7.38
663.446	13.62
663.478	-0.38
663.51	26.62
663.542	15.62
663.574	6.62
663.606	4.62
663.638	-8.38
663.67	-9.38
663.702	-0.38
663.734	-4.38
663.766	13.62
663.798	-13.38
663.83	18.62
663.862	7.62
663.894	16.62
663.926	11.62
663.958	-11.38
663.99	9.62
664.022	4.62
664.054	8.62
664.086	-9.38
664.118	-26.38
664.15	-13.38
664.182	-0.38
664.214	9.62
664.246	20.62
664.278	-2.38
664.31	18.62
664.342	12.62
664.374	-13.38
664.406	-8.38
664.438	3.62
664.47	-0.38
664.502	-11.38
664.534	7.62
664.566	1.62
664.598	15.62
664.63	6.62
664.662	3.62
664.693	-3.38
664.725	-7.38
664.757	9.62
664.789	-2.38
664.821	-12.38
664.853	13.62
664.885	3.62
664.917	-2.38
664.949	8.62
664.981	25.62
665.013	9.62
665.045	3.62
665.076	-6.38
665.108	8.62
665.14	7.62
665.172	-6.38
665.204	2.62
665.236	-8.38
665.268	9.62
665.3	3.62
665.331	-1.38
665.363	-1.38
665.395	-13.38
665.427	-8.38
665.459	1.62
665.491	-1.38
665.523	4.62
665.555	-2.38
665.586	6.62
665.618	16.62
665.65	-15.38
665.682	6.62
665.714	2.62
665.746	-7.38
665.777	4.62
665.809	9.62
665.841	-0.38
665.873	0.62
665.905	10.62
665.937	10.62
665.968	9.62
666	1.62
666.032	11.62
666.064	-5.38
666.096	-0.38
666.127	2.62
666.159	12.62
666.191	1.62
666.223	-2.38
666.255	4.62
666.286	11.62
666.318	0.62
666.35	13.62
666.382	2.62
666.413	-11.38
666.445	-14.38
666.477	-10.38
666.509	-2.38
666.54	-4.38
666.572	3.62
666.604	-16.38
666.636	7.62
666.667	-1.38
666.699	21.62
666.731	13.62
666.763	7.62
666.794	-5.38
666.826	1.62
666.858	-8.38
666.89	8.62
666.921	5.62
666.953	10.62
666.985	10.62
667.017	11.62
667.048	-0.38
667.08	-7.38
667.112	4.62
667.143	-9.38
667.175	5.62
667.207	0.62
667.238	-4.38
667.27	-0.38
667.302	-5.38
667.334	-6.38
667.365	15.62
667.397	-12.38
667.429	-12.38
667.46	14.62
667.492	5.62
667.524	2.62
667.555	-7.38
667.587	6.62
667.619	-0.38
667.65	-12.38
667.682	-0.38
667.714	12.62
667.745	-3.38
667.777	-0.38
667.808	8.62
667.84	5.62
667.872	2.62
667.903	29.62
667.935	4.62
667.967	16.62
667.998	8.62
668.03	11.62
668.061	12.62
668.093	3.62
668.125	20.62
668.156	0.62
668.188	2.62
668.22	11.62
668.251	10.62
668.283	-1.38
668.314	16.62
668.346	10.62
668.377	12.62
668.409	1.62
668.441	23.62
668.472	11.62
668.504	9.62
668.535	5.62
668.567	4.62
668.599	-3.38
668.63	-0.38
668.662	0.62
668.693	36.62
668.725	20.62
668.756	14.62
668.788	-2.38
668.819	-7.38
668.851	3.62
668.882	7.62
668.914	-1.38
668.946	-2.38
668.977	-8.38
669.009	1.62
669.04	-14.38
669.072	3.62
669.103	8.62
669.135	3.62
669.166	0.62
669.198	-8.38
669.229	10.62
669.261	-1.38
669.292	3.62
669.324	14.62
669.355	17.62
669.387	-10.38
669.418	9.62
669.45	-20.38
669.481	3.62
669.513	11.62
669.544	18.62
669.576	-2.38
669.607	12.62
669.639	23.62
669.67	14.62
669.701	23.62
669.733	-9.38
669.764	-0.38
669.796	-8.38
669.827	-2.38
669.859	0.62
669.89	3.62
669.922	6.62
669.953	12.62
669.985	5.62
670.016	-2.38
670.047	2.62
670.079	-5.38
670.11	-6.38
670.142	-13.38
670.173	-3.38
670.204	2.62
670.236	19.62
670.267	3.62
670.299	16.62
670.33	10.62
670.362	-4.38
670.393	-11.38
670.424	1.62
670.456	-11.38
670.487	-17.38
670.518	2.62
670.55	18.62
670.581	19.62
670.613	4.62
670.644	-2.38
670.675	-0.38
670.707	-5.38
670.738	10.62
670.769	-17.38
670.801	-19.38
670.832	12.62
670.864	-20.38
670.895	7.62
670.926	0.62
670.958	0.62
670.989	-8.38
671.02	-0.38
671.052	3.62
671.083	6.62
671.114	-12.38
671.146	17.62
671.177	1.62
671.208	-1.38
671.24	-20.38
671.271	-2.38
671.302	-0.38
671.333	-1.38
671.365	-15.38
671.396	-9.38
671.427	2.62
671.459	0.62
671.49	6.62
671.521	10.62
671.553	9.62
671.584	7.62
671.615	-5.38
671.646	3.62
671.678	-8.38
671.709	-15.38
671.74	-0.38
671.771	6.62
671.803	6.62
671.834	0.62
671.865	-5.38
671.896	-2.38
671.928	-4.38
671.959	-12.38
671.99	-4.38
672.021	-3.38
672.053	3.62
672.084	11.62
672.115	-4.38
672.146	0.62
672.178	-1.38
672.209	8.62
672.24	10.62
672.271	20.62
672.303	6.62
672.334	-5.38
672.365	-12.38
672.396	-4.38
672.427	1.62
672.459	12.62
672.49	12.62
672.521	-4.38
672.552	27.62
672.583	-2.38
672.615	-14.38
672.646	2.62
672.677	-1.38
672.708	-4.38
672.739	-6.38
672.77	18.62
672.802	22.62
672.833	11.62
672.864	14.62
672.895	-13.38
672.926	-7.38
672.957	-21.38
672.989	-6.38
673.02	18.62
673.051	9.62
673.082	23.62
673.113	2.62
673.144	6.62
673.175	21.62
673.206	-4.38
673.238	-4.38
673.269	9.62
673.3	8.62
673.331	15.62
673.362	14.62
673.393	3.62
673.424	-5.38
673.455	27.62
673.487	5.62
673.518	3.62
673.549	-1.38
673.58	10.62
673.611	3.62
673.642	-2.38
673.673	-22.38
673.704	-2.38
673.735	3.62
673.766	-16.38
673.797	3.62
673.828	13.62
673.86	0.62
673.891	-19.38
673.922	-1.38
673.953	2.62
673.984	-9.38
674.015	16.62
674.046	-5.38
674.077	0.62
674.108	1.62
674.139	-3.38
674.17	6.62
674.201	0.62
674.232	-8.38
674.263	-16.38
674.294	-21.38
674.325	-11.38
674.356	1.62
674.387	18.62
674.418	0.62
674.449	0.62
674.48	-2.38
674.511	-8.38
674.542	-3.38
674.573	-4.38
674.604	11.62
674.635	5.62
674.666	-6.38
674.697	3.62
674.728	-4.38
674.759	4.62
674.79	-11.38
674.821	-5.38
674.852	5.62
674.883	-15.38
674.914	-16.38
674.945	4.62
674.976	-6.38
675.007	-31.38
675.038	-2.38
675.069	-9.38
675.1	-13.38
675.131	-8.38
675.162	-6.38
675.193	-5.38
675.224	-13.38
675.254	-2.38
675.285	2.62
675.316	14.62
675.347	-0.38
675.378	-4.38
675.409	7.62
675.44	10.62
675.471	10.62
675.502	-6.38
675.533	-2.38
675.564	0.62
675.595	5.62
675.625	9.62
675.656	5.62
675.687	7.62
675.718	-13.38
675.749	12.62
675.78	14.62
675.811	1.62
675.842	10.62
675.873	1.62
675.903	3.62
675.934	-4.38
675.965	-8.38
675.996	3.62
676.027	17.62
676.058	7.62
676.089	-14.38
676.119	0.62
676.15	-10.38
676.181	-12.38
676.212	-11.38
676.243	6.62
676.274	-4.38
676.304	16.62
676.335	-9.38
676.366	-4.38
676.397	8.62
676.428	-3.38
676.459	-5.38
676.489	16.62
676.52	10.62
676.551	1.62
676.582	-6.38
676.613	19.62
676.643	3.62
676.674	7.62
676.705	3.62
676.736	12.62
676.767	28.62
676.797	22.62
676.828	15.62
676.859	-1.38
676.89	4.62
676.92	3.62
676.951	-0.38
676.982	5.62
677.013	3.62
677.044	23.62
677.074	27.62
677.105	-8.38
677.136	4.62
677.167	2.62
677.197	-0.38
677.228	-0.38
677.259	-1.38
677.289	-3.38
677.32	-16.38
677.351	-16.38
677.382	4.62
677.412	-7.38
677.443	16.62
677.474	13.62
677.505	-4.38
677.535	12.62
677.566	-0.38
677.597	-11.38
677.627	-13.38
677.658	6.62
677.689	12.62
677.72	-8.38
677.75	6.62
677.781	-4.38
677.812	-0.38
677.842	6.62
677.873	8.62
677.904	-8.38
677.934	-11.38
677.965	-5.38
677.996	-1.38
678.026	11.62
678.057	12.62
678.088	7.62
678.118	3.62
678.149	0.62
678.18	-0.38
678.21	9.62
678.241	-4.38
678.272	-6.38
678.302	-1.38
678.333	9.62
678.363	10.62
678.394	20.62
678.425	6.62
678.455	7.62
678.486	6.62
678.517	-7.38
678.547	3.62
678.578	-18.38
678.608	-21.38
678.639	3.62
678.67	16.62
678.7	-4.38
678.731	-5.38
678.761	7.62
678.792	11.62
678.823	-4.38
678.853	5.62
678.884	4.62
678.914	7.62
678.945	-3.38
678.975	0.62
679.006	22.62
679.037	-2.38
679.067	35.62
679.098	0.62
679.128	0.62
679.159	-2.38
679.189	5.62
679.22	-18.38
679.25	14.62
679.281	-1.38
679.312	0.62
679.342	-3.38
679.373	35.62
679.403	3.62
679.434	2.62
679.464	2.62
679.495	12.62
679.525	7.62
679.556	-1.38
679.586	0.62
679.617	6.62
679.647	3.62
679.678	4.62
679.708	4.62
679.739	-2.38
679.769	2.62
679.8	-7.38
679.83	2.62
679.861	5.62
679.891	-5.38
679.922	-6.38
679.952	-9.38
679.983	-0.38
680.013	7.62
680.044	-10.38
680.074	-0.38
680.105	4.62
680.135	-0.38
680.165	19.62
680.196	2.62
680.226	12.62
680.257	2.62
680.287	-10.38
680.318	0.62
680.348	-14.38
680.379	6.62
680.409	15.62
680.439	15.62
680.47	-4.38
680.5	0.62
680.531	2.62
680.561	8.62
680.592	6.62
680.622	14.62
680.652	-0.38
680.683	22.62
680.713	-5.38
680.744	-8.38
680.774	-7.38
680.804	2.62
680.835	19.62
680.865	8.62
680.896	8.62
680.926	20.62
680.956	-4.38
680.987	3.62
681.017	-6.38
681.047	13.62
681.078	-13.38
681.108	-2.38
681.139	-12.38
681.169	12.62
681.199	-7.38
681.23	7.62
681.26	-14.38
681.29	4.62
681.321	-9.38
681.351	1.62
681.381	5.62
681.412	14.62
681.442	6.62
681.472	1.62
681.503	-11.38
681.533	-11.38
681.563	-6.38
681.594	-11.38
681.624	7.62
681.654	10.62
681.685	6.62
681.715	3.62
681.745	-10.38
681.775	-7.38
681.806	-0.38
681.836	0.62
681.866	-6.38
681.897	1.62
681.927	-12.38
681.957	-19.38
681.987	0.62
682.018	9.62
682.048	-0.38
682.078	-5.38
682.109	-1.38
682.139	0.62
682.169	10.62
682.199	-0.38
682.23	4.62
682.26	8.62
682.29	-6.38
682.32	-1.38
682.351	1.62
682.381	9.62
682.411	3.62
682.441	6.62
682.472	-1.38
682.502	2.62
682.532	8.62
682.562	2.62
682.592	-0.38
682.623	11.62
682.653	-0.38
682.683	-9.38
682.713	11.62
682.743	4.62
682.774	-0.38
682.804	7.62
682.834	23.62
682.864	7.62
682.894	-1.38
682.925	-10.38
682.955	7.62
682.985	-1.38
683.015	22.62
683.045	14.62
683.076	-3.38
683.106	-1.38
683.136	-12.38
683.166	-14.38
683.196	-1.38
683.226	-13.38
683.257	-5.38
683.287	-2.38
683.317	-15.38
683.347	-12.38
683.377	-12.38
683.407	9.62
683.437	-2.38
683.468	-1.38
683.498	-12.38
683.528	-8.38
683.558	4.62
683.588	-4.38
683.618	-2.38
683.648	-10.38
683.678	7.62
683.708	6.62
683.739	-5.38
683.769	-1.38
683.799	4.62
683.829	1.62
683.859	5.62
683.889	9.62
683.919	-0.38
683.949	3.62
683.979	5.62
684.009	-1.38
684.039	-3.38
684.07	-11.38
684.1	10.62
684.13	-4.38
684.16	23.62
684.19	5.62
684.22	-9.38
684.25	13.62
684.28	-4.38
684.31	10.62
684.34	6.62
684.37	11.62
684.4	7.62
684.43	11.62
684.46	7.62
684.49	-1.38
684.52	-1.38
684.55	22.62
684.58	-0.38
684.61	-2.38
684.64	15.62
684.67	10.62
684.7	1.62
684.73	8.62
684.76	14.62
684.79	23.62
684.82	-6.38
684.85	-12.38
684.88	26.62
684.91	28.62
684.94	-1.38
684.97	-6.38
685	-0.38
685.03	-6.38
685.06	-13.38
685.09	-4.38
685.12	22.62
685.15	-7.38
685.18	3.62
685.21	2.62
685.24	4.62
685.27	13.62
685.3	6.62
685.33	9.62
685.36	0.62
685.39	0.62
685.42	6.62
685.45	4.62
685.48	-14.38
685.51	-1.38
685.54	15.62
685.569	13.62
685.599	3.62
685.629	4.62
685.659	10.62
685.689	-1.38
685.719	6.62
685.749	-4.38
685.779	2.62
685.809	-2.38
685.839	-0.38
685.869	-5.38
685.898	6.62
685.928	16.62
685.958	2.62
685.988	30.62
686.018	10.62
686.048	3.62
686.078	9.62
686.108	13.62
686.137	8.62
686.167	12.62
686.197	5.62
686.227	8.62
686.257	33.62
686.287	21.62
686.317	0.62
686.346	3.62
686.376	-13.38
686.406	-5.38
686.436	9.62
686.466	-0.38
686.496	13.62
686.525	-1.38
686.555	-1.38
686.585	11.62
686.615	20.62
686.645	7.62
686.675	14.62
686.704	16.62
686.734	11.62
686.764	4.62
686.794	3.62
686.824	-11.38
686.853	14.62
686.883	24.62
686.913	20.62
686.943	0.62
686.973	-1.38
687.002	-5.38
687.032	4.62
687.062	-1.38
687.092	18.62
687.121	-0.38
687.151	1.62
687.181	11.62
687.211	23.62
687.24	3.62
687.27	3.62
687.3	0.62
687.33	8.62
687.359	-21.38
687.389	-0.38
687.419	2.62
687.449	-14.38
687.478	10.62
687.508	7.62
687.538	11.62
687.568	0.62
687.597	14.62
687.627	14.62
687.657	-0.38
687.686	3.62
687.716	15.62
687.746	-12.38
687.776	5.62
687.805	8.62
687.835	5.62
687.865	18.62
687.894	2.62
687.924	4.62
687.954	7.62
687.983	-8.38
688.013	14.62
688.043	10.62
688.072	3.62
688.102	13.62
688.132	1.62
688.161	-7.38
688.191	-3.38
688.221	1.62
688.25	2.62
688.28	0.62
688.31	-3.38
688.339	1.62
688.369	-1.38
688.399	-2.38
688.428	2.62
688.458	-2.38
688.488	3.62
688.517	5.62
688.547	3.62
688.576	21.62
688.606	12.62
688.636	-9.38
688.665	-11.38
688.695	12.62
688.725	10.62
688.754	13.62
688.784	5.62
688.813	5.62
688.843	3.62
688.873	18.62
688.902	3.62
688.932	-1.38
688.961	2.62
688.991	6.62
689.02	17.62
689.05	-1.38
689.08	0.62
689.109	21.62
689.139	21.62
689.168	11.62
689.198	13.62
689.227	7.62
689.257	5.62
689.287	-3.38
689.316	3.62
689.346	-2.38
689.375	-14.38
689.405	-0.38
689.434	1.62
689.464	17.62
689.493	10.62
689.523	21.62
689.552	-17.38
689.582	7.62
689.611	0.62
689.641	26.62
689.67	6.62
689.7	10.62
689.73	22.62
689.759	5.62
689.789	12.62
689.818	12.62
689.848	9.62
689.877	22.62
689.906	4.62
689.936	3.62
689.965	-4.38
689.995	6.62
690.024	20.62
690.054	10.62
690.083	3.62
690.113	0.62
690.142	5.62
690.172	8.62
690.201	-6.38
690.231	-2.38
690.26	14.62
690.29	2.62
690.319	2.62
690.348	8.62
690.378	-0.38
690.407	9.62
690.437	4.62
690.466	-2.38
690.496	-5.38
690.525	12.62
690.555	2.62
690.584	8.62
690.613	6.62
690.643	15.62
690.672	5.62
690.702	9.62
690.731	2.62
690.76	14.62
690.79	39.62
690.819	23.62
690.849	45.62
690.878	18.62
690.907	23.62
690.937	28.62
690.966	24.62
690.996	22.62
691.025	16.62
691.054	10.62
691.084	6.62
691.113	10.62
691.142	5.62
691.172	20.62
691.201	18.62
691.23	1.62
691.26	9.62
691.289	3.62
691.319	11.62
691.348	-3.38
691.377	9.62
691.407	6.62
691.436	14.62
691.465	6.62
691.495	7.62
691.524	-18.38
691.553	-7.38
691.583	3.62
691.612	14.62
691.641	-5.38
691.67	3.62
691.7	9.62
691.729	-25.38
691.758	-0.38
691.788	11.62
691.817	1.62
691.846	1.62
691.876	5.62
691.905	-7.38
691.934	-13.38
691.963	7.62
691.993	7.62
692.022	-1.38
692.051	-2.38
692.081	7.62
692.11	10.62
692.139	-1.38
692.168	-15.38
692.198	17.62
692.227	-10.38
692.256	-22.38
692.285	-2.38
692.315	4.62
692.344	3.62
692.373	17.62
692.402	-7.38
692.432	0.62
692.461	-8.38
692.49	-9.38
692.519	-10.38
692.548	7.62
692.578	4.62
692.607	-2.38
692.636	-23.38
692.665	8.62
692.694	4.62
692.724	5.62
692.753	12.62
692.782	5.62
692.811	-0.38
692.84	-2.38
692.87	7.62
692.899	4.62
692.928	4.62
692.957	0.62
692.986	12.62
693.016	-1.38
693.045	3.62
693.074	4.62
693.103	13.62
693.132	3.62
693.161	-6.38
693.191	-9.38
693.22	-8.38
693.249	-6.38
693.278	-2.38
693.307	5.62
693.336	-24.38
693.365	-28.38
693.395	6.62
693.424	11.62
693.453	13.62
693.482	8.62
693.511	4.62
693.54	10.62
693.569	6.62
693.598	9.62
693.628	12.62
693.657	9.62
693.686	15.62
693.715	8.62
693.744	4.62
693.773	14.62
693.802	13.62
693.831	-2.38
693.86	24.62
693.889	-5.38
693.919	12.62
693.948	14.62
693.977	14.62
694.006	1.62
694.035	1.62
694.064	-9.38
694.093	1.62
694.122	9.62
694.151	-5.38
694.18	10.62
694.209	42.62
694.238	4.62
694.267	15.62
694.296	18.62
694.325	1.62
694.354	20.62
694.383	10.62
694.412	6.62
694.441	-3.38
694.471	-14.38
694.5	-16.38
694.529	0.62
694.558	4.62
694.587	3.62
694.616	-4.38
694.645	-10.38
694.674	8.62
694.703	12.62
694.732	-16.38
694.761	7.62
694.79	24.62
694.819	-17.38
694.848	-0.38
694.877	6.62
694.906	23.62
694.935	-3.38
694.963	14.62
694.992	3.62
695.021	2.62
695.05	12.62
695.079	14.62
695.108	-8.38
695.137	12.62
695.166	5.62
695.195	0.62
695.224	7.62
695.253	-10.38
695.282	2.62
695.311	14.62
695.34	2.62
695.369	11.62
695.398	13.62
695.427	27.62
695.456	-8.38
695.485	6.62
695.513	-5.38
695.542	-9.38
695.571	0.62
695.6	5.62
695.629	13.62
695.658	14.62
695.687	-4.38
695.716	4.62
695.745	22.62
695.774	-7.38
695.802	0.62
695.831	15.62
695.86	19.62
695.889	11.62
695.918	13.62
695.947	5.62
695.976	7.62
696.005	-1.38
696.033	8.62
696.062	11.62
696.091	-1.38
696.12	0.62
696.149	15.62
696.178	2.62
696.207	11.62
696.235	-3.38
696.264	15.62
696.293	-0.38
696.322	12.62
696.351	23.62
696.38	-7.38
696.408	18.62
696.437	2.62
696.466	-3.38
696.495	10.62
696.524	17.62
696.553	1.62
696.581	10.62
696.61	7.62
696.639	-1.38
696.668	5.62
696.697	2.62
696.725	8.62
696.754	16.62
696.783	-12.38
696.812	-7.38
696.84	9.62
696.869	0.62
696.898	-3.38
696.927	-0.38
696.956	22.62
696.984	0.62
697.013	13.62
697.042	6.62
697.071	6.62
697.099	3.62
697.128	4.62
697.157	-5.38
697.186	3.62
697.214	-4.38
697.243	-3.38
697.272	-5.38
697.301	19.62
697.329	1.62
697.358	9.62
697.387	15.62
697.415	18.62
697.444	4.62
697.473	10.62
697.502	-0.38
697.53	19.62
697.559	-2.38
697.588	-1.38
697.616	2.62
697.645	5.62
697.674	9.62
697.703	-4.38
697.731	7.62
697.76	3.62
697.789	-0.38
697.817	17.62
697.846	29.62
697.875	11.62
697.903	25.62
697.932	18.62
697.961	-2.38
697.989	4.62
698.018	11.62
698.047	0.62
698.075	16.62
698.104	-8.38
698.133	-13.38
698.161	-5.38
698.19	4.62
698.218	1.62
698.247	9.62
698.276	19.62
698.304	21.62
698.333	-6.38
698.362	-6.38
698.39	3.62
698.419	14.62
698.447	-10.38
698.476	9.62
698.505	16.62
698.533	7.62
698.562	4.62
698.591	5.62
698.619	14.62
698.648	7.62
698.676	4.62
698.705	3.62
698.733	2.62
698.762	6.62
698.791	-0.38
698.819	8.62
698.848	0.62
698.876	17.62
698.905	1.62
698.933	5.62
698.962	8.62
698.991	15.62
699.019	15.62
699.048	-3.38
699.076	2.62
699.105	-17.38
699.133	-4.38
699.162	11.62
699.19	16.62
699.219	12.62
699.248	0.62
699.276	0.62
699.305	-4.38
699.333	2.62
699.362	1.62
699.39	23.62
699.419	6.62
699.447	6.62
699.476	8.62
699.504	-3.38
699.533	2.62
699.561	-9.38
699.59	17.62
699.618	-10.38
699.647	7.62
699.675	3.62
699.704	12.62
699.732	1.62
699.761	2.62
699.789	1.62
699.818	16.62
699.846	-11.38
699.874	2.62
699.903	8.62
699.931	0.62
699.96	13.62
699.988	11.62
700.017	-5.38
700.045	2.62
700.074	-11.38
700.102	-2.38
700.13	-7.38
700.159	9.62
700.187	6.62
700.216	21.62
700.244	-7.38
700.273	6.62
700.301	9.62
700.329	6.62
700.358	3.62
700.386	0.62
700.415	7.62
700.443	14.62
700.472	5.62
700.5	16.62
700.528	24.62
700.557	11.62
700.585	5.62
700.614	-6.38
700.642	6.62
700.67	24.62
700.699	16.62
700.727	5.62
700.755	3.62
700.784	-3.38
700.812	7.62
700.841	19.62
700.869	-6.38
700.897	-6.38
700.926	-8.38
700.954	9.62
700.982	16.62
701.011	-1.38
701.039	24.62
701.067	16.62
701.096	18.62
701.124	3.62
701.152	3.62
701.181	-4.38
701.209	-6.38
701.237	3.62
701.266	-2.38
701.294	-3.38
701.322	9.62
701.351	9.62
701.379	0.62
701.407	-8.38
701.435	-1.38
701.464	12.62
701.492	21.62
701.52	6.62
701.549	3.62
701.577	-13.38
701.605	0.62
701.634	0.62
701.662	9.62
701.69	-2.38
701.718	-7.38
701.747	24.62
701.775	8.62
701.803	-6.38
701.831	9.62
701.86	0.62
701.888	18.62
701.916	4.62
701.944	19.62
701.973	3.62
702.001	-11.38
702.029	-9.38
702.057	-12.38
702.086	-31.38
702.114	-14.38
702.142	-5.38
702.17	-9.38
702.199	2.62
702.227	-5.38
702.255	-1.38
702.283	-3.38
702.311	-2.38
702.34	-11.38
702.368	-8.38
702.396	6.62
702.424	-0.38
702.452	-0.38
702.481	1.62
702.509	5.62
702.537	5.62
702.565	9.62
702.593	-15.38
702.621	6.62
702.65	11.62
702.678	-3.38
702.706	2.62
702.734	-9.38
702.762	18.62
702.79	14.62
702.819	0.62
702.847	5.62
702.875	-2.38
702.903	6.62
702.931	-1.38
702.959	-2.38
702.988	-5.38
703.016	-25.38
703.044	13.62
703.072	2.62
703.1	-5.38
703.128	2.62
703.156	-0.38
703.184	-9.38
703.212	12.62
703.241	9.62
703.269	-2.38
703.297	8.62
703.325	-1.38
703.353	-0.38
703.381	-4.38
703.409	14.62
703.437	-14.38
703.465	6.62
703.493	-16.38
703.522	6.62
703.55	11.62
703.578	4.62
703.606	7.62
703.634	25.62
703.662	-8.38
703.69	-3.38
703.718	3.62
703.746	13.62
703.774	8.62
703.802	13.62
703.83	7.62
703.858	-0.38
703.886	-0.38
703.914	-17.38
703.942	7.62
703.97	-19.38
703.998	-14.38
704.027	3.62
704.055	16.62
704.083	-10.38
704.111	-7.38
704.139	-1.38
704.167	-9.38
704.195	5.62
704.223	-6.38
704.251	-2.38
704.279	17.62
704.307	6.62
704.335	1.62
704.363	11.62
704.391	0.62
704.419	-0.38
704.447	-13.38
704.475	-8.38
704.503	0.62
704.531	22.62
704.558	2.62
704.586	-10.38
704.614	-1.38
704.642	16.62
704.67	9.62
704.698	6.62
704.726	-1.38
704.754	-7.38
704.782	-0.38
704.81	-1.38
704.838	30.62
704.866	5.62
704.894	-2.38
704.922	-4.38
704.95	6.62
704.978	15.62
705.006	3.62
705.034	10.62
705.061	-11.38
705.089	1.62
705.117	-8.38
705.145	11.62
705.173	3.62
705.201	0.62
705.229	10.62
705.257	14.62
705.285	15.62
705.313	3.62
705.34	-8.38
705.368	1.62
705.396	5.62
705.424	8.62
705.452	15.62
705.48	18.62
705.508	1.62
705.536	5.62
705.563	-2.38
705.591	1.62
705.619	3.62
705.647	-0.38
705.675	0.62
705.703	10.62
705.731	-8.38
705.758	4.62
705.786	15.62
705.814	4.62
705.842	0.62
705.87	9.62
705.898	8.62
705.925	-6.38
705.953	12.62
705.981	-13.38
706.009	-6.38
706.037	0.62
706.065	-8.38
706.092	-5.38
706.12	21.62
706.148	-1.38
706.176	0.62
706.204	0.62
706.231	4.62
706.259	-9.38
706.287	2.62
706.315	18.62
706.342	-8.38
706.37	19.62
706.398	4.62
706.426	2.62
706.454	0.62
706.481	17.62
706.509	1.62
706.537	-7.38
706.565	-1.38
706.592	7.62
706.62	5.62
706.648	8.62
706.676	2.62
706.703	3.62
706.731	-8.38
706.759	-8.38
706.787	15.62
706.814	-1.38
706.842	3.62
706.87	5.62
706.897	-0.38
706.925	-5.38
706.953	9.62
706.981	27.62
707.008	19.62
707.036	32.62
707.064	-2.38
707.091	-12.38
707.119	19.62
707.147	-7.38
707.174	4.62
707.202	6.62
707.23	-10.38
707.258	3.62
707.285	2.62
707.313	0.62
707.341	-3.38
707.368	0.62
707.396	-2.38
707.424	16.62
707.451	16.62
707.479	-4.38
707.507	9.62
707.534	-10.38
707.562	8.62
707.59	-2.38
707.617	-1.38
707.645	8.62
707.672	-2.38
707.7	-0.38
707.728	17.62
707.755	6.62
707.783	6.62
707.811	10.62
707.838	-8.38
707.866	1.62
707.893	3.62
707.921	0.62
707.949	3.62
707.976	-1.38
708.004	-2.38
708.031	1.62
708.059	3.62
708.087	-6.38
708.114	7.62
708.142	0.62
708.169	-14.38
708.197	-14.38
708.225	-6.38
708.252	2.62
708.28	12.62
708.307	7.62
708.335	5.62
708.362	-10.38
708.39	-6.38
708.418	-1.38
708.445	-20.38
708.473	-6.38
708.5	-9.38
708.528	4.62
708.555	-9.38
708.583	8.62
708.61	-1.38
708.638	3.62
708.665	-15.38
708.693	-9.38
708.72	-9.38
708.748	-8.38
708.776	4.62
708.803	20.62
708.831	5.62
708.858	10.62
708.886	-2.38
708.913	13.62
708.941	-6.38
708.968	11.62
708.996	-6.38
709.023	35.62
709.051	-1.38
709.078	-7.38
709.105	-8.38
709.133	-7.38
709.16	-4.38
709.188	1.62
709.215	21.62
709.243	10.62
709.27	-7.38
709.298	6.62
709.325	-7.38
709.353	-3.38
709.38	14.62
709.408	13.62
709.435	3.62
709.462	0.62
709.49	7.62
709.517	3.62
709.545	0.62
709.572	-5.38
709.6	-0.38
709.627	5.62
709.655	-0.38
709.682	-8.38
709.709	-2.38
709.737	-12.38
709.764	-2.38
709.792	22.62
709.819	-9.38
709.846	4.62
709.874	16.62
709.901	5.62
709.929	4.62
709.956	3.62
709.983	-8.38
710.011	12.62
710.038	-7.38
710.066	-3.38
710.093	13.62
710.12	13.62
710.148	-5.38
710.175	-0.38
710.202	-7.38
710.23	0.62
710.257	5.62
710.284	-1.38
710.312	0.62
710.339	8.62
710.366	13.62
710.394	-0.38
710.421	8.62
710.448	7.62
710.476	-9.38
710.503	-2.38
710.53	7.62
710.558	25.62
710.585	12.62
710.612	-2.38
710.64	7.62
710.667	2.62
710.694	-6.38
710.722	5.62
710.749	-9.38
710.776	-2.38
710.804	2.62
710.831	2.62
710.858	5.62
710.885	-2.38
710.913	5.62
710.94	21.62
710.967	15.62
710.995	1.62
711.022	1.62
711.049	-0.38
711.076	-12.38
711.104	-16.38
711.131	-11.38
711.158	-4.38
711.185	6.62
711.213	-2.38
711.24	-2.38
711.267	-2.38
711.294	-9.38
711.322	20.62
711.349	-4.38
711.376	-1.38
711.403	22.62
711.431	-4.38
711.458	3.62
711.485	-5.38
711.512	20.62
711.54	2.62
711.567	5.62
711.594	-6.38
711.621	-10.38
711.648	5.62
711.676	6.62
711.703	15.62
711.73	-21.38
711.757	10.62
711.784	1.62
711.812	1.62
711.839	2.62
711.866	-0.38
711.893	-6.38
711.92	5.62
711.947	-1.38
711.975	6.62
712.002	-1.38
712.029	21.62
712.056	-1.38
712.083	18.62
712.11	-11.38
712.138	4.62
712.165	9.62
712.192	-1.38
712.219	5.62
712.246	-7.38
712.273	7.62
712.3	-14.38
712.328	6.62
712.355	-6.38
712.382	7.62
712.409	13.62
712.436	-4.38
712.463	27.62
712.49	9.62
712.517	-0.38
712.544	-0.38
712.572	9.62
712.599	-2.38
712.626	10.62
712.653	3.62
712.68	-4.38
712.707	14.62
712.734	12.62
712.761	8.62
712.788	8.62
712.815	9.62
712.842	3.62
712.87	6.62
712.897	-2.38
712.924	-2.38
712.951	2.62
712.978	34.62
713.005	34.62
713.032	6.62
713.059	-7.38
713.086	-16.38
713.113	-5.38
713.14	-9.38
713.167	5.62
713.194	14.62
713.221	-2.38
713.248	17.62
713.275	3.62
713.302	-7.38
713.329	-5.38
713.356	2.62
713.383	-2.38
713.41	7.62
713.437	3.62
713.464	-2.38
713.491	1.62
713.518	10.62
713.545	-16.38
713.572	-13.38
713.599	26.62
713.626	1.62
713.653	16.62
713.68	5.62
713.707	-5.38
713.734	-5.38
713.761	4.62
713.788	-1.38
713.815	13.62
713.842	-6.38
713.869	9.62
713.896	10.62
713.923	-2.38
713.95	-5.38
713.977	-2.38
714.004	-5.38
714.031	-11.38
714.058	-0.38
714.085	1.62
714.112	7.62
714.139	11.62
714.165	2.62
714.192	2.62
714.219	11.62
714.246	0.62
714.273	4.62
714.3	10.62
714.327	3.62
714.354	14.62
714.381	9.62
714.408	-1.38
714.435	3.62
714.461	4.62
714.488	10.62
714.515	1.62
714.542	-10.38
714.569	9.62
714.596	-0.38
714.623	-1.38
714.65	-7.38
714.677	5.62
714.703	-8.38
714.73	10.62
714.757	-5.38
714.784	6.62
714.811	-0.38
714.838	2.62
714.865	5.62
714.891	19.62
714.918	4.62
714.945	-12.38
714.972	-1.38
714.999	16.62
715.026	7.62
715.052	13.62
715.079	-0.38
715.106	11.62
715.133	3.62
715.16	-1.38
715.187	-11.38
715.213	7.62
715.24	-1.38
715.267	9.62
715.294	-10.38
715.321	-6.38
715.347	-17.38
715.374	-13.38
715.401	1.62
715.428	-2.38
715.455	-12.38
715.481	5.62
715.508	14.62
715.535	6.62
715.562	21.62
715.588	21.62
715.615	3.62
715.642	6.62
715.669	25.62
715.695	-7.38
715.722	10.62
715.749	-6.38
715.776	7.62
715.802	4.62
715.829	18.62
715.856	-5.38
715.883	19.62
715.909	-8.38
715.936	15.62
715.963	-3.38
715.99	1.62
716.016	2.62
716.043	-7.38
716.07	-14.38
716.096	-0.38
716.123	7.62
716.15	25.62
716.177	4.62
716.203	8.62
716.23	15.62
716.257	11.62
716.283	6.62
716.31	9.62
716.337	1.62
716.363	-0.38
716.39	-7.38
716.417	3.62
716.443	-2.38
716.47	9.62
716.497	28.62
716.523	9.62
716.55	2.62
716.577	15.62
716.603	3.62
716.63	-12.38
716.657	11.62
716.683	-7.38
716.71	-0.38
716.737	-1.38
716.763	2.62
716.79	6.62
716.817	25.62
716.843	7.62
716.87	-8.38
716.897	0.62
716.923	14.62
716.95	-6.38
716.976	-6.38
717.003	-7.38
717.03	15.62
717.056	5.62
717.083	8.62
717.109	30.62
717.136	-0.38
717.163	0.62
717.189	-0.38
717.216	-2.38
717.242	-5.38
717.269	-7.38
717.296	25.62
717.322	13.62
717.349	14.62
717.375	-3.38
717.402	-18.38
717.428	-1.38
717.455	-7.38
717.481	14.62
717.508	22.62
717.535	20.62
717.561	3.62
717.588	10.62
717.614	-3.38
717.641	9.62
717.667	9.62
717.694	11.62
717.72	-12.38
717.747	-10.38
717.773	-12.38
717.8	10.62
717.826	7.62
717.853	-5.38
717.88	17.62
717.906	14.62
717.933	14.62
717.959	3.62
717.986	15.62
718.012	10.62
718.039	5.62
718.065	-8.38
718.092	9.62
718.118	-14.38
718.144	-5.38
718.171	-1.38
718.197	31.62
718.224	10.62
718.25	-1.38
718.277	-3.38
718.303	3.62
718.33	8.62
718.356	-2.38
718.383	-0.38
718.409	-8.38
718.436	13.62
718.462	-4.38
718.489	-4.38
718.515	15.62
718.541	17.62
718.568	6.62
718.594	5.62
718.621	9.62
718.647	-0.38
718.674	3.62
718.7	9.62
718.726	-0.38
718.753	6.62
718.779	9.62
718.806	2.62
718.832	-8.38
718.858	2.62
718.885	3.62
718.911	2.62
718.938	13.62
718.964	-6.38
718.99	14.62
719.017	6.62
719.043	9.62
719.07	17.62
719.096	-12.38
719.122	16.62
719.149	-12.38
719.175	5.62
719.201	14.62
719.228	6.62
719.254	10.62
719.281	3.62
719.307	-13.38
719.333	-5.38
719.36	16.62
719.386	-4.38
719.412	5.62
719.439	-1.38
719.465	-3.38
719.491	-10.38
719.518	8.62
719.544	-6.38
719.57	-5.38
719.597	-7.38
719.623	-9.38
719.649	8.62
719.675	-2.38
719.702	11.62
719.728	15.62
719.754	-7.38
719.781	-1.38
719.807	5.62
719.833	-1.38
719.86	6.62
719.886	5.62
719.912	3.62
719.938	2.62
719.965	-7.38
719.991	-10.38
720.017	-5.38
720.044	-14.38
720.07	-12.38
720.096	13.62
720.122	-2.38
720.149	10.62
720.175	15.62
720.201	0.62
720.227	0.62
720.254	-7.38
720.28	-4.38
720.306	0.62
720.332	9.62
720.359	-7.38
720.385	8.62
720.411	9.62
720.437	15.62
720.463	10.62
720.49	6.62
720.516	6.62
720.542	-12.38
720.568	0.62
720.595	8.62
720.621	0.62
720.647	8.62
720.673	-1.38
720.699	-4.38
720.725	-1.38
720.752	12.62
720.778	14.62
720.804	9.62
720.83	8.62
720.856	-11.38
720.883	-9.38
720.909	5.62
720.935	8.62
720.961	17.62
720.987	-8.38
721.013	-7.38
721.04	-8.38
721.066	-13.38
721.092	-2.38
721.118	-6.38
721.144	6.62
721.17	-17.38
721.196	9.62
721.223	-14.38
721.249	9.62
721.275	11.62
721.301	9.62
721.327	16.62
721.353	11.62
721.379	7.62
721.405	9.62
721.432	1.62
721.458	-1.38
721.484	14.62
721.51	-4.38
721.536	16.62
721.562	-5.38
721.588	-6.38
721.614	-6.38
721.64	-0.38
721.666	-4.38
721.693	-7.38
721.719	-1.38
721.745	-12.38
721.771	-12.38
721.797	-3.38
721.823	-2.38
721.849	6.62
721.875	18.62
721.901	2.62
721.927	1.62
721.953	-2.38
721.979	24.62
722.005	18.62
722.031	7.62
722.057	-1.38
722.083	2.62
722.109	24.62
722.135	4.62
722.161	0.62
722.187	-2.38
722.214	11.62
722.24	4.62
722.266	-8.38
722.292	6.62
722.318	17.62
722.344	2.62
722.37	12.62
722.396	22.62
722.422	1.62
722.448	8.62
722.474	-0.38
722.5	2.62
722.526	2.62
722.552	-3.38
722.578	1.62
722.603	3.62
722.629	-14.38
722.655	-4.38
722.681	-13.38
722.707	-1.38
722.733	-7.38
722.759	-5.38
722.785	6.62
722.811	-1.38
722.837	0.62
722.863	10.62
722.889	-4.38
722.915	-7.38
722.941	0.62
722.967	9.62
722.993	10.62
723.019	-8.38
723.045	17.62
723.071	1.62
723.097	13.62
723.122	-2.38
723.148	-8.38
723.174	8.62
723.2	2.62
723.226	7.62
723.252	14.62
723.278	7.62
723.304	-0.38
723.33	8.62
723.356	-3.38
723.381	-2.38
723.407	-5.38
723.433	-2.38
723.459	-2.38
723.485	-5.38
723.511	7.62
723.537	2.62
723.563	10.62
723.588	-0.38
723.614	-5.38
723.64	-5.38
723.666	12.62
723.692	17.62
723.718	-2.38
723.744	-4.38
723.769	18.62
723.795	-6.38
723.821	5.62
723.847	5.62
723.873	5.62
723.899	12.62
723.924	4.62
723.95	21.62
723.976	-17.38
724.002	-0.38
724.028	-2.38
724.053	-15.38
724.079	6.62
724.105	0.62
724.131	-2.38
724.157	7.62
724.182	10.62
724.208	4.62
724.234	-10.38
724.26	5.62
724.286	5.62
724.311	-13.38
724.337	-10.38
724.363	3.62
724.389	11.62
724.415	6.62
724.44	9.62
724.466	1.62
724.492	6.62
724.518	13.62
724.543	1.62
724.569	2.62
724.595	19.62
724.621	-4.38
724.646	-9.38
724.672	-4.38
724.698	-9.38
724.723	3.62
724.749	15.62
724.775	18.62
724.801	7.62
724.826	-1.38
724.852	4.62
724.878	10.62
724.904	-2.38
724.929	7.62
724.955	-16.38
724.981	7.62
725.006	1.62
725.032	9.62
725.058	9.62
725.083	2.62
725.109	-4.38
725.135	5.62
725.161	5.62
725.186	17.62
725.212	-12.38
725.238	-7.38
725.263	1.62
725.289	6.62
725.315	-10.38
725.34	2.62
725.366	1.62
725.392	3.62
725.417	-15.38
725.443	4.62
725.468	-0.38
725.494	0.62
725.52	11.62
725.545	5.62
725.571	-10.38
725.597	-6.38
725.622	-0.38
725.648	3.62
725.674	11.62
725.699	14.62
725.725	15.62
725.75	22.62
725.776	-5.38
725.802	-2.38
725.827	0.62
725.853	1.62
725.878	19.62
725.904	-2.38
725.93	-12.38
725.955	-7.38
725.981	6.62
726.006	-0.38
726.032	15.62
726.057	-1.38
726.083	-9.38
726.109	-1.38
726.134	1.62
726.16	-4.38
726.185	-6.38
726.211	-2.38
726.236	-4.38
726.262	2.62
726.288	14.62
726.313	7.62
726.339	7.62
726.364	-10.38
726.39	11.62
726.415	0.62
726.441	-5.38
726.466	-12.38
726.492	6.62
726.517	11.62
726.543	-11.38
726.568	-12.38
726.594	-7.38
726.619	-2.38
726.645	-1.38
726.67	8.62
726.696	4.62
726.721	-4.38
726.747	-14.38
726.772	13.62
726.798	12.62
726.823	13.62
726.849	15.62
726.874	10.62
726.9	20.62
726.925	14.62
726.951	0.62
726.976	18.62
727.002	-6.38
727.027	9.62
727.053	6.62
727.078	-14.38
727.104	-0.38
727.129	-9.38
727.155	-2.38
727.18	14.62
727.205	3.62
727.231	2.62
727.256	8.62
727.282	-5.38
727.307	9.62
727.333	4.62
727.358	-4.38
727.383	-3.38
727.409	-12.38
727.434	9.62
727.46	1.62
727.485	-7.38
727.511	6.62
727.536	-12.38
727.561	-14.38
727.587	5.62
727.612	6.62
727.637	-2.38
727.663	2.62
727.688	24.62
727.714	-7.38
727.739	-2.38
727.764	2.62
727.79	1.62
727.815	5.62
727.841	16.62
727.866	1.62
727.891	-5.38
727.917	-14.38
727.942	-9.38
727.967	-2.38
727.993	-11.38
728.018	-1.38
728.043	-4.38
728.069	5.62
728.094	4.62
728.119	-5.38
728.145	16.62
728.17	10.62
728.195	-0.38
728.221	26.62
728.246	5.62
728.271	-6.38
728.297	12.62
728.322	3.62
728.347	-0.38
728.373	-6.38
728.398	3.62
728.423	-12.38
728.448	-8.38
728.474	-1.38
728.499	3.62
728.524	-6.38
728.55	6.62
728.575	10.62
728.6	8.62
728.625	-3.38
728.651	4.62
728.676	-18.38
728.701	8.62
728.727	17.62
728.752	5.62
728.777	4.62
728.802	15.62
728.828	11.62
728.853	5.62
728.878	-20.38
728.903	6.62
728.929	-10.38
728.954	-5.38
728.979	14.62
729.004	9.62
729.03	4.62
729.055	3.62
729.08	-9.38
729.105	-4.38
729.13	18.62
729.156	18.62
729.181	2.62
729.206	-12.38
729.231	-9.38
729.256	10.62
729.282	9.62
729.307	-6.38
729.332	-3.38
729.357	-5.38
729.382	-9.38
729.408	16.62
729.433	7.62
729.458	-0.38
729.483	9.62
729.508	22.62
729.533	-0.38
729.559	0.62
729.584	-2.38
729.609	-2.38
729.634	8.62
729.659	-2.38
729.684	-5.38
729.71	27.62
729.735	-1.38
729.76	-18.38
729.785	2.62
729.81	14.62
729.835	12.62
729.86	11.62
729.886	15.62
729.911	11.62
729.936	20.62
729.961	29.62
729.986	9.62
730.011	47.62
730.036	215.62
730.061	1007.62
730.086	2754.62
730.112	3409.62
730.137	2832.62
730.162	2150.62
730.187	1671.62
730.212	1276.62
730.237	792.62
730.262	473.62
730.287	247.62
730.312	150.62
730.337	83.62
730.362	50.62
730.387	47.62
730.413	20.62
730.438	11.62
730.463	19.62
730.488	20.62
730.513	22.62
730.538	14.62
730.563	25.62
730.588	17.62
730.613	20.62
730.638	5.62
730.663	-0.38
730.688	33.62
730.713	13.62
730.738	-5.38
730.763	6.62
730.788	-1.38
730.813	10.62
730.838	1.62
730.863	20.62
730.888	-3.38
730.913	6.62
730.938	-5.38
730.963	26.62
730.988	113.62
731.013	423.62
731.038	626.62
731.063	574.62
731.088	469.62
731.113	342.62
731.138	259.62
731.163	193.62
731.188	101.62
731.213	62.62
731.238	35.62
731.263	7.62
731.288	13.62
731.313	18.62
731.338	9.62
731.363	16.62
731.388	-5.38
731.413	2.62
731.438	9.62
731.463	21.62
731.487	2.62
731.512	-2.38
731.537	-1.38
731.562	3.62
731.587	18.62
731.612	-2.38
731.637	-2.38
731.662	1.62
731.687	-2.38
731.712	-10.38
731.737	9.62
731.762	-2.38
731.786	9.62
731.811	26.62
731.836	11.62
731.861	5.62
731.886	3.62
731.911	2.62
731.936	18.62
731.961	0.62
731.986	-1.38
732.01	17.62
732.035	16.62
732.06	6.62
732.085	-5.38
732.11	3.62
732.135	-6.38
732.16	-7.38
732.184	0.62
732.209	1.62
732.234	-5.38
732.259	2.62
732.284	17.62
732.309	-8.38
732.334	-2.38
732.358	-4.38
732.383	-22.38
732.408	-6.38
732.433	12.62
732.458	7.62
732.482	9.62
732.507	16.62
732.532	9.62
732.557	12.62
732.582	10.62
732.607	39.62
732.631	47.62
732.656	75.62
732.681	157.62
732.706	317.62
732.73	446.62
732.755	392.62
732.78	307.62
732.805	233.62
732.83	178.62
732.854	137.62
732.879	74.62
732.904	37.62
732.929	7.62
732.953	9.62
732.978	8.62
733.003	9.62
733.028	1.62
733.052	19.62
733.077	10.62
733.102	12.62
733.127	6.62
733.151	16.62
733.176	5.62
733.201	-1.38
733.226	-7.38
733.25	15.62
733.275	15.62
733.3	2.62
733.324	16.62
733.349	18.62
733.374	10.62
733.399	15.62
733.423	5.62
733.448	13.62
733.473	13.62
733.497	2.62
733.522	-5.38
733.547	0.62
733.571	11.62
733.596	2.62
733.621	11.62
733.646	2.62
733.67	2.62
733.695	3.62
733.72	7.62
733.744	-4.38
733.769	10.62
733.794	12.62
733.818	6.62
733.843	-6.38
733.867	-8.38
733.892	4.62
733.917	1.62
733.941	-6.38
733.966	-15.38
733.991	-6.38
734.015	12.62
734.04	-0.38
734.065	14.62
734.089	21.62
734.114	-6.38
734.138	5.62
734.163	-13.38
734.188	-0.38
734.212	13.62
734.237	6.62
734.261	2.62
734.286	1.62
734.311	-3.38
734.335	-0.38
734.36	5.62
734.384	16.62
734.409	21.62
734.434	-5.38
734.458	14.62
734.483	-0.38
734.507	-7.38
734.532	-9.38
734.556	2.62
734.581	17.62
734.606	-12.38
734.63	9.62
734.655	17.62
734.679	6.62
734.704	16.62
734.728	5.62
734.753	-4.38
734.777	21.62
734.802	14.62
734.826	6.62
734.851	-2.38
734.876	1.62
734.9	6.62
734.925	13.62
734.949	2.62
734.974	-2.38
734.998	1.62
735.023	4.62
735.047	-14.38
735.072	28.62
735.096	1.62
735.121	-4.38
735.145	-0.38
735.17	8.62
735.194	19.62
735.219	6.62
735.243	1.62
735.268	16.62
735.292	14.62
735.317	12.62
735.341	6.62
735.365	-8.38
735.39	1.62
735.414	8.62
735.439	20.62
735.463	7.62
735.488	6.62
735.512	2.62
735.537	-1.38
735.561	2.62
735.586	2.62
735.61	-0.38
735.634	2.62
735.659	6.62
735.683	12.62
735.708	-0.38
735.732	-1.38
735.757	0.62
735.781	7.62
735.805	17.62
735.83	-15.38
735.854	-2.38
735.879	-14.38
735.903	18.62
735.927	11.62
735.952	-3.38
735.976	-11.38
736.001	-4.38
736.025	3.62
736.049	10.62
736.074	-2.38
736.098	3.62
736.123	-0.38
736.147	11.62
736.171	13.62
736.196	20.62
736.22	-13.38
736.244	-13.38
736.269	-5.38
736.293	1.62
736.317	-2.38
736.342	-7.38
736.366	31.62
736.39	14.62
736.415	0.62
736.439	7.62
736.463	22.62
736.488	-5.38
736.512	12.62
736.536	14.62
736.561	26.62
736.585	-7.38
736.609	3.62
736.634	-3.38
736.658	1.62
736.682	-7.38
736.707	-6.38
736.731	-7.38
736.755	-6.38
736.78	11.62
736.804	22.62
736.828	5.62
736.852	-8.38
736.877	9.62
736.901	-0.38
736.925	5.62
736.949	15.62
736.974	6.62
736.998	-2.38
737.022	9.62
737.047	-0.38
737.071	4.62
737.095	14.62
737.119	12.62
737.144	-1.38
737.168	-11.38
737.192	9.62
737.216	-2.38
737.241	3.62
737.265	-4.38
737.289	-10.38
737.313	-2.38
737.337	14.62
737.362	-1.38
737.386	1.62
737.41	-1.38
737.434	-0.38
737.459	5.62
737.483	11.62
737.507	5.62
737.531	8.62
737.555	-0.38
737.58	4.62
737.604	-0.38
737.628	-14.38
737.652	-5.38
737.676	9.62
737.701	4.62
737.725	4.62
737.749	10.62
737.773	5.62
737.797	-15.38
737.821	6.62
737.846	7.62
737.87	37.62
737.894	1.62
737.918	0.62
737.942	6.62
737.966	-10.38
737.99	-2.38
738.015	2.62
738.039	9.62
738.063	5.62
738.087	13.62
738.111	3.62
738.135	30.62
738.159	-3.38
738.184	1.62
738.208	-5.38
738.232	6.62
738.256	21.62
738.28	5.62
738.304	25.62
738.328	4.62
738.352	12.62
738.376	18.62
738.4	14.62
738.425	16.62
738.449	-0.38
738.473	22.62
738.497	11.62
738.521	18.62
738.545	-8.38
738.569	13.62
738.593	19.62
738.617	-0.38
738.641	1.62
738.665	0.62
738.689	3.62
738.713	3.62
738.737	6.62
738.762	3.62
738.786	5.62
738.81	-14.38
738.834	2.62
738.858	-7.38
738.882	2.62
738.906	-16.38
738.93	-12.38
738.954	1.62
738.978	2.62
739.002	-3.38
739.026	12.62
739.05	12.62
739.074	-3.38
739.098	29.62
739.122	18.62
739.146	2.62
739.17	10.62
739.194	1.62
739.218	-5.38
739.242	0.62
739.266	-5.38
739.29	0.62
739.314	11.62
739.338	10.62
739.362	10.62
739.386	-7.38
739.41	-15.38
739.434	-4.38
739.458	6.62
739.482	7.62
739.506	16.62
739.53	-5.38
739.554	-6.38
739.577	3.62
739.601	3.62
739.625	-10.38
739.649	9.62
739.673	-7.38
739.697	3.62
739.721	-5.38
739.745	-2.38
739.769	-4.38
739.793	-8.38
739.817	6.62
739.841	-11.38
739.865	7.62
739.889	-6.38
739.912	11.62
739.936	4.62
739.96	5.62
739.984	11.62
740.008	-10.38
740.032	-1.38
740.056	2.62
740.08	1.62
740.104	-13.38
740.127	7.62
740.151	10.62
740.175	12.62
740.199	15.62
740.223	34.62
740.247	2.62
740.271	4.62
740.295	-8.38
740.318	-2.38
740.342	7.62
740.366	6.62
740.39	17.62
740.414	-8.38
740.438	-15.38
740.461	19.62
740.485	-6.38
740.509	-7.38
740.533	3.62
740.557	-7.38
740.581	2.62
740.604	-27.38
740.628	-5.38
740.652	18.62
740.676	9.62
740.7	14.62
740.723	-5.38
740.747	-23.38
740.771	-11.38
740.795	-2.38
740.819	-1.38
740.842	5.62
740.866	0.62
740.89	-1.38
740.914	-17.38
740.938	-12.38
740.961	13.62
740.985	3.62
741.009	-2.38
741.033	15.62
741.056	-2.38
741.08	1.62
741.104	7.62
741.128	6.62
741.151	25.62
741.175	-2.38
741.199	-1.38
741.223	20.62
741.246	-2.38
741.27	4.62
741.294	11.62
741.318	-2.38
741.341	-13.38
741.365	-3.38
741.389	-0.38
741.413	6.62
741.436	21.62
741.46	-0.38
741.484	14.62
741.507	3.62
741.531	13.62
741.555	18.62
741.579	10.62
741.602	-1.38
741.626	-3.38
741.65	-8.38
741.673	2.62
741.697	-5.38
741.721	2.62
741.744	-2.38
741.768	0.62
741.792	-4.38
741.815	4.62
741.839	20.62
741.863	17.62
741.886	9.62
741.91	24.62
741.934	6.62
741.957	-17.38
741.981	1.62
742.005	1.62
742.028	-5.38
742.052	-3.38
742.075	21.62
742.099	11.62
742.123	-9.38
742.146	7.62
742.17	4.62
742.194	-4.38
742.217	1.62
742.241	-11.38
742.264	-3.38
742.288	19.62
742.312	3.62
742.335	-6.38
742.359	8.62
742.382	11.62
742.406	26.62
742.43	-5.38
742.453	-1.38
742.477	-6.38
742.5	-7.38
742.524	-8.38
742.548	-11.38
742.571	5.62
742.595	18.62
742.618	-4.38
742.642	-5.38
742.665	14.62
742.689	-4.38
742.712	-2.38
742.736	-4.38
742.76	8.62
742.783	-4.38
742.807	18.62
742.83	17.62
742.854	-6.38
742.877	-9.38
742.901	16.62
742.924	-1.38
742.948	1.62
742.971	8.62
742.995	7.62
743.018	-13.38
743.042	-10.38
743.065	-14.38
743.089	-16.38
743.112	-2.38
743.136	5.62
743.159	-14.38
743.183	-15.38
743.206	2.62
743.23	-4.38
743.253	1.62
743.277	14.62
743.3	-23.38
743.324	-1.38
743.347	-16.38
743.371	8.62
743.394	-1.38
743.418	5.62
743.441	8.62
743.465	5.62
743.488	9.62
743.512	-8.38
743.535	-5.38
743.558	10.62
743.582	10.62
743.605	0.62
743.629	-1.38
743.652	7.62
743.676	-12.38
743.699	7.62
743.723	1.62
743.746	13.62
743.769	-6.38
743.793	14.62
743.816	-10.38
743.84	6.62
743.863	6.62
743.886	-2.38
743.91	21.62
743.933	8.62
743.957	-8.38
743.98	-6.38
744.003	7.62
744.027	14.62
744.05	-2.38
744.074	1.62
744.097	-1.38
744.12	0.62
744.144	-9.38
744.167	18.62
744.19	10.62
744.214	-2.38
744.237	3.62
744.26	8.62
744.284	7.62
744.307	-5.38
744.331	-1.38
744.354	-21.38
744.377	0.62
744.401	9.62
744.424	-9.38
744.447	-10.38
744.471	-8.38
