Data from HighRes_mercury_15_13_11_07_2024_HR4C61891__64__15-14-29-586.txt Node

Date: Thu Nov 07 15:14:29 EST 2024
User: crc00042
Spectrometer: HR4C6189
Trigger mode: 4
Integration Time (sec): 1.000000E-1
Scans to average: 1
Electric dark correction enabled: true
Nonlinearity correction enabled: false
Boxcar width: 0
XAxis mode: Wavelengths
Number of Pixels in Spectrum: 3648
>>>>>Begin Spectral Data<<<<<
639.567	-38.23
639.602	-38.23
639.636	-38.23
639.67	-42.23
639.704	2.77
639.738	2.77
639.773	18.77
639.807	-7.23
639.841	-10.23
639.875	13.77
639.909	-10.23
639.943	-17.23
639.978	-14.23
640.012	0.77
640.046	10.77
640.08	7.77
640.114	2.77
640.148	1.77
640.182	2.77
640.217	9.77
640.251	24.77
640.285	11.77
640.319	-0.23
640.353	1.77
640.387	6.77
640.421	10.77
640.455	1.77
640.49	9.77
640.524	22.77
640.558	3.77
640.592	5.77
640.626	12.77
640.66	14.77
640.694	-11.23
640.728	0.77
640.762	-9.23
640.796	10.77
640.83	16.77
640.865	-6.23
640.899	-11.23
640.933	-3.23
640.967	17.77
641.001	-4.23
641.035	7.77
641.069	-1.23
641.103	-8.23
641.137	-8.23
641.171	-8.23
641.205	3.77
641.239	3.77
641.273	10.77
641.307	20.77
641.341	3.77
641.375	-2.23
641.409	-6.23
641.443	-14.23
641.477	-14.23
641.511	4.77
641.545	-0.23
641.579	2.77
641.614	16.77
641.648	16.77
641.682	5.77
641.716	26.77
641.75	18.77
641.784	-0.23
641.818	2.77
641.852	7.77
641.886	2.77
641.919	32.77
641.953	6.77
641.987	-25.23
642.021	3.77
642.055	6.77
642.089	3.77
642.123	2.77
642.157	-22.23
642.191	-9.23
642.225	6.77
642.259	-11.23
642.293	10.77
642.327	18.77
642.361	-9.23
642.395	13.77
642.429	24.77
642.463	4.77
642.497	15.77
642.531	3.77
642.565	-8.23
642.599	10.77
642.633	-3.23
642.666	8.77
642.7	23.77
642.734	18.77
642.768	-1.23
642.802	-6.23
642.836	4.77
642.87	2.77
642.904	5.77
642.938	-0.23
642.972	-0.23
643.005	2.77
643.039	4.77
643.073	-4.23
643.107	5.77
643.141	-0.23
643.175	21.77
643.209	-9.23
643.243	-13.23
643.276	-1.23
643.31	-2.23
643.344	4.77
643.378	2.77
643.412	12.77
643.446	-0.23
643.48	0.77
643.513	5.77
643.547	9.77
643.581	-2.23
643.615	3.77
643.649	5.77
643.683	-1.23
643.716	8.77
643.75	-3.23
643.784	-14.23
643.818	6.77
643.852	-6.23
643.886	1.77
643.919	6.77
643.953	-6.23
643.987	-3.23
644.021	5.77
644.055	4.77
644.088	4.77
644.122	0.77
644.156	-4.23
644.19	3.77
644.224	7.77
644.257	1.77
644.291	11.77
644.325	7.77
644.359	-19.23
644.392	16.77
644.426	19.77
644.46	5.77
644.494	7.77
644.527	-22.23
644.561	10.77
644.595	-2.23
644.629	-6.23
644.662	9.77
644.696	3.77
644.73	2.77
644.764	2.77
644.797	6.77
644.831	10.77
644.865	5.77
644.899	1.77
644.932	25.77
644.966	4.77
645	13.77
645.033	24.77
645.067	-3.23
645.101	3.77
645.135	-0.23
645.168	-8.23
645.202	-2.23
645.236	11.77
645.269	25.77
645.303	1.77
645.337	-22.23
645.37	-6.23
645.404	13.77
645.438	-4.23
645.471	-11.23
645.505	8.77
645.539	-2.23
645.572	-7.23
645.606	-14.23
645.64	10.77
645.673	17.77
645.707	26.77
645.741	8.77
645.774	-2.23
645.808	1.77
645.842	1.77
645.875	-2.23
645.909	-13.23
645.943	-5.23
645.976	17.77
646.01	5.77
646.043	12.77
646.077	7.77
646.111	6.77
646.144	16.77
646.178	14.77
646.212	-4.23
646.245	4.77
646.279	-3.23
646.312	7.77
646.346	4.77
646.38	-6.23
646.413	19.77
646.447	2.77
646.48	10.77
646.514	10.77
646.547	-2.23
646.581	-1.23
646.615	0.77
646.648	6.77
646.682	11.77
646.715	4.77
646.749	1.77
646.782	-1.23
646.816	1.77
646.85	12.77
646.883	-9.23
646.917	0.77
646.95	2.77
646.984	-6.23
647.017	-5.23
647.051	3.77
647.084	10.77
647.118	-1.23
647.151	1.77
647.185	8.77
647.218	-4.23
647.252	6.77
647.285	-19.23
647.319	-5.23
647.353	-11.23
647.386	7.77
647.42	17.77
647.453	8.77
647.487	8.77
647.52	0.77
647.553	4.77
647.587	3.77
647.62	-1.23
647.654	7.77
647.687	24.77
647.721	9.77
647.754	10.77
647.788	8.77
647.821	-14.23
647.855	19.77
647.888	4.77
647.922	17.77
647.955	3.77
647.989	-5.23
648.022	1.77
648.055	14.77
648.089	-12.23
648.122	25.77
648.156	-11.23
648.189	7.77
648.223	2.77
648.256	12.77
648.29	-4.23
648.323	-1.23
648.356	17.77
648.39	0.77
648.423	9.77
648.457	11.77
648.49	26.77
648.523	-5.23
648.557	-4.23
648.59	13.77
648.624	8.77
648.657	14.77
648.69	10.77
648.724	8.77
648.757	8.77
648.791	25.77
648.824	10.77
648.857	22.77
648.891	-2.23
648.924	0.77
648.957	14.77
648.991	1.77
649.024	11.77
649.057	12.77
649.091	-0.23
649.124	18.77
649.158	6.77
649.191	19.77
649.224	20.77
649.258	-1.23
649.291	2.77
649.324	1.77
649.358	17.77
649.391	14.77
649.424	0.77
649.458	1.77
649.491	-2.23
649.524	-24.23
649.557	-16.23
649.591	-14.23
649.624	12.77
649.657	-1.23
649.691	14.77
649.724	14.77
649.757	5.77
649.791	-13.23
649.824	21.77
649.857	19.77
649.89	6.77
649.924	-15.23
649.957	-10.23
649.99	-0.23
650.023	6.77
650.057	6.77
650.09	16.77
650.123	8.77
650.157	20.77
650.19	23.77
650.223	0.77
650.256	-9.23
650.29	-4.23
650.323	5.77
650.356	11.77
650.389	8.77
650.423	-13.23
650.456	4.77
650.489	-10.23
650.522	0.77
650.555	21.77
650.589	10.77
650.622	3.77
650.655	11.77
650.688	6.77
650.721	10.77
650.755	0.77
650.788	15.77
650.821	14.77
650.854	3.77
650.887	3.77
650.921	-4.23
650.954	-4.23
650.987	5.77
651.02	-7.23
651.053	-13.23
651.087	-16.23
651.12	11.77
651.153	14.77
651.186	13.77
651.219	-1.23
651.252	4.77
651.286	14.77
651.319	-9.23
651.352	-3.23
651.385	-5.23
651.418	3.77
651.451	6.77
651.484	0.77
651.518	12.77
651.551	23.77
651.584	-14.23
651.617	14.77
651.65	11.77
651.683	19.77
651.716	-8.23
651.749	-12.23
651.783	1.77
651.816	8.77
651.849	20.77
651.882	22.77
651.915	5.77
651.948	20.77
651.981	-16.23
652.014	-17.23
652.047	-0.23
652.08	3.77
652.114	2.77
652.147	-6.23
652.18	10.77
652.213	28.77
652.246	6.77
652.279	-11.23
652.312	28.77
652.345	15.77
652.378	11.77
652.411	9.77
652.444	-0.23
652.477	6.77
652.51	6.77
652.543	-8.23
652.576	30.77
652.609	-6.23
652.642	22.77
652.675	21.77
652.709	0.77
652.742	3.77
652.775	11.77
652.808	14.77
652.841	8.77
652.874	9.77
652.907	6.77
652.94	13.77
652.973	1.77
653.006	4.77
653.039	15.77
653.072	-6.23
653.105	-14.23
653.138	1.77
653.171	-1.23
653.204	3.77
653.237	13.77
653.27	-3.23
653.303	9.77
653.336	0.77
653.368	6.77
653.401	9.77
653.434	6.77
653.467	16.77
653.5	-18.23
653.533	-9.23
653.566	3.77
653.599	-9.23
653.632	3.77
653.665	-7.23
653.698	-11.23
653.731	2.77
653.764	4.77
653.797	6.77
653.83	10.77
653.863	-3.23
653.896	17.77
653.929	6.77
653.961	9.77
653.994	9.77
654.027	-13.23
654.06	14.77
654.093	4.77
654.126	-5.23
654.159	-4.23
654.192	4.77
654.225	-10.23
654.258	-12.23
654.29	6.77
654.323	4.77
654.356	7.77
654.389	2.77
654.422	9.77
654.455	4.77
654.488	-0.23
654.521	-25.23
654.553	-15.23
654.586	8.77
654.619	0.77
654.652	3.77
654.685	14.77
654.718	21.77
654.751	5.77
654.783	-3.23
654.816	14.77
654.849	-5.23
654.882	-6.23
654.915	-5.23
654.948	11.77
654.98	-4.23
655.013	-10.23
655.046	-7.23
655.079	-9.23
655.112	7.77
655.144	-0.23
655.177	10.77
655.21	20.77
655.243	22.77
655.276	22.77
655.308	1.77
655.341	-4.23
655.374	7.77
655.407	-4.23
655.44	-5.23
655.472	8.77
655.505	15.77
655.538	7.77
655.571	8.77
655.603	9.77
655.636	7.77
655.669	7.77
655.702	0.77
655.734	-9.23
655.767	-16.23
655.8	3.77
655.833	7.77
655.865	11.77
655.898	-1.23
655.931	-1.23
655.964	8.77
655.996	1.77
656.029	-6.23
656.062	8.77
656.095	-4.23
656.127	-11.23
656.16	3.77
656.193	0.77
656.225	11.77
656.258	8.77
656.291	1.77
656.324	5.77
656.356	19.77
656.389	10.77
656.422	18.77
656.454	-1.23
656.487	-2.23
656.52	1.77
656.552	-13.23
656.585	-5.23
656.618	6.77
656.65	10.77
656.683	0.77
656.716	-10.23
656.748	-4.23
656.781	-2.23
656.814	-9.23
656.846	6.77
656.879	5.77
656.912	-5.23
656.944	-16.23
656.977	-20.23
657.01	2.77
657.042	15.77
657.075	12.77
657.108	0.77
657.14	1.77
657.173	7.77
657.205	35.77
657.238	8.77
657.271	11.77
657.303	-4.23
657.336	-12.23
657.369	10.77
657.401	1.77
657.434	5.77
657.466	20.77
657.499	10.77
657.532	6.77
657.564	2.77
657.597	-4.23
657.629	-1.23
657.662	6.77
657.694	6.77
657.727	-22.23
657.76	11.77
657.792	-5.23
657.825	-8.23
657.857	-23.23
657.89	-4.23
657.922	20.77
657.955	-11.23
657.987	3.77
658.02	11.77
658.053	13.77
658.085	1.77
658.118	0.77
658.15	12.77
658.183	20.77
658.215	1.77
658.248	11.77
658.28	-13.23
658.313	16.77
658.345	5.77
658.378	-4.23
658.41	-4.23
658.443	7.77
658.475	-4.23
658.508	-4.23
658.54	-11.23
658.573	-14.23
658.605	-4.23
658.638	-4.23
658.67	0.77
658.703	3.77
658.735	-12.23
658.768	9.77
658.8	-10.23
658.833	11.77
658.865	10.77
658.898	-9.23
658.93	0.77
658.963	8.77
658.995	-1.23
659.028	5.77
659.06	-4.23
659.092	-6.23
659.125	2.77
659.157	6.77
659.19	-17.23
659.222	-18.23
659.255	-3.23
659.287	9.77
659.32	-1.23
659.352	-5.23
659.384	0.77
659.417	-3.23
659.449	3.77
659.482	-3.23
659.514	-10.23
659.546	13.77
659.579	-9.23
659.611	2.77
659.644	-20.23
659.676	-19.23
659.708	-4.23
659.741	-15.23
659.773	7.77
659.806	-13.23
659.838	6.77
659.87	-11.23
659.903	-12.23
659.935	8.77
659.967	2.77
660	-1.23
660.032	-16.23
660.065	15.77
660.097	5.77
660.129	-5.23
660.162	4.77
660.194	10.77
660.226	0.77
660.259	5.77
660.291	-4.23
660.323	-6.23
660.356	3.77
660.388	5.77
660.42	-3.23
660.453	-7.23
660.485	2.77
660.517	8.77
660.55	12.77
660.582	1.77
660.614	10.77
660.647	5.77
660.679	-8.23
660.711	0.77
660.743	-9.23
660.776	-23.23
660.808	-10.23
660.84	-8.23
660.873	-1.23
660.905	2.77
660.937	-5.23
660.969	-3.23
661.002	2.77
661.034	34.77
661.066	8.77
661.099	1.77
661.131	8.77
661.163	12.77
661.195	10.77
661.228	7.77
661.26	-13.23
661.292	-15.23
661.324	3.77
661.357	10.77
661.389	14.77
661.421	24.77
661.453	8.77
661.485	16.77
661.518	-2.23
661.55	-18.23
661.582	-5.23
661.614	3.77
661.647	-0.23
661.679	-2.23
661.711	16.77
661.743	-9.23
661.775	0.77
661.808	15.77
661.84	-11.23
661.872	-3.23
661.904	-6.23
661.936	15.77
661.969	2.77
662.001	-0.23
662.033	-6.23
662.065	-5.23
662.097	-0.23
662.129	14.77
662.162	-7.23
662.194	11.77
662.226	1.77
662.258	2.77
662.29	0.77
662.322	-3.23
662.355	-11.23
662.387	26.77
662.419	7.77
662.451	14.77
662.483	7.77
662.515	-3.23
662.547	-8.23
662.58	-16.23
662.612	-13.23
662.644	-8.23
662.676	-2.23
662.708	17.77
662.74	13.77
662.772	7.77
662.804	6.77
662.836	1.77
662.869	5.77
662.901	2.77
662.933	6.77
662.965	26.77
662.997	5.77
663.029	-13.23
663.061	11.77
663.093	8.77
663.125	17.77
663.157	12.77
663.189	-0.23
663.221	24.77
663.254	2.77
663.286	3.77
663.318	2.77
663.35	-9.23
663.382	-6.23
663.414	-0.23
663.446	0.77
663.478	-11.23
663.51	20.77
663.542	-12.23
663.574	0.77
663.606	1.77
663.638	-4.23
663.67	5.77
663.702	2.77
663.734	4.77
663.766	8.77
663.798	3.77
663.83	-1.23
663.862	7.77
663.894	17.77
663.926	12.77
663.958	-0.23
663.99	10.77
664.022	-6.23
664.054	21.77
664.086	-10.23
664.118	-12.23
664.15	-1.23
664.182	1.77
664.214	1.77
664.246	19.77
664.278	-6.23
664.31	19.77
664.342	6.77
664.374	-10.23
664.406	-10.23
664.438	-9.23
664.47	8.77
664.502	1.77
664.534	-0.23
664.566	-4.23
664.598	0.77
664.63	-7.23
664.662	-1.23
664.693	-4.23
664.725	0.77
664.757	0.77
664.789	1.77
664.821	2.77
664.853	10.77
664.885	10.77
664.917	-6.23
664.949	24.77
664.981	6.77
665.013	-0.23
665.045	-13.23
665.076	3.77
665.108	9.77
665.14	-5.23
665.172	-5.23
665.204	5.77
665.236	6.77
665.268	7.77
665.3	-10.23
665.331	-10.23
665.363	11.77
665.395	-8.23
665.427	-4.23
665.459	-1.23
665.491	-2.23
665.523	1.77
665.555	0.77
665.586	9.77
665.618	2.77
665.65	-1.23
665.682	5.77
665.714	-1.23
665.746	0.77
665.777	11.77
665.809	0.77
665.841	3.77
665.873	-8.23
665.905	2.77
665.937	6.77
665.968	2.77
666	0.77
666.032	-0.23
666.064	-12.23
666.096	-10.23
666.127	10.77
666.159	18.77
666.191	13.77
666.223	23.77
666.255	27.77
666.286	19.77
666.318	0.77
666.35	6.77
666.382	6.77
666.413	2.77
666.445	-15.23
666.477	8.77
666.509	0.77
666.54	3.77
666.572	-11.23
666.604	7.77
666.636	4.77
666.667	17.77
666.699	14.77
666.731	-8.23
666.763	-10.23
666.794	6.77
666.826	14.77
666.858	-9.23
666.89	-5.23
666.921	12.77
666.953	5.77
666.985	28.77
667.017	16.77
667.048	7.77
667.08	-2.23
667.112	-14.23
667.143	-16.23
667.175	5.77
667.207	5.77
667.238	18.77
667.27	5.77
667.302	3.77
667.334	5.77
667.365	19.77
667.397	1.77
667.429	-7.23
667.46	24.77
667.492	6.77
667.524	7.77
667.555	1.77
667.587	7.77
667.619	17.77
667.65	0.77
667.682	3.77
667.714	5.77
667.745	-1.23
667.777	-18.23
667.808	20.77
667.84	8.77
667.872	-4.23
667.903	6.77
667.935	2.77
667.967	0.77
667.998	1.77
668.03	8.77
668.061	1.77
668.093	12.77
668.125	8.77
668.156	-1.23
668.188	-11.23
668.22	-0.23
668.251	10.77
668.283	17.77
668.314	10.77
668.346	-1.23
668.377	11.77
668.409	13.77
668.441	29.77
668.472	21.77
668.504	22.77
668.535	16.77
668.567	11.77
668.599	13.77
668.63	-7.23
668.662	-6.23
668.693	27.77
668.725	-0.23
668.756	11.77
668.788	4.77
668.819	-14.23
668.851	6.77
668.882	-2.23
668.914	0.77
668.946	3.77
668.977	7.77
669.009	13.77
669.04	-5.23
669.072	6.77
669.103	6.77
669.135	4.77
669.166	-1.23
669.198	-10.23
669.229	13.77
669.261	19.77
669.292	8.77
669.324	6.77
669.355	18.77
669.387	-8.23
669.418	5.77
669.45	9.77
669.481	26.77
669.513	4.77
669.544	1.77
669.576	-0.23
669.607	12.77
669.639	6.77
669.67	-9.23
669.701	3.77
669.733	-17.23
669.764	13.77
669.796	2.77
669.827	-3.23
669.859	-13.23
669.89	7.77
669.922	22.77
669.953	13.77
669.985	22.77
670.016	16.77
670.047	-9.23
670.079	3.77
670.11	5.77
670.142	6.77
670.173	-4.23
670.204	12.77
670.236	4.77
670.267	-7.23
670.299	-0.23
670.33	9.77
670.362	10.77
670.393	-10.23
670.424	0.77
670.456	2.77
670.487	3.77
670.518	-5.23
670.55	3.77
670.581	-1.23
670.613	3.77
670.644	-0.23
670.675	-6.23
670.707	2.77
670.738	14.77
670.769	-11.23
670.801	-9.23
670.832	14.77
670.864	6.77
670.895	12.77
670.926	8.77
670.958	-2.23
670.989	3.77
671.02	11.77
671.052	-0.23
671.083	10.77
671.114	5.77
671.146	3.77
671.177	7.77
671.208	2.77
671.24	-9.23
671.271	-2.23
671.302	0.77
671.333	-9.23
671.365	-21.23
671.396	-15.23
671.427	0.77
671.459	8.77
671.49	3.77
671.521	-1.23
671.553	14.77
671.584	8.77
671.615	7.77
671.646	15.77
671.678	-9.23
671.709	-3.23
671.74	-30.23
671.771	-1.23
671.803	-6.23
671.834	0.77
671.865	-5.23
671.896	11.77
671.928	2.77
671.959	-14.23
671.99	-10.23
672.021	-4.23
672.053	-12.23
672.084	19.77
672.115	2.77
672.146	0.77
672.178	-14.23
672.209	3.77
672.24	5.77
672.271	24.77
672.303	7.77
672.334	-3.23
672.365	-8.23
672.396	-15.23
672.427	4.77
672.459	7.77
672.49	21.77
672.521	12.77
672.552	1.77
672.583	-1.23
672.615	9.77
672.646	11.77
672.677	7.77
672.708	8.77
672.739	-5.23
672.77	8.77
672.802	3.77
672.833	5.77
672.864	0.77
672.895	-20.23
672.926	-10.23
672.957	-15.23
672.989	-8.23
673.02	1.77
673.051	-6.23
673.082	14.77
673.113	5.77
673.144	4.77
673.175	-7.23
673.206	-10.23
673.238	-9.23
673.269	0.77
673.3	-3.23
673.331	8.77
673.362	-0.23
673.393	7.77
673.424	12.77
673.455	19.77
673.487	-1.23
673.518	-2.23
673.549	-1.23
673.58	2.77
673.611	3.77
673.642	2.77
673.673	-32.23
673.704	7.77
673.735	-1.23
673.766	-2.23
673.797	1.77
673.828	2.77
673.86	-0.23
673.891	1.77
673.922	-6.23
673.953	-6.23
673.984	7.77
674.015	20.77
674.046	1.77
674.077	4.77
674.108	-5.23
674.139	-5.23
674.17	1.77
674.201	-18.23
674.232	1.77
674.263	-20.23
674.294	10.77
674.325	-8.23
674.356	-4.23
674.387	21.77
674.418	18.77
674.449	3.77
674.48	-9.23
674.511	-1.23
674.542	-9.23
674.573	-15.23
674.604	13.77
674.635	-3.23
674.666	4.77
674.697	-3.23
674.728	3.77
674.759	0.77
674.79	3.77
674.821	-1.23
674.852	-1.23
674.883	-14.23
674.914	6.77
674.945	9.77
674.976	5.77
675.007	3.77
675.038	-7.23
675.069	-16.23
675.1	-5.23
675.131	-0.23
675.162	0.77
675.193	-6.23
675.224	9.77
675.254	10.77
675.285	5.77
675.316	9.77
675.347	0.77
675.378	-7.23
675.409	-13.23
675.44	2.77
675.471	-11.23
675.502	-11.23
675.533	17.77
675.564	-6.23
675.595	-1.23
675.625	15.77
675.656	9.77
675.687	-0.23
675.718	-12.23
675.749	10.77
675.78	15.77
675.811	15.77
675.842	8.77
675.873	3.77
675.903	-1.23
675.934	2.77
675.965	-2.23
675.996	-12.23
676.027	6.77
676.058	-3.23
676.089	-15.23
676.119	-1.23
676.15	8.77
676.181	-12.23
676.212	2.77
676.243	-8.23
676.274	4.77
676.304	11.77
676.335	-24.23
676.366	5.77
676.397	7.77
676.428	4.77
676.459	2.77
676.489	-2.23
676.52	8.77
676.551	-7.23
676.582	1.77
676.613	3.77
676.643	-12.23
676.674	13.77
676.705	3.77
676.736	4.77
676.767	15.77
676.797	20.77
676.828	9.77
676.859	-7.23
676.89	-5.23
676.92	12.77
676.951	13.77
676.982	-5.23
677.013	-4.23
677.044	36.77
677.074	30.77
677.105	-14.23
677.136	-0.23
677.167	-1.23
677.197	6.77
677.228	-5.23
677.259	-10.23
677.289	-25.23
677.32	-8.23
677.351	4.77
677.382	-22.23
677.412	-1.23
677.443	5.77
677.474	6.77
677.505	-4.23
677.535	6.77
677.566	-12.23
677.597	-22.23
677.627	-10.23
677.658	-14.23
677.689	0.77
677.72	5.77
677.75	-10.23
677.781	-15.23
677.812	-8.23
677.842	0.77
677.873	1.77
677.904	-6.23
677.934	-9.23
677.965	-4.23
677.996	-20.23
678.026	1.77
678.057	1.77
678.088	-14.23
678.118	3.77
678.149	0.77
678.18	0.77
678.21	7.77
678.241	-2.23
678.272	-1.23
678.302	1.77
678.333	5.77
678.363	6.77
678.394	6.77
678.425	1.77
678.455	-10.23
678.486	10.77
678.517	-9.23
678.547	-10.23
678.578	15.77
678.608	-7.23
678.639	-2.23
678.67	-1.23
678.7	-14.23
678.731	-2.23
678.761	2.77
678.792	2.77
678.823	9.77
678.853	1.77
678.884	-3.23
678.914	5.77
678.945	-29.23
678.975	-9.23
679.006	-1.23
679.037	2.77
679.067	19.77
679.098	8.77
679.128	-0.23
679.159	-16.23
679.189	6.77
679.22	-16.23
679.25	10.77
679.281	3.77
679.312	-4.23
679.342	11.77
679.373	18.77
679.403	-3.23
679.434	9.77
679.464	-9.23
679.495	-7.23
679.525	-1.23
679.556	7.77
679.586	6.77
679.617	-0.23
679.647	-5.23
679.678	6.77
679.708	3.77
679.739	2.77
679.769	12.77
679.8	3.77
679.83	3.77
679.861	2.77
679.891	-17.23
679.922	-22.23
679.952	-14.23
679.983	2.77
680.013	7.77
680.044	-3.23
680.074	12.77
680.105	5.77
680.135	9.77
680.165	-19.23
680.196	-2.23
680.226	1.77
680.257	13.77
680.287	4.77
680.318	-3.23
680.348	-0.23
680.379	21.77
680.409	5.77
680.439	11.77
680.47	-0.23
680.5	-0.23
680.531	-1.23
680.561	-0.23
680.592	0.77
680.622	-2.23
680.652	4.77
680.683	10.77
680.713	-6.23
680.744	-14.23
680.774	-5.23
680.804	15.77
680.835	11.77
680.865	-3.23
680.896	8.77
680.926	17.77
680.956	1.77
680.987	-5.23
681.017	0.77
681.047	4.77
681.078	-9.23
681.108	-1.23
681.139	2.77
681.169	4.77
681.199	10.77
681.23	7.77
681.26	10.77
681.29	2.77
681.321	-15.23
681.351	8.77
681.381	-12.23
681.412	-1.23
681.442	-3.23
681.472	-2.23
681.503	5.77
681.533	6.77
681.563	-12.23
681.594	-0.23
681.624	2.77
681.654	-7.23
681.685	7.77
681.715	6.77
681.745	3.77
681.775	-10.23
681.806	-12.23
681.836	-0.23
681.866	-8.23
681.897	7.77
681.927	3.77
681.957	-5.23
681.987	4.77
682.018	15.77
682.048	11.77
682.078	1.77
682.109	-2.23
682.139	16.77
682.169	16.77
682.199	0.77
682.23	-9.23
682.26	12.77
682.29	-9.23
682.32	-6.23
682.351	-13.23
682.381	-19.23
682.411	-6.23
682.441	-9.23
682.472	-10.23
682.502	-6.23
682.532	15.77
682.562	13.77
682.592	10.77
682.623	9.77
682.653	15.77
682.683	0.77
682.713	-2.23
682.743	-1.23
682.774	-0.23
682.804	6.77
682.834	16.77
682.864	-2.23
682.894	6.77
682.925	-10.23
682.955	-0.23
682.985	-10.23
683.015	0.77
683.045	16.77
683.076	2.77
683.106	-0.23
683.136	2.77
683.166	-4.23
683.196	-12.23
683.226	-4.23
683.257	0.77
683.287	3.77
683.317	3.77
683.347	-7.23
683.377	2.77
683.407	-0.23
683.437	-1.23
683.468	9.77
683.498	8.77
683.528	1.77
683.558	4.77
683.588	-0.23
683.618	-4.23
683.648	-6.23
683.678	-1.23
683.708	10.77
683.739	13.77
683.769	0.77
683.799	-0.23
683.829	4.77
683.859	13.77
683.889	29.77
683.919	-2.23
683.949	11.77
683.979	-0.23
684.009	-0.23
684.039	6.77
684.07	-4.23
684.1	14.77
684.13	-4.23
684.16	-5.23
684.19	-13.23
684.22	-2.23
684.25	7.77
684.28	5.77
684.31	31.77
684.34	13.77
684.37	3.77
684.4	7.77
684.43	8.77
684.46	7.77
684.49	-4.23
684.52	9.77
684.55	15.77
684.58	-8.23
684.61	-4.23
684.64	10.77
684.67	1.77
684.7	-4.23
684.73	6.77
684.76	3.77
684.79	29.77
684.82	-4.23
684.85	-16.23
684.88	3.77
684.91	1.77
684.94	-7.23
684.97	-7.23
685	-6.23
685.03	-15.23
685.06	-11.23
685.09	-0.23
685.12	14.77
685.15	-1.23
685.18	12.77
685.21	-7.23
685.24	14.77
685.27	12.77
685.3	-2.23
685.33	-0.23
685.36	0.77
685.39	5.77
685.42	-5.23
685.45	-8.23
685.48	-10.23
685.51	-2.23
685.54	9.77
685.569	-0.23
685.599	-5.23
685.629	-7.23
685.659	7.77
685.689	10.77
685.719	-7.23
685.749	1.77
685.779	1.77
685.809	4.77
685.839	3.77
685.869	8.77
685.898	8.77
685.928	7.77
685.958	-7.23
685.988	9.77
686.018	0.77
686.048	-8.23
686.078	14.77
686.108	8.77
686.137	3.77
686.167	21.77
686.197	2.77
686.227	-7.23
686.257	25.77
686.287	4.77
686.317	-0.23
686.346	-13.23
686.376	-7.23
686.406	-13.23
686.436	17.77
686.466	1.77
686.496	11.77
686.525	10.77
686.555	-0.23
686.585	27.77
686.615	46.77
686.645	2.77
686.675	9.77
686.704	2.77
686.734	5.77
686.764	5.77
686.794	6.77
686.824	3.77
686.853	17.77
686.883	14.77
686.913	16.77
686.943	-10.23
686.973	9.77
687.002	-4.23
687.032	12.77
687.062	-16.23
687.092	13.77
687.121	-0.23
687.151	-7.23
687.181	-18.23
687.211	-0.23
687.24	-8.23
687.27	1.77
687.3	-5.23
687.33	13.77
687.359	-9.23
687.389	3.77
687.419	3.77
687.449	9.77
687.478	7.77
687.508	8.77
687.538	4.77
687.568	10.77
687.597	-10.23
687.627	3.77
687.657	8.77
687.686	12.77
687.716	3.77
687.746	-22.23
687.776	-6.23
687.805	8.77
687.835	8.77
687.865	24.77
687.894	1.77
687.924	-2.23
687.954	-5.23
687.983	10.77
688.013	15.77
688.043	26.77
688.072	-1.23
688.102	10.77
688.132	6.77
688.161	7.77
688.191	-16.23
688.221	13.77
688.25	-2.23
688.28	-0.23
688.31	-0.23
688.339	11.77
688.369	-3.23
688.399	-4.23
688.428	-0.23
688.458	4.77
688.488	7.77
688.517	12.77
688.547	2.77
688.576	40.77
688.606	21.77
688.636	-3.23
688.665	10.77
688.695	5.77
688.725	7.77
688.754	14.77
688.784	12.77
688.813	-16.23
688.843	-8.23
688.873	-6.23
688.902	-10.23
688.932	-3.23
688.961	-0.23
688.991	7.77
689.02	15.77
689.05	-4.23
689.08	16.77
689.109	25.77
689.139	18.77
689.168	-8.23
689.198	-7.23
689.227	-5.23
689.257	2.77
689.287	13.77
689.316	-0.23
689.346	-12.23
689.375	-10.23
689.405	13.77
689.434	0.77
689.464	5.77
689.493	-2.23
689.523	-3.23
689.552	-1.23
689.582	-0.23
689.611	-4.23
689.641	5.77
689.67	-7.23
689.7	12.77
689.73	13.77
689.759	1.77
689.789	17.77
689.818	-0.23
689.848	-8.23
689.877	21.77
689.906	-4.23
689.936	-5.23
689.965	8.77
689.995	9.77
690.024	3.77
690.054	-2.23
690.083	9.77
690.113	0.77
690.142	4.77
690.172	22.77
690.201	13.77
690.231	1.77
690.26	27.77
690.29	10.77
690.319	18.77
690.348	3.77
690.378	1.77
690.407	14.77
690.437	1.77
690.466	-0.23
690.496	-6.23
690.525	17.77
690.555	7.77
690.584	18.77
690.613	4.77
690.643	18.77
690.672	9.77
690.702	9.77
690.731	17.77
690.76	14.77
690.79	52.77
690.819	39.77
690.849	33.77
690.878	25.77
690.907	27.77
690.937	24.77
690.966	14.77
690.996	6.77
691.025	6.77
691.054	3.77
691.084	-8.23
691.113	1.77
691.142	20.77
691.172	10.77
691.201	19.77
691.23	13.77
691.26	29.77
691.289	2.77
691.319	4.77
691.348	12.77
691.377	19.77
691.407	-5.23
691.436	15.77
691.465	17.77
691.495	-5.23
691.524	-4.23
691.553	3.77
691.583	1.77
691.612	14.77
691.641	21.77
691.67	26.77
691.7	10.77
691.729	-9.23
691.758	-4.23
691.788	5.77
691.817	-9.23
691.846	-5.23
691.876	1.77
691.905	7.77
691.934	6.77
691.963	31.77
691.993	16.77
692.022	-2.23
692.051	-5.23
692.081	1.77
692.11	10.77
692.139	-0.23
692.168	13.77
692.198	6.77
692.227	-2.23
692.256	5.77
692.285	1.77
692.315	-6.23
692.344	3.77
692.373	19.77
692.402	-14.23
692.432	-3.23
692.461	4.77
692.49	-0.23
692.519	-5.23
692.548	17.77
692.578	9.77
692.607	-0.23
692.636	-0.23
692.665	2.77
692.694	4.77
692.724	2.77
692.753	-9.23
692.782	8.77
692.811	3.77
692.84	-4.23
692.87	-6.23
692.899	1.77
692.928	14.77
692.957	6.77
692.986	5.77
693.016	5.77
693.045	27.77
693.074	14.77
693.103	4.77
693.132	11.77
693.161	16.77
693.191	0.77
693.22	-4.23
693.249	-0.23
693.278	18.77
693.307	16.77
693.336	-6.23
693.365	-21.23
693.395	1.77
693.424	15.77
693.453	16.77
693.482	-8.23
693.511	-1.23
693.54	-5.23
693.569	-2.23
693.598	-1.23
693.628	17.77
693.657	6.77
693.686	27.77
693.715	2.77
693.744	8.77
693.773	17.77
693.802	11.77
693.831	3.77
693.86	24.77
693.889	2.77
693.919	12.77
693.948	1.77
693.977	6.77
694.006	-5.23
694.035	6.77
694.064	-8.23
694.093	2.77
694.122	-3.23
694.151	6.77
694.18	1.77
694.209	31.77
694.238	9.77
694.267	22.77
694.296	13.77
694.325	4.77
694.354	25.77
694.383	1.77
694.412	-1.23
694.441	1.77
694.471	8.77
694.5	-12.23
694.529	0.77
694.558	25.77
694.587	23.77
694.616	-0.23
694.645	8.77
694.674	14.77
694.703	15.77
694.732	17.77
694.761	16.77
694.79	16.77
694.819	-1.23
694.848	13.77
694.877	18.77
694.906	19.77
694.935	1.77
694.963	26.77
694.992	2.77
695.021	-1.23
695.05	12.77
695.079	7.77
695.108	-1.23
695.137	23.77
695.166	25.77
695.195	8.77
695.224	8.77
695.253	15.77
695.282	-4.23
695.311	5.77
695.34	-0.23
695.369	3.77
695.398	3.77
695.427	15.77
695.456	15.77
695.485	8.77
695.513	6.77
695.542	1.77
695.571	30.77
695.6	23.77
695.629	-5.23
695.658	21.77
695.687	13.77
695.716	13.77
695.745	29.77
695.774	-9.23
695.802	-13.23
695.831	2.77
695.86	13.77
695.889	17.77
695.918	7.77
695.947	8.77
695.976	1.77
696.005	5.77
696.033	-1.23
696.062	5.77
696.091	6.77
696.12	-6.23
696.149	-2.23
696.178	0.77
696.207	0.77
696.235	1.77
696.264	11.77
696.293	0.77
696.322	12.77
696.351	7.77
696.38	15.77
696.408	0.77
696.437	0.77
696.466	6.77
696.495	29.77
696.524	10.77
696.553	5.77
696.581	1.77
696.61	1.77
696.639	4.77
696.668	5.77
696.697	-4.23
696.725	4.77
696.754	3.77
696.783	9.77
696.812	19.77
696.84	4.77
696.869	-0.23
696.898	-0.23
696.927	2.77
696.956	17.77
696.984	-9.23
697.013	14.77
697.042	9.77
697.071	5.77
697.099	18.77
697.128	8.77
697.157	8.77
697.186	13.77
697.214	-7.23
697.243	-8.23
697.272	-13.23
697.301	-3.23
697.329	14.77
697.358	3.77
697.387	20.77
697.415	14.77
697.444	-6.23
697.473	-15.23
697.502	-5.23
697.53	11.77
697.559	1.77
697.588	-4.23
697.616	1.77
697.645	11.77
697.674	17.77
697.703	10.77
697.731	6.77
697.76	10.77
697.789	20.77
697.817	8.77
697.846	14.77
697.875	6.77
697.903	25.77
697.932	8.77
697.961	9.77
697.989	4.77
698.018	13.77
698.047	6.77
698.075	27.77
698.104	18.77
698.133	0.77
698.161	0.77
698.19	-12.23
698.218	-18.23
698.247	0.77
698.276	3.77
698.304	-1.23
698.333	-0.23
698.362	16.77
698.39	-1.23
698.419	17.77
698.447	12.77
698.476	8.77
698.505	18.77
698.533	11.77
698.562	5.77
698.591	-11.23
698.619	-10.23
698.648	6.77
698.676	15.77
698.705	-1.23
698.733	-5.23
698.762	-2.23
698.791	6.77
698.819	8.77
698.848	1.77
698.876	7.77
698.905	-5.23
698.933	-2.23
698.962	9.77
698.991	8.77
699.019	21.77
699.048	7.77
699.076	6.77
699.105	-13.23
699.133	3.77
699.162	10.77
699.19	38.77
699.219	25.77
699.248	13.77
699.276	7.77
699.305	-4.23
699.333	-2.23
699.362	9.77
699.39	17.77
699.419	-8.23
699.447	19.77
699.476	19.77
699.504	8.77
699.533	9.77
699.561	4.77
699.59	0.77
699.618	0.77
699.647	16.77
699.675	5.77
699.704	10.77
699.732	19.77
699.761	16.77
699.789	12.77
699.818	18.77
699.846	4.77
699.874	3.77
699.903	3.77
699.931	6.77
699.96	13.77
699.988	-1.23
700.017	-0.23
700.045	3.77
700.074	3.77
700.102	13.77
700.13	4.77
700.159	7.77
700.187	-2.23
700.216	-7.23
700.244	-8.23
700.273	-4.23
700.301	1.77
700.329	3.77
700.358	12.77
700.386	-1.23
700.415	-2.23
700.443	-0.23
700.472	16.77
700.5	3.77
700.528	24.77
700.557	0.77
700.585	2.77
700.614	6.77
700.642	20.77
700.67	12.77
700.699	11.77
700.727	6.77
700.755	2.77
700.784	2.77
700.812	1.77
700.841	3.77
700.869	-1.23
700.897	-10.23
700.926	6.77
700.954	3.77
700.982	2.77
701.011	-0.23
701.039	16.77
701.067	3.77
701.096	-9.23
701.124	-4.23
701.152	-4.23
701.181	7.77
701.209	-5.23
701.237	2.77
701.266	-12.23
701.294	-10.23
701.322	5.77
701.351	25.77
701.379	2.77
701.407	5.77
701.435	-3.23
701.464	-0.23
701.492	26.77
701.52	0.77
701.549	0.77
701.577	2.77
701.605	4.77
701.634	4.77
701.662	19.77
701.69	-2.23
701.718	-6.23
701.747	14.77
701.775	0.77
701.803	-6.23
701.831	21.77
701.86	9.77
701.888	17.77
701.916	9.77
701.944	1.77
701.973	-7.23
702.001	-5.23
702.029	3.77
702.057	-4.23
702.086	-4.23
702.114	-2.23
702.142	4.77
702.17	-0.23
702.199	9.77
702.227	29.77
702.255	-4.23
702.283	-3.23
702.311	11.77
702.34	1.77
702.368	-5.23
702.396	-1.23
702.424	8.77
702.452	14.77
702.481	8.77
702.509	7.77
702.537	14.77
702.565	-6.23
702.593	-5.23
702.621	-1.23
702.65	3.77
702.678	0.77
702.706	9.77
702.734	6.77
702.762	2.77
702.79	-7.23
702.819	3.77
702.847	1.77
702.875	3.77
702.903	-0.23
702.931	-4.23
702.959	-6.23
702.988	12.77
703.016	-8.23
703.044	-5.23
703.072	13.77
703.1	-1.23
703.128	-3.23
703.156	22.77
703.184	4.77
703.212	30.77
703.241	7.77
703.269	4.77
703.297	-2.23
703.325	3.77
703.353	-7.23
703.381	-5.23
703.409	16.77
703.437	-1.23
703.465	15.77
703.493	-1.23
703.522	7.77
703.55	0.77
703.578	6.77
703.606	-4.23
703.634	8.77
703.662	5.77
703.69	0.77
703.718	5.77
703.746	18.77
703.774	2.77
703.802	11.77
703.83	-0.23
703.858	3.77
703.886	6.77
703.914	10.77
703.942	18.77
703.97	-11.23
703.998	-9.23
704.027	23.77
704.055	14.77
704.083	-9.23
704.111	-6.23
704.139	-4.23
704.167	-7.23
704.195	3.77
704.223	8.77
704.251	5.77
704.279	19.77
704.307	12.77
704.335	-9.23
704.363	8.77
704.391	-0.23
704.419	13.77
704.447	10.77
704.475	-9.23
704.503	-1.23
704.531	24.77
704.558	7.77
704.586	4.77
704.614	-1.23
704.642	-4.23
704.67	-14.23
704.698	-5.23
704.726	-0.23
704.754	0.77
704.782	12.77
704.81	0.77
704.838	12.77
704.866	-1.23
704.894	-10.23
704.922	1.77
704.95	2.77
704.978	8.77
705.006	8.77
705.034	26.77
705.061	-1.23
705.089	6.77
705.117	-2.23
705.145	-11.23
705.173	9.77
705.201	1.77
705.229	14.77
705.257	6.77
705.285	7.77
705.313	22.77
705.34	9.77
705.368	-5.23
705.396	-7.23
705.424	2.77
705.452	-2.23
705.48	15.77
705.508	-0.23
705.536	13.77
705.563	-7.23
705.591	2.77
705.619	14.77
705.647	-11.23
705.675	-4.23
705.703	8.77
705.731	8.77
705.758	30.77
705.786	14.77
705.814	27.77
705.842	13.77
705.87	9.77
705.898	9.77
705.925	1.77
705.953	13.77
705.981	-9.23
706.009	4.77
706.037	-6.23
706.065	16.77
706.092	-17.23
706.12	8.77
706.148	-16.23
706.176	-1.23
706.204	30.77
706.231	1.77
706.259	-14.23
706.287	-7.23
706.315	9.77
706.342	-2.23
706.37	16.77
706.398	-12.23
706.426	-5.23
706.454	5.77
706.481	-0.23
706.509	-14.23
706.537	-12.23
706.565	-10.23
706.592	15.77
706.62	-2.23
706.648	9.77
706.676	-24.23
706.703	-13.23
706.731	-3.23
706.759	-16.23
706.787	8.77
706.814	2.77
706.842	1.77
706.87	-10.23
706.897	1.77
706.925	-9.23
706.953	14.77
706.981	22.77
707.008	4.77
707.036	2.77
707.064	-7.23
707.091	-15.23
707.119	5.77
707.147	2.77
707.174	8.77
707.202	22.77
707.23	-8.23
707.258	-0.23
707.285	-11.23
707.313	-4.23
707.341	-0.23
707.368	1.77
707.396	7.77
707.424	15.77
707.451	0.77
707.479	9.77
707.507	3.77
707.534	-2.23
707.562	4.77
707.59	5.77
707.617	-14.23
707.645	14.77
707.672	6.77
707.7	3.77
707.728	-1.23
707.755	5.77
707.783	2.77
707.811	15.77
707.838	-4.23
707.866	-4.23
707.893	-6.23
707.921	-9.23
707.949	-7.23
707.976	3.77
708.004	-0.23
708.031	1.77
708.059	-4.23
708.087	10.77
708.114	8.77
708.142	1.77
708.169	-10.23
708.197	-18.23
708.225	1.77
708.252	28.77
708.28	36.77
708.307	4.77
708.335	-0.23
708.362	1.77
708.39	-1.23
708.418	6.77
708.445	-13.23
708.473	0.77
708.5	0.77
708.528	29.77
708.555	21.77
708.583	13.77
708.61	1.77
708.638	6.77
708.665	-12.23
708.693	-5.23
708.72	-7.23
708.748	-6.23
708.776	-13.23
708.803	8.77
708.831	11.77
708.858	6.77
708.886	-8.23
708.913	-0.23
708.941	0.77
708.968	16.77
708.996	6.77
709.023	31.77
709.051	9.77
709.078	-7.23
709.105	2.77
709.133	-2.23
709.16	-6.23
709.188	17.77
709.215	-3.23
709.243	3.77
709.27	-12.23
709.298	3.77
709.325	4.77
709.353	10.77
709.38	-4.23
709.408	6.77
709.435	12.77
709.462	11.77
709.49	0.77
709.517	-1.23
709.545	2.77
709.572	0.77
709.6	9.77
709.627	0.77
709.655	-5.23
709.682	-5.23
709.709	-4.23
709.737	-11.23
709.764	3.77
709.792	12.77
709.819	8.77
709.846	4.77
709.874	6.77
709.901	6.77
709.929	10.77
709.956	12.77
709.983	-2.23
710.011	8.77
710.038	-2.23
710.066	-5.23
710.093	22.77
710.12	2.77
710.148	-2.23
710.175	-1.23
710.202	-1.23
710.23	2.77
710.257	8.77
710.284	10.77
710.312	-9.23
710.339	-3.23
710.366	-0.23
710.394	-14.23
710.421	2.77
710.448	2.77
710.476	-20.23
710.503	-0.23
710.53	15.77
710.558	15.77
710.585	11.77
710.612	-0.23
710.64	-2.23
710.667	3.77
710.694	-4.23
710.722	2.77
710.749	-0.23
710.776	-1.23
710.804	5.77
710.831	3.77
710.858	-0.23
710.885	7.77
710.913	-10.23
710.94	27.77
710.967	11.77
710.995	-10.23
711.022	-5.23
711.049	-1.23
711.076	-4.23
711.104	-1.23
711.131	-13.23
711.158	-2.23
711.185	-8.23
711.213	-10.23
711.24	-4.23
711.267	-8.23
711.294	-7.23
711.322	14.77
711.349	-3.23
711.376	-4.23
711.403	-5.23
711.431	-1.23
711.458	7.77
711.485	-2.23
711.512	9.77
711.54	0.77
711.567	-2.23
711.594	-6.23
711.621	-2.23
711.648	-3.23
711.676	13.77
711.703	16.77
711.73	-2.23
711.757	-1.23
711.784	-0.23
711.812	-0.23
711.839	-7.23
711.866	-17.23
711.893	-6.23
711.92	4.77
711.947	16.77
711.975	6.77
712.002	4.77
712.029	4.77
712.056	4.77
712.083	19.77
712.11	-23.23
712.138	10.77
712.165	8.77
712.192	11.77
712.219	-8.23
712.246	-4.23
712.273	-1.23
712.3	-13.23
712.328	4.77
712.355	5.77
712.382	-0.23
712.409	12.77
712.436	-8.23
712.463	7.77
712.49	26.77
712.517	-3.23
712.544	-3.23
712.572	-8.23
712.599	-11.23
712.626	13.77
712.653	-1.23
712.68	-4.23
712.707	2.77
712.734	6.77
712.761	-13.23
712.788	-6.23
712.815	0.77
712.842	20.77
712.87	-4.23
712.897	-6.23
712.924	-8.23
712.951	-1.23
712.978	3.77
713.005	1.77
713.032	19.77
713.059	-1.23
713.086	-5.23
713.113	-11.23
713.14	-12.23
713.167	3.77
713.194	15.77
713.221	-0.23
713.248	-5.23
713.275	-6.23
713.302	-15.23
713.329	-8.23
713.356	-8.23
713.383	5.77
713.41	15.77
713.437	-9.23
713.464	0.77
713.491	4.77
713.518	-3.23
713.545	-2.23
713.572	6.77
713.599	27.77
713.626	1.77
713.653	9.77
713.68	-2.23
713.707	4.77
713.734	-5.23
713.761	0.77
713.788	-14.23
713.815	2.77
713.842	10.77
713.869	-12.23
713.896	-2.23
713.923	16.77
713.95	0.77
713.977	-2.23
714.004	7.77
714.031	3.77
714.058	-4.23
714.085	-3.23
714.112	12.77
714.139	3.77
714.165	1.77
714.192	-21.23
714.219	5.77
714.246	21.77
714.273	2.77
714.3	-1.23
714.327	16.77
714.354	23.77
714.381	-13.23
714.408	8.77
714.435	-0.23
714.461	2.77
714.488	2.77
714.515	-17.23
714.542	1.77
714.569	-13.23
714.596	-12.23
714.623	-0.23
714.65	-14.23
714.677	-6.23
714.703	-2.23
714.73	-6.23
714.757	8.77
714.784	7.77
714.811	-6.23
714.838	13.77
714.865	-8.23
714.891	2.77
714.918	7.77
714.945	-22.23
714.972	4.77
714.999	9.77
715.026	-9.23
715.052	14.77
715.079	-2.23
715.106	8.77
715.133	-5.23
715.16	-17.23
715.187	13.77
715.213	10.77
715.24	-15.23
715.267	-9.23
715.294	-6.23
715.321	8.77
715.347	6.77
715.374	-10.23
715.401	5.77
715.428	-15.23
715.455	3.77
715.481	-11.23
715.508	3.77
715.535	16.77
715.562	13.77
715.588	4.77
715.615	2.77
715.642	18.77
715.669	10.77
715.695	-9.23
715.722	-8.23
715.749	11.77
715.776	16.77
715.802	-0.23
715.829	7.77
715.856	-13.23
715.883	-3.23
715.909	-9.23
715.936	-18.23
715.963	-1.23
715.99	-4.23
716.016	1.77
716.043	7.77
716.07	4.77
716.096	-11.23
716.123	-1.23
716.15	18.77
716.177	17.77
716.203	14.77
716.23	-0.23
716.257	-1.23
716.283	15.77
716.31	4.77
716.337	5.77
716.363	-9.23
716.39	-3.23
716.417	9.77
716.443	-4.23
716.47	10.77
716.497	16.77
716.523	22.77
716.55	-3.23
716.577	5.77
716.603	0.77
716.63	2.77
716.657	7.77
716.683	-7.23
716.71	-8.23
716.737	3.77
716.763	5.77
716.79	14.77
716.817	9.77
716.843	-2.23
716.87	-3.23
716.897	-12.23
716.923	21.77
716.95	-5.23
716.976	-15.23
717.003	-5.23
717.03	-4.23
717.056	1.77
717.083	-0.23
717.109	-2.23
717.136	9.77
717.163	-0.23
717.189	-0.23
717.216	-1.23
717.242	-5.23
717.269	12.77
717.296	7.77
717.322	1.77
717.349	9.77
717.375	12.77
717.402	6.77
717.428	9.77
717.455	-2.23
717.481	-5.23
717.508	17.77
717.535	17.77
717.561	4.77
717.588	1.77
717.614	-8.23
717.641	0.77
717.667	1.77
717.694	5.77
717.72	-1.23
717.747	-6.23
717.773	-11.23
717.8	1.77
717.826	0.77
717.853	4.77
717.88	19.77
717.906	2.77
717.933	9.77
717.959	8.77
717.986	5.77
718.012	-1.23
718.039	12.77
718.065	10.77
718.092	5.77
718.118	-11.23
718.144	-13.23
718.171	2.77
718.197	12.77
718.224	2.77
718.25	1.77
718.277	-2.23
718.303	3.77
718.33	7.77
718.356	-9.23
718.383	-26.23
718.409	-2.23
718.436	-13.23
718.462	-9.23
718.489	-5.23
718.515	9.77
718.541	17.77
718.568	1.77
718.594	2.77
718.621	4.77
718.647	7.77
718.674	8.77
718.7	19.77
718.726	-22.23
718.753	4.77
718.779	15.77
718.806	9.77
718.832	10.77
718.858	-5.23
718.885	-22.23
718.911	-0.23
718.938	12.77
718.964	-8.23
718.99	6.77
719.017	-14.23
719.043	-1.23
719.07	30.77
719.096	-2.23
719.122	12.77
719.149	11.77
719.175	-3.23
719.201	-5.23
719.228	-7.23
719.254	-8.23
719.281	-7.23
719.307	-4.23
719.333	-6.23
719.36	5.77
719.386	20.77
719.412	8.77
719.439	-12.23
719.465	-2.23
719.491	4.77
719.518	11.77
719.544	12.77
719.57	23.77
719.597	14.77
719.623	-2.23
719.649	-1.23
719.675	5.77
719.702	1.77
719.728	14.77
719.754	-9.23
719.781	-14.23
719.807	-4.23
719.833	13.77
719.86	7.77
719.886	4.77
719.912	6.77
719.938	-8.23
719.965	-4.23
719.991	15.77
720.017	2.77
720.044	-3.23
720.07	7.77
720.096	2.77
720.122	-6.23
720.149	2.77
720.175	16.77
720.201	9.77
720.227	-3.23
720.254	9.77
720.28	0.77
720.306	-3.23
720.332	2.77
720.359	-9.23
720.385	2.77
720.411	3.77
720.437	-2.23
720.463	3.77
720.49	26.77
720.516	4.77
720.542	-13.23
720.568	2.77
720.595	3.77
720.621	10.77
720.647	9.77
720.673	5.77
720.699	3.77
720.725	4.77
720.752	17.77
720.778	7.77
720.804	3.77
720.83	10.77
720.856	-5.23
720.883	-8.23
720.909	-0.23
720.935	10.77
720.961	6.77
720.987	0.77
721.013	1.77
721.04	-2.23
721.066	0.77
721.092	-2.23
721.118	-4.23
721.144	-0.23
721.17	-1.23
721.196	-3.23
721.223	2.77
721.249	-5.23
721.275	2.77
721.301	-0.23
721.327	8.77
721.353	3.77
721.379	-5.23
721.405	14.77
721.432	7.77
721.458	-7.23
721.484	-2.23
721.51	-5.23
721.536	9.77
721.562	11.77
721.588	18.77
721.614	-8.23
721.64	-7.23
721.666	0.77
721.693	-10.23
721.719	-15.23
721.745	-6.23
721.771	-9.23
721.797	3.77
721.823	6.77
721.849	13.77
721.875	4.77
721.901	9.77
721.927	14.77
721.953	13.77
721.979	5.77
722.005	22.77
722.031	-11.23
722.057	14.77
722.083	10.77
722.109	9.77
722.135	25.77
722.161	7.77
722.187	-2.23
722.214	-2.23
722.24	6.77
722.266	-17.23
722.292	4.77
722.318	18.77
722.344	14.77
722.37	5.77
722.396	0.77
722.422	-2.23
722.448	1.77
722.474	-0.23
722.5	5.77
722.526	7.77
722.552	-4.23
722.578	1.77
722.603	-6.23
722.629	-8.23
722.655	13.77
722.681	0.77
722.707	-8.23
722.733	-7.23
722.759	-14.23
722.785	-6.23
722.811	-0.23
722.837	9.77
722.863	4.77
722.889	1.77
722.915	9.77
722.941	1.77
722.967	-2.23
722.993	16.77
723.019	14.77
723.045	-6.23
723.071	-6.23
723.097	6.77
723.122	-6.23
723.148	-18.23
723.174	-26.23
723.2	7.77
723.226	-1.23
723.252	9.77
723.278	10.77
723.304	3.77
723.33	14.77
723.356	-6.23
723.381	-22.23
723.407	-13.23
723.433	18.77
723.459	-9.23
723.485	-6.23
723.511	12.77
723.537	1.77
723.563	2.77
723.588	15.77
723.614	12.77
723.64	-14.23
723.666	-4.23
723.692	6.77
723.718	10.77
723.744	4.77
723.769	4.77
723.795	3.77
723.821	2.77
723.847	-1.23
723.873	-1.23
723.899	8.77
723.924	2.77
723.95	9.77
723.976	-8.23
724.002	9.77
724.028	3.77
724.053	-6.23
724.079	8.77
724.105	11.77
724.131	11.77
724.157	-0.23
724.182	6.77
724.208	2.77
724.234	-0.23
724.26	-14.23
724.286	-1.23
724.311	-4.23
724.337	-6.23
724.363	-3.23
724.389	10.77
724.415	-12.23
724.44	21.77
724.466	-1.23
724.492	-10.23
724.518	6.77
724.543	4.77
724.569	0.77
724.595	-11.23
724.621	-8.23
724.646	-4.23
724.672	0.77
724.698	-4.23
724.723	-13.23
724.749	0.77
724.775	3.77
724.801	15.77
724.826	7.77
724.852	-1.23
724.878	-8.23
724.904	-5.23
724.929	2.77
724.955	-14.23
724.981	2.77
725.006	16.77
725.032	17.77
725.058	5.77
725.083	-8.23
725.109	-2.23
725.135	13.77
725.161	6.77
725.186	-8.23
725.212	4.77
725.238	3.77
725.263	-0.23
725.289	-9.23
725.315	-9.23
725.34	-3.23
725.366	9.77
725.392	-4.23
725.417	-8.23
725.443	-1.23
725.468	-6.23
725.494	9.77
725.52	4.77
725.545	-13.23
725.571	-2.23
725.597	-12.23
725.622	-1.23
725.648	6.77
725.674	18.77
725.699	0.77
725.725	6.77
725.75	45.77
725.776	-9.23
725.802	-8.23
725.827	4.77
725.853	2.77
725.878	11.77
725.904	-2.23
725.93	0.77
725.955	-18.23
725.981	0.77
726.006	1.77
726.032	18.77
726.057	5.77
726.083	3.77
726.109	16.77
726.134	7.77
726.16	7.77
726.185	-0.23
726.211	-10.23
726.236	10.77
726.262	18.77
726.288	18.77
726.313	13.77
726.339	11.77
726.364	0.77
726.39	3.77
726.415	12.77
726.441	-10.23
726.466	5.77
726.492	-1.23
726.517	6.77
726.543	-2.23
726.568	-17.23
726.594	-14.23
726.619	2.77
726.645	1.77
726.67	8.77
726.696	15.77
726.721	0.77
726.747	-6.23
726.772	0.77
726.798	-0.23
726.823	23.77
726.849	7.77
726.874	-2.23
726.9	15.77
726.925	17.77
726.951	-1.23
726.976	0.77
727.002	-14.23
727.027	1.77
727.053	9.77
727.078	-10.23
727.104	1.77
727.129	-13.23
727.155	-9.23
727.18	17.77
727.205	3.77
727.231	2.77
727.256	1.77
727.282	21.77
727.307	11.77
727.333	1.77
727.358	-3.23
727.383	11.77
727.409	-4.23
727.434	19.77
727.46	9.77
727.485	1.77
727.511	10.77
727.536	-2.23
727.561	6.77
727.587	0.77
727.612	9.77
727.637	10.77
727.663	4.77
727.688	18.77
727.714	12.77
727.739	-1.23
727.764	6.77
727.79	7.77
727.815	5.77
727.841	5.77
727.866	6.77
727.891	2.77
727.917	-14.23
727.942	0.77
727.967	-8.23
727.993	-27.23
728.018	-2.23
728.043	17.77
728.069	5.77
728.094	7.77
728.119	5.77
728.145	5.77
728.17	5.77
728.195	2.77
728.221	4.77
728.246	15.77
728.271	-7.23
728.297	7.77
728.322	-3.23
728.347	2.77
728.373	5.77
728.398	10.77
728.423	5.77
728.448	4.77
728.474	-1.23
728.499	12.77
728.524	-1.23
728.55	3.77
728.575	13.77
728.6	3.77
728.625	-0.23
728.651	3.77
728.676	11.77
728.701	9.77
728.727	1.77
728.752	-9.23
728.777	-10.23
728.802	11.77
728.828	13.77
728.853	12.77
728.878	-2.23
728.903	-8.23
728.929	-4.23
728.954	-1.23
728.979	7.77
729.004	0.77
729.03	-3.23
729.055	20.77
729.08	-1.23
729.105	-9.23
729.13	23.77
729.156	22.77
729.181	-1.23
729.206	-5.23
729.231	-1.23
729.256	13.77
729.282	8.77
729.307	-4.23
729.332	6.77
729.357	4.77
729.382	-7.23
729.408	11.77
729.433	1.77
729.458	-5.23
729.483	4.77
729.508	6.77
729.533	0.77
729.559	6.77
729.584	-4.23
729.609	14.77
729.634	11.77
729.659	7.77
729.684	-13.23
729.71	11.77
729.735	5.77
729.76	-0.23
729.785	8.77
729.81	10.77
729.835	6.77
729.86	-3.23
729.886	11.77
729.911	4.77
729.936	8.77
729.961	34.77
729.986	27.77
730.011	67.77
730.036	201.77
730.061	1030.77
730.086	2699.77
730.112	3423.77
730.137	2861.77
730.162	2139.77
730.187	1638.77
730.212	1266.77
730.237	782.77
730.262	458.77
730.287	239.77
730.312	147.77
730.337	84.77
730.362	61.77
730.387	39.77
730.413	40.77
730.438	8.77
730.463	6.77
730.488	17.77
730.513	10.77
730.538	-2.23
730.563	14.77
730.588	16.77
730.613	18.77
730.638	14.77
730.663	-1.23
730.688	13.77
730.713	1.77
730.738	11.77
730.763	6.77
730.788	-6.23
730.813	7.77
730.838	11.77
730.863	17.77
730.888	3.77
730.913	-7.23
730.938	-5.23
730.963	17.77
730.988	115.77
731.013	416.77
731.038	620.77
731.063	603.77
731.088	470.77
731.113	362.77
731.138	259.77
731.163	180.77
731.188	114.77
731.213	67.77
731.238	37.77
731.263	16.77
731.288	8.77
731.313	15.77
731.338	1.77
731.363	11.77
731.388	12.77
731.413	21.77
731.438	26.77
731.463	3.77
731.487	8.77
731.512	1.77
731.537	-9.23
731.562	-4.23
731.587	3.77
731.612	-10.23
731.637	-1.23
731.662	-2.23
731.687	-16.23
731.712	-8.23
731.737	18.77
731.762	3.77
731.786	7.77
731.811	26.77
731.836	5.77
731.861	7.77
731.886	-6.23
731.911	-7.23
731.936	12.77
731.961	-5.23
731.986	-2.23
732.01	-6.23
732.035	9.77
732.06	2.77
732.085	-2.23
732.11	-3.23
732.135	-8.23
732.16	6.77
732.184	0.77
732.209	9.77
732.234	10.77
732.259	0.77
732.284	21.77
732.309	16.77
732.334	-1.23
732.358	-8.23
732.383	11.77
732.408	9.77
732.433	5.77
732.458	-3.23
732.482	0.77
732.507	0.77
732.532	5.77
732.557	18.77
732.582	3.77
732.607	18.77
732.631	48.77
732.656	90.77
732.681	159.77
732.706	341.77
732.73	445.77
732.755	397.77
732.78	314.77
732.805	241.77
732.83	181.77
732.854	140.77
732.879	75.77
732.904	25.77
732.929	16.77
732.953	29.77
732.978	13.77
733.003	-5.23
733.028	-1.23
733.052	10.77
733.077	2.77
733.102	20.77
733.127	16.77
733.151	-9.23
733.176	17.77
733.201	-2.23
733.226	-0.23
733.25	3.77
733.275	14.77
733.3	8.77
733.324	14.77
733.349	10.77
733.374	21.77
733.399	-0.23
733.423	-11.23
733.448	15.77
733.473	-7.23
733.497	2.77
733.522	-1.23
733.547	9.77
733.571	15.77
733.596	-3.23
733.621	10.77
733.646	0.77
733.67	4.77
733.695	-5.23
733.72	21.77
733.744	17.77
733.769	17.77
733.794	11.77
733.818	6.77
733.843	5.77
733.867	-4.23
733.892	-6.23
733.917	5.77
733.941	9.77
733.966	-1.23
733.991	-7.23
734.015	16.77
734.04	-0.23
734.065	3.77
734.089	18.77
734.114	1.77
734.138	3.77
734.163	3.77
734.188	7.77
734.212	20.77
734.237	10.77
734.261	4.77
734.286	-2.23
734.311	5.77
734.335	3.77
734.36	11.77
734.384	11.77
734.409	10.77
734.434	-9.23
734.458	-7.23
734.483	-1.23
734.507	-7.23
734.532	0.77
734.556	-13.23
734.581	1.77
734.606	1.77
734.63	-6.23
734.655	2.77
734.679	6.77
734.704	-8.23
734.728	-8.23
734.753	0.77
734.777	12.77
734.802	-1.23
734.826	6.77
734.851	-1.23
734.876	21.77
734.9	10.77
734.925	8.77
734.949	8.77
734.974	-1.23
734.998	7.77
735.023	-2.23
735.047	-6.23
735.072	19.77
735.096	-2.23
735.121	8.77
735.145	1.77
735.17	-17.23
735.194	9.77
735.219	-10.23
735.243	-11.23
735.268	6.77
735.292	8.77
735.317	-0.23
735.341	7.77
735.365	-0.23
735.39	6.77
735.414	2.77
735.439	1.77
735.463	6.77
735.488	-2.23
735.512	16.77
735.537	0.77
735.561	3.77
735.586	-2.23
735.61	13.77
735.634	-10.23
735.659	-1.23
735.683	15.77
735.708	0.77
735.732	-5.23
735.757	9.77
735.781	-5.23
735.805	0.77
735.83	-2.23
735.854	-2.23
735.879	-7.23
735.903	1.77
735.927	5.77
735.952	-5.23
735.976	-3.23
736.001	-13.23
736.025	-4.23
736.049	3.77
736.074	5.77
736.098	4.77
736.123	4.77
736.147	-11.23
736.171	-1.23
736.196	5.77
736.22	0.77
736.244	-5.23
736.269	-0.23
736.293	7.77
736.317	3.77
736.342	-6.23
736.366	7.77
736.39	15.77
736.415	2.77
736.439	-1.23
736.463	17.77
736.488	25.77
736.512	3.77
736.536	6.77
736.561	19.77
736.585	13.77
736.609	4.77
736.634	2.77
736.658	-7.23
736.682	-12.23
736.707	-8.23
736.731	-2.23
736.755	6.77
736.78	26.77
736.804	11.77
736.828	9.77
736.852	2.77
736.877	5.77
736.901	14.77
736.925	18.77
736.949	8.77
736.974	-2.23
736.998	-18.23
737.022	-12.23
737.047	-13.23
737.071	-3.23
737.095	15.77
737.119	22.77
737.144	9.77
737.168	-8.23
737.192	-0.23
737.216	13.77
737.241	-1.23
737.265	4.77
737.289	2.77
737.313	-12.23
737.337	15.77
737.362	-7.23
737.386	-1.23
737.41	-10.23
737.434	2.77
737.459	7.77
737.483	7.77
737.507	20.77
737.531	17.77
737.555	5.77
737.58	15.77
737.604	0.77
737.628	0.77
737.652	-4.23
737.676	-7.23
737.701	9.77
737.725	4.77
737.749	1.77
737.773	1.77
737.797	-8.23
737.821	-1.23
737.846	-0.23
737.87	22.77
737.894	-4.23
737.918	13.77
737.942	6.77
737.966	3.77
737.99	6.77
738.015	-1.23
738.039	11.77
738.063	-1.23
738.087	7.77
738.111	6.77
738.135	13.77
738.159	-6.23
738.184	5.77
738.208	5.77
738.232	16.77
738.256	11.77
738.28	8.77
738.304	14.77
738.328	4.77
738.352	24.77
738.376	5.77
738.4	9.77
738.425	23.77
738.449	8.77
738.473	21.77
738.497	0.77
738.521	-6.23
738.545	1.77
738.569	8.77
738.593	16.77
738.617	10.77
738.641	7.77
738.665	-10.23
738.689	9.77
738.713	-2.23
738.737	22.77
738.762	13.77
738.786	1.77
738.81	-3.23
738.834	14.77
738.858	5.77
738.882	1.77
738.906	3.77
738.93	12.77
738.954	0.77
738.978	-3.23
739.002	-5.23
739.026	22.77
739.05	14.77
739.074	-5.23
739.098	24.77
739.122	23.77
739.146	3.77
739.17	14.77
739.194	-0.23
739.218	-6.23
739.242	-4.23
739.266	-8.23
739.29	3.77
739.314	10.77
739.338	7.77
739.362	-15.23
739.386	-6.23
739.41	-9.23
739.434	-2.23
739.458	21.77
739.482	14.77
739.506	7.77
739.53	-15.23
739.554	18.77
739.577	-9.23
739.601	12.77
739.625	-7.23
739.649	14.77
739.673	0.77
739.697	-6.23
739.721	-5.23
739.745	4.77
739.769	8.77
739.793	-23.23
739.817	11.77
739.841	-5.23
739.865	4.77
739.889	-10.23
739.912	3.77
739.936	-8.23
739.96	-8.23
739.984	15.77
740.008	-5.23
740.032	-1.23
740.056	1.77
740.08	-0.23
740.104	-4.23
740.127	11.77
740.151	10.77
740.175	9.77
740.199	12.77
740.223	41.77
740.247	33.77
740.271	-2.23
740.295	-5.23
740.318	1.77
740.342	-2.23
740.366	12.77
740.39	1.77
740.414	1.77
740.438	10.77
740.461	1.77
740.485	-9.23
740.509	-8.23
740.533	13.77
740.557	-9.23
740.581	-14.23
740.604	-6.23
740.628	2.77
740.652	11.77
740.676	6.77
740.7	9.77
740.723	-2.23
740.747	0.77
740.771	-0.23
740.795	-0.23
740.819	10.77
740.842	18.77
740.866	16.77
740.89	10.77
740.914	-6.23
740.938	-13.23
740.961	20.77
740.985	3.77
741.009	-1.23
741.033	21.77
741.056	4.77
741.08	0.77
741.104	-8.23
741.128	-2.23
741.151	14.77
741.175	9.77
741.199	11.77
741.223	10.77
741.246	-12.23
741.27	15.77
741.294	7.77
741.318	-5.23
741.341	5.77
741.365	5.77
741.389	9.77
741.413	17.77
741.436	17.77
741.46	-1.23
741.484	16.77
741.507	15.77
741.531	29.77
741.555	18.77
741.579	9.77
741.602	15.77
741.626	11.77
741.65	-2.23
741.673	-8.23
741.697	2.77
741.721	6.77
741.744	-7.23
741.768	6.77
741.792	11.77
741.815	1.77
741.839	5.77
741.863	18.77
741.886	25.77
741.91	19.77
741.934	7.77
741.957	-14.23
741.981	-7.23
742.005	-2.23
742.028	-10.23
742.052	-9.23
742.075	15.77
742.099	6.77
742.123	9.77
742.146	7.77
742.17	1.77
742.194	-10.23
742.217	-5.23
742.241	-21.23
742.264	2.77
742.288	15.77
742.312	0.77
742.335	1.77
742.359	15.77
742.382	22.77
742.406	17.77
742.43	-1.23
742.453	14.77
742.477	-4.23
742.5	-0.23
742.524	1.77
742.548	-3.23
742.571	-4.23
742.595	-7.23
742.618	-7.23
742.642	5.77
742.665	18.77
742.689	9.77
742.712	3.77
742.736	6.77
742.76	9.77
742.783	-7.23
742.807	5.77
742.83	9.77
742.854	-21.23
742.877	-12.23
742.901	-9.23
742.924	-7.23
742.948	9.77
742.971	7.77
742.995	9.77
743.018	-13.23
743.042	-11.23
743.065	0.77
743.089	-6.23
743.112	2.77
743.136	-8.23
743.159	-1.23
743.183	12.77
743.206	12.77
743.23	6.77
743.253	5.77
743.277	0.77
743.3	2.77
743.324	-6.23
743.347	6.77
743.371	14.77
743.394	20.77
743.418	14.77
743.441	-1.23
743.465	13.77
743.488	-2.23
743.512	1.77
743.535	11.77
743.558	7.77
743.582	-5.23
743.605	18.77
743.629	1.77
743.652	11.77
743.676	-4.23
743.699	11.77
743.723	8.77
743.746	20.77
743.769	12.77
743.793	-6.23
743.816	-8.23
743.84	4.77
743.863	2.77
743.886	2.77
743.91	9.77
743.933	17.77
743.957	1.77
743.98	12.77
744.003	9.77
744.027	3.77
744.05	7.77
744.074	-11.23
744.097	-14.23
744.12	6.77
744.144	2.77
744.167	21.77
744.19	6.77
744.214	4.77
744.237	1.77
744.26	1.77
744.284	2.77
744.307	-1.23
744.331	-0.23
744.354	-6.23
744.377	-11.23
744.401	-9.23
744.424	-2.23
744.447	-9.23
744.471	-13.23
