Data from HighRes_mercury_15_13_11_07_2024_HR4C61891__88__15-14-31-985.txt Node

Date: Thu Nov 07 15:14:31 EST 2024
User: crc00042
Spectrometer: HR4C6189
Trigger mode: 4
Integration Time (sec): 1.000000E-1
Scans to average: 1
Electric dark correction enabled: true
Nonlinearity correction enabled: false
Boxcar width: 0
XAxis mode: Wavelengths
Number of Pixels in Spectrum: 3648
>>>>>Begin Spectral Data<<<<<
639.567	-63.77
639.602	-63.77
639.636	-63.77
639.67	-35.77
639.704	-6.77
639.738	-1.77
639.773	18.23
639.807	-11.77
639.841	-14.77
639.875	7.23
639.909	-4.77
639.943	-14.77
639.978	-6.77
640.012	6.23
640.046	17.23
640.08	3.23
640.114	3.23
640.148	-0.77
640.182	1.23
640.217	-6.77
640.251	22.23
640.285	15.23
640.319	-10.77
640.353	-0.77
640.387	14.23
640.421	-5.77
640.455	7.23
640.49	10.23
640.524	-9.77
640.558	1.23
640.592	-7.77
640.626	-1.77
640.66	2.23
640.694	-26.77
640.728	4.23
640.762	13.23
640.796	16.23
640.83	11.23
640.865	-9.77
640.899	-4.77
640.933	-4.77
640.967	-5.77
641.001	5.23
641.035	4.23
641.069	-1.77
641.103	-1.77
641.137	-6.77
641.171	-17.77
641.205	-4.77
641.239	6.23
641.273	19.23
641.307	4.23
641.341	8.23
641.375	-5.77
641.409	-6.77
641.443	-3.77
641.477	10.23
641.511	2.23
641.545	-14.77
641.579	-12.77
641.614	12.23
641.648	8.23
641.682	-2.77
641.716	15.23
641.75	12.23
641.784	11.23
641.818	9.23
641.852	2.23
641.886	4.23
641.919	39.23
641.953	18.23
641.987	-4.77
642.021	-1.77
642.055	10.23
642.089	5.23
642.123	6.23
642.157	-4.77
642.191	-0.77
642.225	19.23
642.259	1.23
642.293	27.23
642.327	-8.77
642.361	-17.77
642.395	6.23
642.429	24.23
642.463	4.23
642.497	7.23
642.531	-4.77
642.565	-9.77
642.599	1.23
642.633	-9.77
642.666	3.23
642.7	18.23
642.734	8.23
642.768	-12.77
642.802	-12.77
642.836	0.23
642.87	4.23
642.904	-8.77
642.938	8.23
642.972	1.23
643.005	-9.77
643.039	13.23
643.073	-11.77
643.107	4.23
643.141	-1.77
643.175	1.23
643.209	6.23
643.243	-3.77
643.276	-4.77
643.31	-5.77
643.344	8.23
643.378	-1.77
643.412	2.23
643.446	3.23
643.48	7.23
643.513	8.23
643.547	9.23
643.581	-9.77
643.615	4.23
643.649	-7.77
643.683	17.23
643.716	3.23
643.75	2.23
643.784	-7.77
643.818	7.23
643.852	-7.77
643.886	5.23
643.919	-4.77
643.953	5.23
643.987	0.23
644.021	13.23
644.055	28.23
644.088	20.23
644.122	1.23
644.156	-1.77
644.19	9.23
644.224	-8.77
644.257	9.23
644.291	9.23
644.325	8.23
644.359	11.23
644.392	41.23
644.426	12.23
644.46	11.23
644.494	-1.77
644.527	-14.77
644.561	6.23
644.595	-0.77
644.629	5.23
644.662	0.23
644.696	16.23
644.73	20.23
644.764	8.23
644.797	1.23
644.831	1.23
644.865	14.23
644.899	7.23
644.932	31.23
644.966	-8.77
645	3.23
645.033	9.23
645.067	-4.77
645.101	0.23
645.135	-0.77
645.168	7.23
645.202	-5.77
645.236	-13.77
645.269	-1.77
645.303	4.23
645.337	-12.77
645.37	2.23
645.404	13.23
645.438	-14.77
645.471	4.23
645.505	10.23
645.539	8.23
645.572	-2.77
645.606	6.23
645.64	7.23
645.673	-0.77
645.707	14.23
645.741	2.23
645.774	-7.77
645.808	8.23
645.842	13.23
645.875	-6.77
645.909	-13.77
645.943	1.23
645.976	3.23
646.01	9.23
646.043	3.23
646.077	12.23
646.111	9.23
646.144	9.23
646.178	19.23
646.212	-4.77
646.245	-2.77
646.279	11.23
646.312	5.23
646.346	6.23
646.38	2.23
646.413	-4.77
646.447	-7.77
646.48	-1.77
646.514	5.23
646.547	-3.77
646.581	-15.77
646.615	-10.77
646.648	-12.77
646.682	2.23
646.715	14.23
646.749	-9.77
646.782	-7.77
646.816	-16.77
646.85	-4.77
646.883	-2.77
646.917	9.23
646.95	7.23
646.984	20.23
647.017	11.23
647.051	2.23
647.084	-2.77
647.118	-8.77
647.151	-1.77
647.185	6.23
647.218	-9.77
647.252	7.23
647.285	-10.77
647.319	-4.77
647.353	-0.77
647.386	8.23
647.42	4.23
647.453	-7.77
647.487	0.23
647.52	-3.77
647.553	-7.77
647.587	4.23
647.62	2.23
647.654	1.23
647.687	-14.77
647.721	0.23
647.754	8.23
647.788	1.23
647.821	-8.77
647.855	9.23
647.888	16.23
647.922	18.23
647.955	17.23
647.989	16.23
648.022	6.23
648.055	9.23
648.089	0.23
648.122	34.23
648.156	-15.77
648.189	-2.77
648.223	7.23
648.256	10.23
648.29	13.23
648.323	2.23
648.356	1.23
648.39	11.23
648.423	14.23
648.457	5.23
648.49	-6.77
648.523	14.23
648.557	0.23
648.59	-2.77
648.624	6.23
648.657	6.23
648.69	23.23
648.724	2.23
648.757	16.23
648.791	26.23
648.824	2.23
648.857	17.23
648.891	6.23
648.924	1.23
648.957	7.23
648.991	-2.77
649.024	2.23
649.057	3.23
649.091	5.23
649.124	8.23
649.158	10.23
649.191	33.23
649.224	11.23
649.258	8.23
649.291	10.23
649.324	7.23
649.358	-11.77
649.391	7.23
649.424	1.23
649.458	9.23
649.491	-8.77
649.524	-14.77
649.557	-6.77
649.591	-15.77
649.624	25.23
649.657	-9.77
649.691	-2.77
649.724	2.23
649.757	-8.77
649.791	-12.77
649.824	16.23
649.857	0.23
649.89	-6.77
649.924	-14.77
649.957	5.23
649.99	-24.77
650.023	5.23
650.057	-19.77
650.09	3.23
650.123	0.23
650.157	8.23
650.19	1.23
650.223	-5.77
650.256	-17.77
650.29	-7.77
650.323	5.23
650.356	10.23
650.389	-8.77
650.423	-14.77
650.456	11.23
650.489	5.23
650.522	10.23
650.555	0.23
650.589	3.23
650.622	-16.77
650.655	2.23
650.688	7.23
650.721	11.23
650.755	0.23
650.788	19.23
650.821	6.23
650.854	11.23
650.887	-0.77
650.921	7.23
650.954	-10.77
650.987	17.23
651.02	3.23
651.053	-19.77
651.087	-2.77
651.12	25.23
651.153	-2.77
651.186	-1.77
651.219	-18.77
651.252	-2.77
651.286	10.23
651.319	-4.77
651.352	0.23
651.385	-4.77
651.418	-2.77
651.451	6.23
651.484	8.23
651.518	5.23
651.551	27.23
651.584	-3.77
651.617	9.23
651.65	2.23
651.683	17.23
651.716	5.23
651.749	-3.77
651.783	-2.77
651.816	-2.77
651.849	-1.77
651.882	2.23
651.915	2.23
651.948	16.23
651.981	0.23
652.014	-16.77
652.047	-5.77
652.08	-9.77
652.114	-6.77
652.147	0.23
652.18	19.23
652.213	35.23
652.246	2.23
652.279	0.23
652.312	7.23
652.345	1.23
652.378	4.23
652.411	18.23
652.444	14.23
652.477	6.23
652.51	-4.77
652.543	9.23
652.576	-1.77
652.609	11.23
652.642	17.23
652.675	3.23
652.709	-2.77
652.742	-3.77
652.775	4.23
652.808	20.23
652.841	23.23
652.874	0.23
652.907	-9.77
652.94	-23.77
652.973	-6.77
653.006	-5.77
653.039	5.23
653.072	1.23
653.105	-1.77
653.138	-18.77
653.171	-1.77
653.204	-1.77
653.237	12.23
653.27	-12.77
653.303	7.23
653.336	5.23
653.368	3.23
653.401	-6.77
653.434	-2.77
653.467	7.23
653.5	-5.77
653.533	-2.77
653.566	0.23
653.599	19.23
653.632	-5.77
653.665	5.23
653.698	-7.77
653.731	-14.77
653.764	9.23
653.797	-3.77
653.83	0.23
653.863	0.23
653.896	0.23
653.929	1.23
653.961	1.23
653.994	-2.77
654.027	-9.77
654.06	0.23
654.093	5.23
654.126	7.23
654.159	2.23
654.192	12.23
654.225	-1.77
654.258	-1.77
654.29	-3.77
654.323	10.23
654.356	-8.77
654.389	5.23
654.422	-2.77
654.455	1.23
654.488	4.23
654.521	-3.77
654.553	-7.77
654.586	6.23
654.619	12.23
654.652	5.23
654.685	5.23
654.718	-6.77
654.751	4.23
654.783	3.23
654.816	21.23
654.849	3.23
654.882	-11.77
654.915	-2.77
654.948	-7.77
654.98	-8.77
655.013	1.23
655.046	-1.77
655.079	-7.77
655.112	3.23
655.144	11.23
655.177	12.23
655.21	5.23
655.243	15.23
655.276	5.23
655.308	2.23
655.341	-21.77
655.374	-10.77
655.407	-0.77
655.44	-6.77
655.472	-2.77
655.505	-21.77
655.538	-8.77
655.571	5.23
655.603	0.23
655.636	-4.77
655.669	-6.77
655.702	0.23
655.734	-37.77
655.767	5.23
655.8	4.23
655.833	-3.77
655.865	10.23
655.898	-2.77
655.931	-8.77
655.964	5.23
655.996	-11.77
656.029	0.23
656.062	0.23
656.095	-9.77
656.127	-16.77
656.16	8.23
656.193	0.23
656.225	12.23
656.258	0.23
656.291	-10.77
656.324	9.23
656.356	15.23
656.389	12.23
656.422	0.23
656.454	-14.77
656.487	3.23
656.52	-0.77
656.552	-9.77
656.585	3.23
656.618	6.23
656.65	3.23
656.683	-1.77
656.716	-1.77
656.748	-6.77
656.781	-2.77
656.814	-13.77
656.846	0.23
656.879	-7.77
656.912	8.23
656.944	-12.77
656.977	7.23
657.01	3.23
657.042	2.23
657.075	6.23
657.108	6.23
657.14	8.23
657.173	9.23
657.205	14.23
657.238	6.23
657.271	-2.77
657.303	-0.77
657.336	4.23
657.369	2.23
657.401	1.23
657.434	1.23
657.466	4.23
657.499	15.23
657.532	4.23
657.564	17.23
657.597	4.23
657.629	8.23
657.662	2.23
657.694	9.23
657.727	-11.77
657.76	-0.77
657.792	-5.77
657.825	-0.77
657.857	-7.77
657.89	-0.77
657.922	21.23
657.955	-5.77
657.987	4.23
658.02	4.23
658.053	19.23
658.085	0.23
658.118	-4.77
658.15	9.23
658.183	36.23
658.215	3.23
658.248	-3.77
658.28	2.23
658.313	18.23
658.345	2.23
658.378	11.23
658.41	-4.77
658.443	-1.77
658.475	12.23
658.508	-5.77
658.54	1.23
658.573	0.23
658.605	0.23
658.638	5.23
658.67	-1.77
658.703	0.23
658.735	-2.77
658.768	-5.77
658.8	4.23
658.833	24.23
658.865	-1.77
658.898	-2.77
658.93	-5.77
658.963	2.23
658.995	-25.77
659.028	-8.77
659.06	-2.77
659.092	-5.77
659.125	-12.77
659.157	11.23
659.19	-19.77
659.222	-2.77
659.255	17.23
659.287	-8.77
659.32	2.23
659.352	14.23
659.384	31.23
659.417	0.23
659.449	10.23
659.482	9.23
659.514	-1.77
659.546	5.23
659.579	1.23
659.611	1.23
659.644	-9.77
659.676	-11.77
659.708	-5.77
659.741	-10.77
659.773	15.23
659.806	14.23
659.838	5.23
659.87	10.23
659.903	5.23
659.935	10.23
659.967	7.23
660	7.23
660.032	-8.77
660.065	12.23
660.097	3.23
660.129	-3.77
660.162	-19.77
660.194	1.23
660.226	6.23
660.259	0.23
660.291	-1.77
660.323	0.23
660.356	6.23
660.388	-0.77
660.42	-0.77
660.453	8.23
660.485	17.23
660.517	8.23
660.55	17.23
660.582	12.23
660.614	7.23
660.647	0.23
660.679	-3.77
660.711	2.23
660.743	-14.77
660.776	-1.77
660.808	-15.77
660.84	-7.77
660.873	-10.77
660.905	-0.77
660.937	3.23
660.969	2.23
661.002	9.23
661.034	10.23
661.066	5.23
661.099	3.23
661.131	13.23
661.163	-3.77
661.195	30.23
661.228	12.23
661.26	7.23
661.292	9.23
661.324	1.23
661.357	13.23
661.389	4.23
661.421	9.23
661.453	4.23
661.485	0.23
661.518	1.23
661.55	-11.77
661.582	-27.77
661.614	-16.77
661.647	11.23
661.679	1.23
661.711	1.23
661.743	-10.77
661.775	-5.77
661.808	24.23
661.84	-9.77
661.872	4.23
661.904	2.23
661.936	1.23
661.969	-5.77
662.001	-1.77
662.033	2.23
662.065	-4.77
662.097	13.23
662.129	13.23
662.162	-7.77
662.194	-0.77
662.226	8.23
662.258	9.23
662.29	3.23
662.322	-13.77
662.355	-11.77
662.387	25.23
662.419	11.23
662.451	20.23
662.483	-2.77
662.515	-4.77
662.547	2.23
662.58	-3.77
662.612	-1.77
662.644	-14.77
662.676	-9.77
662.708	16.23
662.74	-7.77
662.772	-2.77
662.804	-11.77
662.836	19.23
662.869	-29.77
662.901	12.23
662.933	-9.77
662.965	15.23
662.997	5.23
663.029	-11.77
663.061	-5.77
663.093	1.23
663.125	15.23
663.157	11.23
663.189	-2.77
663.221	12.23
663.254	0.23
663.286	2.23
663.318	2.23
663.35	7.23
663.382	1.23
663.414	8.23
663.446	14.23
663.478	11.23
663.51	7.23
663.542	-8.77
663.574	-5.77
663.606	-7.77
663.638	-10.77
663.67	-5.77
663.702	1.23
663.734	-7.77
663.766	6.23
663.798	-17.77
663.83	1.23
663.862	6.23
663.894	8.23
663.926	-1.77
663.958	17.23
663.99	-0.77
664.022	-9.77
664.054	7.23
664.086	-7.77
664.118	-12.77
664.15	-3.77
664.182	12.23
664.214	1.23
664.246	1.23
664.278	-0.77
664.31	4.23
664.342	16.23
664.374	-5.77
664.406	2.23
664.438	0.23
664.47	18.23
664.502	2.23
664.534	-0.77
664.566	-2.77
664.598	15.23
664.63	0.23
664.662	8.23
664.693	-11.77
664.725	-16.77
664.757	6.23
664.789	-26.77
664.821	-3.77
664.853	9.23
664.885	3.23
664.917	0.23
664.949	22.23
664.981	16.23
665.013	3.23
665.045	-5.77
665.076	-1.77
665.108	13.23
665.14	-1.77
665.172	6.23
665.204	10.23
665.236	-12.77
665.268	1.23
665.3	6.23
665.331	11.23
665.363	7.23
665.395	4.23
665.427	1.23
665.459	11.23
665.491	-7.77
665.523	5.23
665.555	4.23
665.586	11.23
665.618	1.23
665.65	-13.77
665.682	1.23
665.714	4.23
665.746	-9.77
665.777	-0.77
665.809	-5.77
665.841	11.23
665.873	4.23
665.905	10.23
665.937	14.23
665.968	1.23
666	3.23
666.032	5.23
666.064	-13.77
666.096	-2.77
666.127	-2.77
666.159	2.23
666.191	7.23
666.223	8.23
666.255	-14.77
666.286	2.23
666.318	-7.77
666.35	9.23
666.382	12.23
666.413	-11.77
666.445	-11.77
666.477	-26.77
666.509	-12.77
666.54	-7.77
666.572	0.23
666.604	-15.77
666.636	-2.77
666.667	11.23
666.699	19.23
666.731	1.23
666.763	-16.77
666.794	-5.77
666.826	12.23
666.858	-10.77
666.89	5.23
666.921	-3.77
666.953	-3.77
666.985	5.23
667.017	6.23
667.048	-0.77
667.08	5.23
667.112	1.23
667.143	-6.77
667.175	18.23
667.207	7.23
667.238	11.23
667.27	2.23
667.302	8.23
667.334	0.23
667.365	33.23
667.397	8.23
667.429	6.23
667.46	13.23
667.492	14.23
667.524	3.23
667.555	-2.77
667.587	-5.77
667.619	-2.77
667.65	3.23
667.682	-2.77
667.714	-0.77
667.745	-1.77
667.777	-2.77
667.808	7.23
667.84	1.23
667.872	5.23
667.903	22.23
667.935	-0.77
667.967	1.23
667.998	-1.77
668.03	-1.77
668.061	13.23
668.093	1.23
668.125	24.23
668.156	5.23
668.188	-5.77
668.22	-7.77
668.251	-2.77
668.283	8.23
668.314	5.23
668.346	14.23
668.377	21.23
668.409	17.23
668.441	31.23
668.472	2.23
668.504	5.23
668.535	1.23
668.567	8.23
668.599	0.23
668.63	-9.77
668.662	20.23
668.693	10.23
668.725	9.23
668.756	10.23
668.788	-9.77
668.819	-1.77
668.851	-0.77
668.882	-1.77
668.914	-4.77
668.946	5.23
668.977	-6.77
669.009	4.23
669.04	-9.77
669.072	-10.77
669.103	-3.77
669.135	-1.77
669.166	-9.77
669.198	-2.77
669.229	4.23
669.261	12.23
669.292	3.23
669.324	3.23
669.355	16.23
669.387	-2.77
669.418	19.23
669.45	-7.77
669.481	11.23
669.513	-3.77
669.544	7.23
669.576	1.23
669.607	-1.77
669.639	29.23
669.67	3.23
669.701	29.23
669.733	-6.77
669.764	-2.77
669.796	-6.77
669.827	-8.77
669.859	-0.77
669.89	0.23
669.922	3.23
669.953	5.23
669.985	6.23
670.016	16.23
670.047	10.23
670.079	0.23
670.11	0.23
670.142	-1.77
670.173	-15.77
670.204	-10.77
670.236	-0.77
670.267	-25.77
670.299	1.23
670.33	9.23
670.362	6.23
670.393	0.23
670.424	-10.77
670.456	-20.77
670.487	-17.77
670.518	-7.77
670.55	0.23
670.581	-13.77
670.613	9.23
670.644	-9.77
670.675	-14.77
670.707	-7.77
670.738	7.23
670.769	-5.77
670.801	-8.77
670.832	9.23
670.864	-8.77
670.895	0.23
670.926	-6.77
670.958	-14.77
670.989	-7.77
671.02	-2.77
671.052	-2.77
671.083	12.23
671.114	-24.77
671.146	-1.77
671.177	1.23
671.208	-0.77
671.24	-25.77
671.271	-9.77
671.302	-3.77
671.333	-10.77
671.365	-12.77
671.396	-5.77
671.427	-6.77
671.459	8.23
671.49	-0.77
671.521	6.23
671.553	-5.77
671.584	3.23
671.615	-11.77
671.646	19.23
671.678	-7.77
671.709	-6.77
671.74	-3.77
671.771	-7.77
671.803	-10.77
671.834	-14.77
671.865	0.23
671.896	-1.77
671.928	9.23
671.959	14.23
671.99	-4.77
672.021	-10.77
672.053	-6.77
672.084	9.23
672.115	-2.77
672.146	-9.77
672.178	-9.77
672.209	-8.77
672.24	-5.77
672.271	22.23
672.303	2.23
672.334	-10.77
672.365	-13.77
672.396	3.23
672.427	1.23
672.459	10.23
672.49	31.23
672.521	5.23
672.552	-0.77
672.583	1.23
672.615	5.23
672.646	3.23
672.677	14.23
672.708	3.23
672.739	9.23
672.77	-2.77
672.802	11.23
672.833	-13.77
672.864	9.23
672.895	9.23
672.926	17.23
672.957	-1.77
672.989	10.23
673.02	-14.77
673.051	8.23
673.082	6.23
673.113	-7.77
673.144	10.23
673.175	3.23
673.206	1.23
673.238	-6.77
673.269	-0.77
673.3	-14.77
673.331	6.23
673.362	-2.77
673.393	-7.77
673.424	1.23
673.455	0.23
673.487	-9.77
673.518	6.23
673.549	-5.77
673.58	-12.77
673.611	2.23
673.642	-14.77
673.673	-12.77
673.704	9.23
673.735	6.23
673.766	1.23
673.797	-22.77
673.828	-13.77
673.86	4.23
673.891	-8.77
673.922	-17.77
673.953	-15.77
673.984	-1.77
674.015	14.23
674.046	3.23
674.077	16.23
674.108	-14.77
674.139	1.23
674.17	0.23
674.201	-8.77
674.232	-18.77
674.263	2.23
674.294	4.23
674.325	0.23
674.356	-4.77
674.387	6.23
674.418	5.23
674.449	-8.77
674.48	-10.77
674.511	9.23
674.542	-0.77
674.573	-10.77
674.604	10.23
674.635	-5.77
674.666	15.23
674.697	0.23
674.728	-1.77
674.759	-0.77
674.79	-10.77
674.821	-13.77
674.852	-6.77
674.883	-8.77
674.914	-3.77
674.945	-5.77
674.976	9.23
675.007	-5.77
675.038	-10.77
675.069	-7.77
675.1	-17.77
675.131	-1.77
675.162	-10.77
675.193	-1.77
675.224	-0.77
675.254	8.23
675.285	1.23
675.316	9.23
675.347	2.23
675.378	-21.77
675.409	-12.77
675.44	6.23
675.471	1.23
675.502	-6.77
675.533	-12.77
675.564	3.23
675.595	-11.77
675.625	15.23
675.656	9.23
675.687	5.23
675.718	-4.77
675.749	7.23
675.78	9.23
675.811	-13.77
675.842	13.23
675.873	1.23
675.903	-3.77
675.934	2.23
675.965	-6.77
675.996	3.23
676.027	2.23
676.058	-1.77
676.089	-0.77
676.119	7.23
676.15	-5.77
676.181	1.23
676.212	-10.77
676.243	7.23
676.274	-12.77
676.304	19.23
676.335	-4.77
676.366	-7.77
676.397	-14.77
676.428	4.23
676.459	10.23
676.489	7.23
676.52	20.23
676.551	6.23
676.582	-10.77
676.613	6.23
676.643	-5.77
676.674	6.23
676.705	-3.77
676.736	-8.77
676.767	10.23
676.797	7.23
676.828	-12.77
676.859	-15.77
676.89	-13.77
676.92	10.23
676.951	6.23
676.982	12.23
677.013	1.23
677.044	1.23
677.074	26.23
677.105	-8.77
677.136	-1.77
677.167	-2.77
677.197	11.23
677.228	-5.77
677.259	-10.77
677.289	-14.77
677.32	-1.77
677.351	-2.77
677.382	-4.77
677.412	0.23
677.443	6.23
677.474	3.23
677.505	-16.77
677.535	10.23
677.566	-8.77
677.597	-24.77
677.627	-13.77
677.658	-2.77
677.689	8.23
677.72	-2.77
677.75	2.23
677.781	-4.77
677.812	-4.77
677.842	12.23
677.873	5.23
677.904	-8.77
677.934	-14.77
677.965	-6.77
677.996	-28.77
678.026	-2.77
678.057	-15.77
678.088	0.23
678.118	-2.77
678.149	-10.77
678.18	-5.77
678.21	-1.77
678.241	-1.77
678.272	1.23
678.302	0.23
678.333	-1.77
678.363	2.23
678.394	18.23
678.425	1.23
678.455	3.23
678.486	-1.77
678.517	3.23
678.547	2.23
678.578	-9.77
678.608	-27.77
678.639	-2.77
678.67	2.23
678.7	-13.77
678.731	-12.77
678.761	-13.77
678.792	9.23
678.823	0.23
678.853	-1.77
678.884	-11.77
678.914	-3.77
678.945	-5.77
678.975	-30.77
679.006	-1.77
679.037	-10.77
679.067	9.23
679.098	-10.77
679.128	-16.77
679.159	7.23
679.189	11.23
679.22	-2.77
679.25	8.23
679.281	2.23
679.312	-14.77
679.342	4.23
679.373	18.23
679.403	-2.77
679.434	0.23
679.464	-10.77
679.495	-16.77
679.525	-3.77
679.556	-5.77
679.586	3.23
679.617	-4.77
679.647	-9.77
679.678	-3.77
679.708	-1.77
679.739	3.23
679.769	7.23
679.8	-2.77
679.83	5.23
679.861	11.23
679.891	-6.77
679.922	-6.77
679.952	-0.77
679.983	-2.77
680.013	7.23
680.044	-2.77
680.074	24.23
680.105	18.23
680.135	2.23
680.165	13.23
680.196	11.23
680.226	2.23
680.257	1.23
680.287	-1.77
680.318	6.23
680.348	-10.77
680.379	17.23
680.409	11.23
680.439	-22.77
680.47	-10.77
680.5	-1.77
680.531	13.23
680.561	24.23
680.592	10.23
680.622	5.23
680.652	-5.77
680.683	1.23
680.713	8.23
680.744	-7.77
680.774	-8.77
680.804	10.23
680.835	-14.77
680.865	-7.77
680.896	9.23
680.926	17.23
680.956	-6.77
680.987	-3.77
681.017	3.23
681.047	4.23
681.078	-9.77
681.108	-5.77
681.139	13.23
681.169	4.23
681.199	-8.77
681.23	3.23
681.26	2.23
681.29	10.23
681.321	-15.77
681.351	8.23
681.381	0.23
681.412	7.23
681.442	6.23
681.472	3.23
681.503	-2.77
681.533	4.23
681.563	1.23
681.594	7.23
681.624	17.23
681.654	4.23
681.685	-0.77
681.715	-8.77
681.745	2.23
681.775	-11.77
681.806	1.23
681.836	8.23
681.866	-11.77
681.897	6.23
681.927	-2.77
681.957	-30.77
681.987	11.23
682.018	12.23
682.048	8.23
682.078	-0.77
682.109	18.23
682.139	1.23
682.169	1.23
682.199	-11.77
682.23	-6.77
682.26	10.23
682.29	-9.77
682.32	-2.77
682.351	0.23
682.381	-3.77
682.411	-0.77
682.441	-4.77
682.472	-11.77
682.502	-7.77
682.532	1.23
682.562	-1.77
682.592	4.23
682.623	3.23
682.653	17.23
682.683	-1.77
682.713	-0.77
682.743	-1.77
682.774	-22.77
682.804	-3.77
682.834	29.23
682.864	7.23
682.894	-7.77
682.925	-6.77
682.955	1.23
682.985	-1.77
683.015	15.23
683.045	11.23
683.076	0.23
683.106	-3.77
683.136	4.23
683.166	-0.77
683.196	3.23
683.226	-17.77
683.257	-13.77
683.287	-8.77
683.317	-6.77
683.347	-0.77
683.377	4.23
683.407	-0.77
683.437	2.23
683.468	-1.77
683.498	-0.77
683.528	5.23
683.558	5.23
683.588	-2.77
683.618	-6.77
683.648	-0.77
683.678	9.23
683.708	16.23
683.739	1.23
683.769	-4.77
683.799	-3.77
683.829	-0.77
683.859	1.23
683.889	4.23
683.919	7.23
683.949	6.23
683.979	-5.77
684.009	-3.77
684.039	6.23
684.07	8.23
684.1	29.23
684.13	7.23
684.16	9.23
684.19	1.23
684.22	-16.77
684.25	5.23
684.28	5.23
684.31	7.23
684.34	18.23
684.37	7.23
684.4	-13.77
684.43	20.23
684.46	-2.77
684.49	1.23
684.52	5.23
684.55	6.23
684.58	13.23
684.61	9.23
684.64	29.23
684.67	2.23
684.7	0.23
684.73	6.23
684.76	-14.77
684.79	14.23
684.82	0.23
684.85	-12.77
684.88	7.23
684.91	8.23
684.94	5.23
684.97	7.23
685	-9.77
685.03	-9.77
685.06	-4.77
685.09	-0.77
685.12	5.23
685.15	-4.77
685.18	6.23
685.21	7.23
685.24	21.23
685.27	20.23
685.3	1.23
685.33	16.23
685.36	-8.77
685.39	-0.77
685.42	-12.77
685.45	-16.77
685.48	-4.77
685.51	0.23
685.54	-2.77
685.569	11.23
685.599	-2.77
685.629	0.23
685.659	0.23
685.689	-2.77
685.719	-1.77
685.749	-8.77
685.779	1.23
685.809	2.23
685.839	18.23
685.869	14.23
685.898	-0.77
685.928	1.23
685.958	-9.77
685.988	9.23
686.018	-7.77
686.048	3.23
686.078	18.23
686.108	9.23
686.137	11.23
686.167	4.23
686.197	-15.77
686.227	6.23
686.257	21.23
686.287	17.23
686.317	12.23
686.346	-4.77
686.376	-11.77
686.406	-2.77
686.436	-1.77
686.466	-0.77
686.496	8.23
686.525	10.23
686.555	-4.77
686.585	13.23
686.615	48.23
686.645	2.23
686.675	-7.77
686.704	5.23
686.734	11.23
686.764	-20.77
686.794	6.23
686.824	4.23
686.853	14.23
686.883	9.23
686.913	16.23
686.943	-13.77
686.973	4.23
687.002	1.23
687.032	-5.77
687.062	-9.77
687.092	12.23
687.121	-2.77
687.151	-1.77
687.181	1.23
687.211	15.23
687.24	3.23
687.27	0.23
687.3	3.23
687.33	4.23
687.359	-3.77
687.389	0.23
687.419	1.23
687.449	-9.77
687.478	12.23
687.508	1.23
687.538	10.23
687.568	-0.77
687.597	-3.77
687.627	2.23
687.657	-7.77
687.686	11.23
687.716	27.23
687.746	-0.77
687.776	-7.77
687.805	8.23
687.835	5.23
687.865	4.23
687.894	10.23
687.924	-14.77
687.954	2.23
687.983	-2.77
688.013	9.23
688.043	28.23
688.072	2.23
688.102	4.23
688.132	-4.77
688.161	-0.77
688.191	7.23
688.221	19.23
688.25	-10.77
688.28	0.23
688.31	-2.77
688.339	-8.77
688.369	-16.77
688.399	-7.77
688.428	2.23
688.458	-13.77
688.488	-0.77
688.517	4.23
688.547	-0.77
688.576	33.23
688.606	7.23
688.636	-7.77
688.665	-4.77
688.695	5.23
688.725	8.23
688.754	8.23
688.784	-8.77
688.813	6.23
688.843	22.23
688.873	0.23
688.902	-2.77
688.932	-10.77
688.961	12.23
688.991	6.23
689.02	5.23
689.05	-4.77
689.08	25.23
689.109	21.23
689.139	5.23
689.168	4.23
689.198	6.23
689.227	-5.77
689.257	-3.77
689.287	7.23
689.316	-2.77
689.346	-3.77
689.375	-3.77
689.405	22.23
689.434	5.23
689.464	13.23
689.493	11.23
689.523	5.23
689.552	-0.77
689.582	6.23
689.611	-2.77
689.641	10.23
689.67	12.23
689.7	-6.77
689.73	22.23
689.759	14.23
689.789	15.23
689.818	-9.77
689.848	-2.77
689.877	18.23
689.906	-1.77
689.936	-3.77
689.965	13.23
689.995	1.23
690.024	2.23
690.054	11.23
690.083	9.23
690.113	7.23
690.142	8.23
690.172	-2.77
690.201	-0.77
690.231	18.23
690.26	-3.77
690.29	-4.77
690.319	1.23
690.348	11.23
690.378	8.23
690.407	6.23
690.437	-10.77
690.466	10.23
690.496	1.23
690.525	15.23
690.555	-4.77
690.584	2.23
690.613	17.23
690.643	1.23
690.672	13.23
690.702	6.23
690.731	12.23
690.76	34.23
690.79	40.23
690.819	51.23
690.849	35.23
690.878	32.23
690.907	12.23
690.937	6.23
690.966	24.23
690.996	-2.77
691.025	-0.77
691.054	-6.77
691.084	-5.77
691.113	4.23
691.142	-0.77
691.172	3.23
691.201	13.23
691.23	-8.77
691.26	4.23
691.289	6.23
691.319	0.23
691.348	18.23
691.377	11.23
691.407	13.23
691.436	3.23
691.465	-4.77
691.495	-6.77
691.524	-27.77
691.553	-14.77
691.583	-7.77
691.612	5.23
691.641	6.23
691.67	8.23
691.7	-1.77
691.729	-9.77
691.758	5.23
691.788	7.23
691.817	2.23
691.846	-3.77
691.876	-5.77
691.905	-12.77
691.934	11.23
691.963	23.23
691.993	-3.77
692.022	5.23
692.051	-5.77
692.081	5.23
692.11	28.23
692.139	-4.77
692.168	7.23
692.198	27.23
692.227	27.23
692.256	19.23
692.285	1.23
692.315	-11.77
692.344	-2.77
692.373	-2.77
692.402	-8.77
692.432	8.23
692.461	-1.77
692.49	-2.77
692.519	-5.77
692.548	19.23
692.578	15.23
692.607	-1.77
692.636	-5.77
692.665	22.23
692.694	6.23
692.724	14.23
692.753	17.23
692.782	-6.77
692.811	-7.77
692.84	14.23
692.87	9.23
692.899	-6.77
692.928	-1.77
692.957	16.23
692.986	11.23
693.016	0.23
693.045	20.23
693.074	30.23
693.103	1.23
693.132	0.23
693.161	15.23
693.191	-8.77
693.22	-9.77
693.249	4.23
693.278	4.23
693.307	12.23
693.336	-0.77
693.365	-11.77
693.395	2.23
693.424	1.23
693.453	7.23
693.482	-5.77
693.511	19.23
693.54	-3.77
693.569	-1.77
693.598	1.23
693.628	-3.77
693.657	7.23
693.686	17.23
693.715	0.23
693.744	7.23
693.773	4.23
693.802	16.23
693.831	-4.77
693.86	17.23
693.889	-3.77
693.919	4.23
693.948	-2.77
693.977	8.23
694.006	-8.77
694.035	-16.77
694.064	-12.77
694.093	-0.77
694.122	-5.77
694.151	5.23
694.18	10.23
694.209	22.23
694.238	16.23
694.267	11.23
694.296	3.23
694.325	7.23
694.354	4.23
694.383	14.23
694.412	3.23
694.441	-4.77
694.471	-13.77
694.5	-6.77
694.529	-1.77
694.558	7.23
694.587	13.23
694.616	5.23
694.645	-10.77
694.674	11.23
694.703	9.23
694.732	7.23
694.761	5.23
694.79	2.23
694.819	2.23
694.848	-8.77
694.877	26.23
694.906	31.23
694.935	4.23
694.963	29.23
694.992	-6.77
695.021	4.23
695.05	14.23
695.079	5.23
695.108	11.23
695.137	20.23
695.166	6.23
695.195	2.23
695.224	10.23
695.253	-2.77
695.282	8.23
695.311	12.23
695.34	1.23
695.369	2.23
695.398	5.23
695.427	17.23
695.456	16.23
695.485	23.23
695.513	8.23
695.542	9.23
695.571	5.23
695.6	21.23
695.629	5.23
695.658	8.23
695.687	7.23
695.716	0.23
695.745	12.23
695.774	-2.77
695.802	10.23
695.831	9.23
695.86	-9.77
695.889	10.23
695.918	7.23
695.947	1.23
695.976	11.23
696.005	16.23
696.033	-1.77
696.062	20.23
696.091	25.23
696.12	-6.77
696.149	3.23
696.178	10.23
696.207	-3.77
696.235	-17.77
696.264	-6.77
696.293	5.23
696.322	-0.77
696.351	12.23
696.38	-1.77
696.408	0.23
696.437	3.23
696.466	11.23
696.495	10.23
696.524	15.23
696.553	34.23
696.581	15.23
696.61	13.23
696.639	8.23
696.668	22.23
696.697	-0.77
696.725	5.23
696.754	15.23
696.783	1.23
696.812	2.23
696.84	24.23
696.869	12.23
696.898	-1.77
696.927	-3.77
696.956	13.23
696.984	-1.77
697.013	0.23
697.042	3.23
697.071	7.23
697.099	31.23
697.128	30.23
697.157	9.23
697.186	5.23
697.214	7.23
697.243	-16.77
697.272	-1.77
697.301	5.23
697.329	8.23
697.358	-9.77
697.387	19.23
697.415	14.23
697.444	7.23
697.473	4.23
697.502	-2.77
697.53	1.23
697.559	-4.77
697.588	-0.77
697.616	-2.77
697.645	3.23
697.674	8.23
697.703	4.23
697.731	8.23
697.76	-2.77
697.789	-10.77
697.817	8.23
697.846	25.23
697.875	16.23
697.903	4.23
697.932	13.23
697.961	6.23
697.989	4.23
698.018	5.23
698.047	4.23
698.075	7.23
698.104	-19.77
698.133	-2.77
698.161	-0.77
698.19	1.23
698.218	-5.77
698.247	8.23
698.276	3.23
698.304	12.23
698.333	10.23
698.362	10.23
698.39	16.23
698.419	13.23
698.447	-5.77
698.476	-3.77
698.505	5.23
698.533	2.23
698.562	15.23
698.591	3.23
698.619	1.23
698.648	11.23
698.676	19.23
698.705	-8.77
698.733	-7.77
698.762	-9.77
698.791	-8.77
698.819	13.23
698.848	7.23
698.876	1.23
698.905	2.23
698.933	-3.77
698.962	8.23
698.991	7.23
699.019	15.23
699.048	-2.77
699.076	1.23
699.105	1.23
699.133	-6.77
699.162	13.23
699.19	11.23
699.219	6.23
699.248	-6.77
699.276	-15.77
699.305	-14.77
699.333	9.23
699.362	17.23
699.39	11.23
699.419	-4.77
699.447	-9.77
699.476	11.23
699.504	-4.77
699.533	1.23
699.561	-4.77
699.59	6.23
699.618	-3.77
699.647	-1.77
699.675	-14.77
699.704	9.23
699.732	5.23
699.761	8.23
699.789	5.23
699.818	5.23
699.846	1.23
699.874	-3.77
699.903	-9.77
699.931	-9.77
699.96	-1.77
699.988	6.23
700.017	0.23
700.045	-2.77
700.074	-11.77
700.102	3.23
700.13	6.23
700.159	16.23
700.187	-10.77
700.216	9.23
700.244	-1.77
700.273	3.23
700.301	-6.77
700.329	1.23
700.358	11.23
700.386	5.23
700.415	12.23
700.443	2.23
700.472	6.23
700.5	-2.77
700.528	7.23
700.557	0.23
700.585	-3.77
700.614	-5.77
700.642	8.23
700.67	11.23
700.699	5.23
700.727	-15.77
700.755	2.23
700.784	1.23
700.812	1.23
700.841	11.23
700.869	6.23
700.897	-16.77
700.926	5.23
700.954	17.23
700.982	25.23
701.011	-1.77
701.039	14.23
701.067	12.23
701.096	5.23
701.124	2.23
701.152	-10.77
701.181	8.23
701.209	-4.77
701.237	-4.77
701.266	-5.77
701.294	-1.77
701.322	12.23
701.351	11.23
701.379	2.23
701.407	-3.77
701.435	6.23
701.464	14.23
701.492	16.23
701.52	1.23
701.549	13.23
701.577	-1.77
701.605	3.23
701.634	1.23
701.662	19.23
701.69	6.23
701.718	-1.77
701.747	16.23
701.775	1.23
701.803	-6.77
701.831	2.23
701.86	-16.77
701.888	4.23
701.916	9.23
701.944	-9.77
701.973	-2.77
702.001	-21.77
702.029	1.23
702.057	-6.77
702.086	-2.77
702.114	-14.77
702.142	5.23
702.17	-2.77
702.199	3.23
702.227	-4.77
702.255	-4.77
702.283	-2.77
702.311	6.23
702.34	-2.77
702.368	-2.77
702.396	7.23
702.424	-5.77
702.452	-5.77
702.481	-8.77
702.509	1.23
702.537	6.23
702.565	-3.77
702.593	-13.77
702.621	-0.77
702.65	14.23
702.678	3.23
702.706	8.23
702.734	-3.77
702.762	15.23
702.79	-3.77
702.819	14.23
702.847	0.23
702.875	23.23
702.903	10.23
702.931	0.23
702.959	-10.77
702.988	-2.77
703.016	-14.77
703.044	5.23
703.072	10.23
703.1	6.23
703.128	2.23
703.156	-1.77
703.184	2.23
703.212	3.23
703.241	8.23
703.269	6.23
703.297	-2.77
703.325	7.23
703.353	-0.77
703.381	-6.77
703.409	-0.77
703.437	-18.77
703.465	5.23
703.493	-14.77
703.522	1.23
703.55	19.23
703.578	1.23
703.606	-11.77
703.634	-9.77
703.662	-0.77
703.69	-15.77
703.718	-11.77
703.746	10.23
703.774	5.23
703.802	7.23
703.83	4.23
703.858	10.23
703.886	-2.77
703.914	-10.77
703.942	0.23
703.97	13.23
703.998	-4.77
704.027	15.23
704.055	-0.77
704.083	7.23
704.111	-0.77
704.139	10.23
704.167	-4.77
704.195	10.23
704.223	1.23
704.251	-5.77
704.279	0.23
704.307	2.23
704.335	-6.77
704.363	-0.77
704.391	-2.77
704.419	3.23
704.447	5.23
704.475	4.23
704.503	9.23
704.531	22.23
704.558	8.23
704.586	5.23
704.614	6.23
704.642	-4.77
704.67	-17.77
704.698	-2.77
704.726	-1.77
704.754	-5.77
704.782	-3.77
704.81	-3.77
704.838	16.23
704.866	-0.77
704.894	-13.77
704.922	-11.77
704.95	0.23
704.978	11.23
705.006	13.23
705.034	17.23
705.061	-3.77
705.089	-16.77
705.117	-0.77
705.145	-5.77
705.173	-9.77
705.201	-9.77
705.229	10.23
705.257	0.23
705.285	15.23
705.313	-3.77
705.34	-3.77
705.368	-4.77
705.396	7.23
705.424	-5.77
705.452	2.23
705.48	3.23
705.508	13.23
705.536	7.23
705.563	1.23
705.591	-0.77
705.619	0.23
705.647	-11.77
705.675	-3.77
705.703	2.23
705.731	-0.77
705.758	15.23
705.786	6.23
705.814	21.23
705.842	7.23
705.87	19.23
705.898	16.23
705.925	2.23
705.953	12.23
705.981	-6.77
706.009	-7.77
706.037	-9.77
706.065	-3.77
706.092	3.23
706.12	-1.77
706.148	-0.77
706.176	-2.77
706.204	6.23
706.231	-0.77
706.259	3.23
706.287	3.23
706.315	6.23
706.342	4.23
706.37	8.23
706.398	-1.77
706.426	-1.77
706.454	-4.77
706.481	15.23
706.509	21.23
706.537	-0.77
706.565	-6.77
706.592	22.23
706.62	-2.77
706.648	-0.77
706.676	0.23
706.703	8.23
706.731	1.23
706.759	-3.77
706.787	8.23
706.814	5.23
706.842	0.23
706.87	7.23
706.897	-5.77
706.925	-6.77
706.953	14.23
706.981	25.23
707.008	4.23
707.036	-1.77
707.064	1.23
707.091	-15.77
707.119	6.23
707.147	-9.77
707.174	-6.77
707.202	8.23
707.23	1.23
707.258	13.23
707.285	-1.77
707.313	-3.77
707.341	-11.77
707.368	-10.77
707.396	-7.77
707.424	15.23
707.451	-0.77
707.479	-7.77
707.507	-6.77
707.534	-10.77
707.562	-7.77
707.59	-14.77
707.617	-10.77
707.645	-4.77
707.672	-2.77
707.7	4.23
707.728	8.23
707.755	16.23
707.783	1.23
707.811	-3.77
707.838	8.23
707.866	-13.77
707.893	4.23
707.921	2.23
707.949	2.23
707.976	-0.77
708.004	1.23
708.031	-0.77
708.059	-7.77
708.087	-13.77
708.114	-7.77
708.142	6.23
708.169	2.23
708.197	-15.77
708.225	-6.77
708.252	9.23
708.28	15.23
708.307	1.23
708.335	-5.77
708.362	-5.77
708.39	-8.77
708.418	-2.77
708.445	-5.77
708.473	-1.77
708.5	16.23
708.528	14.23
708.555	-9.77
708.583	3.23
708.61	-4.77
708.638	-0.77
708.665	-2.77
708.693	8.23
708.72	-17.77
708.748	3.23
708.776	-0.77
708.803	15.23
708.831	7.23
708.858	20.23
708.886	0.23
708.913	-3.77
708.941	-2.77
708.968	9.23
708.996	-23.77
709.023	22.23
709.051	-6.77
709.078	6.23
709.105	-3.77
709.133	6.23
709.16	12.23
709.188	13.23
709.215	9.23
709.243	12.23
709.27	-4.77
709.298	2.23
709.325	-15.77
709.353	6.23
709.38	16.23
709.408	5.23
709.435	2.23
709.462	-8.77
709.49	0.23
709.517	-12.77
709.545	-9.77
709.572	2.23
709.6	4.23
709.627	3.23
709.655	0.23
709.682	-15.77
709.709	-6.77
709.737	-5.77
709.764	0.23
709.792	1.23
709.819	-5.77
709.846	-3.77
709.874	8.23
709.901	15.23
709.929	12.23
709.956	1.23
709.983	-9.77
710.011	-14.77
710.038	-3.77
710.066	-10.77
710.093	0.23
710.12	5.23
710.148	-17.77
710.175	-15.77
710.202	-22.77
710.23	26.23
710.257	10.23
710.284	2.23
710.312	2.23
710.339	6.23
710.366	12.23
710.394	1.23
710.421	-4.77
710.448	2.23
710.476	-8.77
710.503	-2.77
710.53	12.23
710.558	16.23
710.585	2.23
710.612	-8.77
710.64	-1.77
710.667	4.23
710.694	-3.77
710.722	5.23
710.749	-1.77
710.776	-4.77
710.804	19.23
710.831	5.23
710.858	-4.77
710.885	-0.77
710.913	-5.77
710.94	7.23
710.967	1.23
710.995	4.23
711.022	-6.77
711.049	1.23
711.076	-6.77
711.104	-6.77
711.131	-26.77
711.158	-2.77
711.185	5.23
711.213	-6.77
711.24	4.23
711.267	7.23
711.294	0.23
711.322	13.23
711.349	0.23
711.376	-3.77
711.403	-7.77
711.431	-12.77
711.458	8.23
711.485	-9.77
711.512	-3.77
711.54	-4.77
711.567	1.23
711.594	-0.77
711.621	-0.77
711.648	-9.77
711.676	-2.77
711.703	15.23
711.73	-9.77
711.757	1.23
711.784	-5.77
711.812	-5.77
711.839	-5.77
711.866	-10.77
711.893	-1.77
711.92	7.23
711.947	-0.77
711.975	9.23
712.002	1.23
712.029	19.23
712.056	6.23
712.083	4.23
712.11	-13.77
712.138	9.23
712.165	-2.77
712.192	3.23
712.219	-13.77
712.246	-11.77
712.273	3.23
712.3	-1.77
712.328	-0.77
712.355	8.23
712.382	-2.77
712.409	8.23
712.436	-15.77
712.463	21.23
712.49	3.23
712.517	-11.77
712.544	-2.77
712.572	0.23
712.599	-5.77
712.626	3.23
712.653	-8.77
712.68	0.23
712.707	9.23
712.734	10.23
712.761	-1.77
712.788	14.23
712.815	-5.77
712.842	13.23
712.87	5.23
712.897	-2.77
712.924	-13.77
712.951	9.23
712.978	20.23
713.005	12.23
713.032	9.23
713.059	-3.77
713.086	-5.77
713.113	-8.77
713.14	-6.77
713.167	20.23
713.194	13.23
713.221	-3.77
713.248	5.23
713.275	-8.77
713.302	-15.77
713.329	-5.77
713.356	10.23
713.383	5.23
713.41	12.23
713.437	5.23
713.464	1.23
713.491	1.23
713.518	5.23
713.545	-2.77
713.572	-10.77
713.599	13.23
713.626	-6.77
713.653	13.23
713.68	-15.77
713.707	-10.77
713.734	1.23
713.761	13.23
713.788	-7.77
713.815	-3.77
713.842	2.23
713.869	-3.77
713.896	-6.77
713.923	7.23
713.95	-2.77
713.977	-4.77
714.004	-2.77
714.031	-3.77
714.058	-7.77
714.085	-3.77
714.112	10.23
714.139	5.23
714.165	4.23
714.192	0.23
714.219	-0.77
714.246	-0.77
714.273	-1.77
714.3	0.23
714.327	10.23
714.354	16.23
714.381	4.23
714.408	-7.77
714.435	-2.77
714.461	-3.77
714.488	10.23
714.515	-2.77
714.542	-3.77
714.569	-3.77
714.596	-5.77
714.623	-14.77
714.65	-7.77
714.677	3.23
714.703	-5.77
714.73	-9.77
714.757	5.23
714.784	1.23
714.811	-11.77
714.838	-1.77
714.865	1.23
714.891	-0.77
714.918	2.23
714.945	-7.77
714.972	1.23
714.999	17.23
715.026	7.23
715.052	13.23
715.079	-1.77
715.106	0.23
715.133	11.23
715.16	3.23
715.187	25.23
715.213	-15.77
715.24	-16.77
715.267	1.23
715.294	-7.77
715.321	-1.77
715.347	-1.77
715.374	-12.77
715.401	-11.77
715.428	-8.77
715.455	3.23
715.481	-1.77
715.508	2.23
715.535	-0.77
715.562	18.23
715.588	-14.77
715.615	2.23
715.642	2.23
715.669	3.23
715.695	-10.77
715.722	-17.77
715.749	6.23
715.776	18.23
715.802	-2.77
715.829	2.23
715.856	1.23
715.883	6.23
715.909	-5.77
715.936	-3.77
715.963	-0.77
715.99	-8.77
716.016	7.23
716.043	3.23
716.07	-0.77
716.096	-1.77
716.123	-8.77
716.15	-9.77
716.177	9.23
716.203	-5.77
716.23	0.23
716.257	16.23
716.283	17.23
716.31	0.23
716.337	0.23
716.363	-1.77
716.39	16.23
716.417	3.23
716.443	-8.77
716.47	9.23
716.497	31.23
716.523	17.23
716.55	14.23
716.577	3.23
716.603	6.23
716.63	-2.77
716.657	15.23
716.683	-6.77
716.71	-4.77
716.737	-0.77
716.763	6.23
716.79	18.23
716.817	11.23
716.843	-6.77
716.87	-2.77
716.897	13.23
716.923	16.23
716.95	-1.77
716.976	-15.77
717.003	1.23
717.03	7.23
717.056	19.23
717.083	-9.77
717.109	-6.77
717.136	7.23
717.163	-9.77
717.189	10.23
717.216	4.23
717.242	-2.77
717.269	1.23
717.296	10.23
717.322	4.23
717.349	14.23
717.375	20.23
717.402	-1.77
717.428	7.23
717.455	1.23
717.481	16.23
717.508	4.23
717.535	7.23
717.561	-7.77
717.588	-3.77
717.614	0.23
717.641	17.23
717.667	8.23
717.694	-2.77
717.72	-12.77
717.747	6.23
717.773	-5.77
717.8	2.23
717.826	-6.77
717.853	0.23
717.88	13.23
717.906	2.23
717.933	-3.77
717.959	10.23
717.986	-11.77
718.012	-2.77
718.039	12.23
718.065	11.23
718.092	4.23
718.118	-22.77
718.144	-9.77
718.171	9.23
718.197	16.23
718.224	-1.77
718.25	2.23
718.277	2.23
718.303	5.23
718.33	1.23
718.356	-3.77
718.383	-7.77
718.409	2.23
718.436	1.23
718.462	-1.77
718.489	1.23
718.515	22.23
718.541	32.23
718.568	7.23
718.594	-3.77
718.621	10.23
718.647	-11.77
718.674	4.23
718.7	16.23
718.726	-24.77
718.753	-4.77
718.779	-7.77
718.806	-5.77
718.832	-7.77
718.858	5.23
718.885	4.23
718.911	5.23
718.938	-1.77
718.964	-9.77
718.99	2.23
719.017	5.23
719.043	3.23
719.07	12.23
719.096	4.23
719.122	23.23
719.149	21.23
719.175	8.23
719.201	-7.77
719.228	-1.77
719.254	18.23
719.281	-7.77
719.307	6.23
719.333	0.23
719.36	5.23
719.386	-1.77
719.412	8.23
719.439	4.23
719.465	-7.77
719.491	-13.77
719.518	20.23
719.544	14.23
719.57	13.23
719.597	7.23
719.623	-3.77
719.649	-9.77
719.675	14.23
719.702	-8.77
719.728	7.23
719.754	-1.77
719.781	-1.77
719.807	-5.77
719.833	-12.77
719.86	-0.77
719.886	-10.77
719.912	0.23
719.938	-8.77
719.965	-8.77
719.991	18.23
720.017	-1.77
720.044	-1.77
720.07	3.23
720.096	1.23
720.122	16.23
720.149	0.23
720.175	22.23
720.201	0.23
720.227	-1.77
720.254	5.23
720.28	1.23
720.306	-17.77
720.332	5.23
720.359	-2.77
720.385	10.23
720.411	-1.77
720.437	11.23
720.463	-1.77
720.49	19.23
720.516	0.23
720.542	-8.77
720.568	-2.77
720.595	13.23
720.621	-11.77
720.647	4.23
720.673	2.23
720.699	0.23
720.725	1.23
720.752	9.23
720.778	7.23
720.804	-2.77
720.83	17.23
720.856	-5.77
720.883	4.23
720.909	-16.77
720.935	-0.77
720.961	26.23
720.987	-0.77
721.013	12.23
721.04	1.23
721.066	-0.77
721.092	-18.77
721.118	15.23
721.144	9.23
721.17	-3.77
721.196	-0.77
721.223	-7.77
721.249	5.23
721.275	23.23
721.301	5.23
721.327	14.23
721.353	8.23
721.379	0.23
721.405	2.23
721.432	5.23
721.458	-1.77
721.484	6.23
721.51	-22.77
721.536	-7.77
721.562	-11.77
721.588	9.23
721.614	-1.77
721.64	-8.77
721.666	-6.77
721.693	-5.77
721.719	-8.77
721.745	-9.77
721.771	-0.77
721.797	9.23
721.823	1.23
721.849	12.23
721.875	6.23
721.901	-1.77
721.927	-2.77
721.953	9.23
721.979	8.23
722.005	0.23
722.031	4.23
722.057	3.23
722.083	7.23
722.109	-3.77
722.135	-0.77
722.161	13.23
722.187	-1.77
722.214	-6.77
722.24	1.23
722.266	-1.77
722.292	5.23
722.318	5.23
722.344	-6.77
722.37	6.23
722.396	11.23
722.422	-1.77
722.448	-4.77
722.474	-5.77
722.5	13.23
722.526	-8.77
722.552	2.23
722.578	-11.77
722.603	11.23
722.629	-1.77
722.655	18.23
722.681	-13.77
722.707	12.23
722.733	29.23
722.759	-3.77
722.785	-9.77
722.811	-7.77
722.837	6.23
722.863	9.23
722.889	14.23
722.915	-11.77
722.941	-16.77
722.967	-3.77
722.993	16.23
723.019	24.23
723.045	15.23
723.071	22.23
723.097	9.23
723.122	5.23
723.148	-3.77
723.174	4.23
723.2	7.23
723.226	-1.77
723.252	-2.77
723.278	-0.77
723.304	-1.77
723.33	7.23
723.356	-3.77
723.381	3.23
723.407	-21.77
723.433	5.23
723.459	-9.77
723.485	0.23
723.511	-7.77
723.537	-2.77
723.563	-3.77
723.588	2.23
723.614	7.23
723.64	-6.77
723.666	6.23
723.692	6.23
723.718	4.23
723.744	-5.77
723.769	-7.77
723.795	-0.77
723.821	-6.77
723.847	-6.77
723.873	5.23
723.899	10.23
723.924	7.23
723.95	-1.77
723.976	-1.77
724.002	6.23
724.028	7.23
724.053	6.23
724.079	5.23
724.105	-6.77
724.131	-5.77
724.157	10.23
724.182	21.23
724.208	1.23
724.234	-7.77
724.26	-2.77
724.286	7.23
724.311	-1.77
724.337	-7.77
724.363	-9.77
724.389	2.23
724.415	3.23
724.44	18.23
724.466	-1.77
724.492	-8.77
724.518	1.23
724.543	2.23
724.569	24.23
724.595	11.23
724.621	-1.77
724.646	-5.77
724.672	-13.77
724.698	3.23
724.723	10.23
724.749	1.23
724.775	6.23
724.801	3.23
724.826	-8.77
724.852	-14.77
724.878	-6.77
724.904	-7.77
724.929	10.23
724.955	-7.77
724.981	16.23
725.006	-11.77
725.032	6.23
725.058	11.23
725.083	-1.77
725.109	-3.77
725.135	3.23
725.161	-12.77
725.186	-0.77
725.212	-10.77
725.238	0.23
725.263	0.23
725.289	-2.77
725.315	-13.77
725.34	-3.77
725.366	8.23
725.392	12.23
725.417	0.23
725.443	-4.77
725.468	5.23
725.494	1.23
725.52	1.23
725.545	-14.77
725.571	-8.77
725.597	-7.77
725.622	-2.77
725.648	7.23
725.674	8.23
725.699	10.23
725.725	-3.77
725.75	21.23
725.776	-2.77
725.802	-2.77
725.827	8.23
725.853	-9.77
725.878	-0.77
725.904	-3.77
725.93	3.23
725.955	4.23
725.981	-11.77
726.006	-9.77
726.032	2.23
726.057	-5.77
726.083	-13.77
726.109	-0.77
726.134	1.23
726.16	-16.77
726.185	-18.77
726.211	-9.77
726.236	-2.77
726.262	-2.77
726.288	13.23
726.313	13.23
726.339	6.23
726.364	-9.77
726.39	2.23
726.415	-5.77
726.441	4.23
726.466	-4.77
726.492	12.23
726.517	0.23
726.543	1.23
726.568	-12.77
726.594	-1.77
726.619	-6.77
726.645	-2.77
726.67	2.23
726.696	4.23
726.721	-5.77
726.747	3.23
726.772	-7.77
726.798	-11.77
726.823	0.23
726.849	8.23
726.874	20.23
726.9	21.23
726.925	9.23
726.951	12.23
726.976	12.23
727.002	-1.77
727.027	5.23
727.053	6.23
727.078	-10.77
727.104	-0.77
727.129	-6.77
727.155	-3.77
727.18	-7.77
727.205	-13.77
727.231	-7.77
727.256	-9.77
727.282	7.23
727.307	9.23
727.333	-7.77
727.358	-8.77
727.383	-4.77
727.409	-13.77
727.434	-1.77
727.46	-3.77
727.485	-4.77
727.511	10.23
727.536	-21.77
727.561	1.23
727.587	-1.77
727.612	-8.77
727.637	-8.77
727.663	-3.77
727.688	17.23
727.714	0.23
727.739	-12.77
727.764	-4.77
727.79	6.23
727.815	4.23
727.841	8.23
727.866	-5.77
727.891	18.23
727.917	-3.77
727.942	-12.77
727.967	-8.77
727.993	-8.77
728.018	-7.77
728.043	-6.77
728.069	9.23
728.094	16.23
728.119	-12.77
728.145	12.23
728.17	5.23
728.195	9.23
728.221	17.23
728.246	4.23
728.271	-2.77
728.297	-2.77
728.322	-6.77
728.347	8.23
728.373	5.23
728.398	8.23
728.423	1.23
728.448	9.23
728.474	18.23
728.499	10.23
728.524	6.23
728.55	-10.77
728.575	7.23
728.6	9.23
728.625	5.23
728.651	6.23
728.676	-1.77
728.701	11.23
728.727	-0.77
728.752	-13.77
728.777	-5.77
728.802	0.23
728.828	-1.77
728.853	6.23
728.878	1.23
728.903	-2.77
728.929	-3.77
728.954	-6.77
728.979	5.23
729.004	-0.77
729.03	-7.77
729.055	-3.77
729.08	13.23
729.105	-2.77
729.13	9.23
729.156	14.23
729.181	2.23
729.206	-9.77
729.231	-5.77
729.256	16.23
729.282	5.23
729.307	-0.77
729.332	8.23
729.357	-9.77
729.382	0.23
729.408	3.23
729.433	0.23
729.458	10.23
729.483	15.23
729.508	33.23
729.533	22.23
729.559	12.23
729.584	2.23
729.609	12.23
729.634	27.23
729.659	-2.77
729.684	-6.77
729.71	16.23
729.735	0.23
729.76	-7.77
729.785	-8.77
729.81	7.23
729.835	-15.77
729.86	-2.77
729.886	26.23
729.911	1.23
729.936	4.23
729.961	33.23
729.986	22.23
730.011	64.23
730.036	204.23
730.061	971.23
730.086	2713.23
730.112	3426.23
730.137	2836.23
730.162	2142.23
730.187	1649.23
730.212	1269.23
730.237	801.23
730.262	465.23
730.287	255.23
730.312	152.23
730.337	74.23
730.362	67.23
730.387	27.23
730.413	6.23
730.438	9.23
730.463	12.23
730.488	11.23
730.513	19.23
730.538	11.23
730.563	22.23
730.588	4.23
730.613	21.23
730.638	1.23
730.663	10.23
730.688	32.23
730.713	18.23
730.738	-6.77
730.763	4.23
730.788	-25.77
730.813	12.23
730.838	9.23
730.863	16.23
730.888	1.23
730.913	-7.77
730.938	-11.77
730.963	37.23
730.988	119.23
731.013	404.23
731.038	598.23
731.063	596.23
731.088	464.23
731.113	357.23
731.138	270.23
731.163	191.23
731.188	109.23
731.213	68.23
731.238	52.23
731.263	12.23
731.288	9.23
731.313	20.23
731.338	12.23
731.363	10.23
731.388	3.23
731.413	4.23
731.438	17.23
731.463	11.23
731.487	4.23
731.512	2.23
731.537	-0.77
731.562	18.23
731.587	-2.77
731.612	2.23
731.637	5.23
731.662	0.23
731.687	-1.77
731.712	-7.77
731.737	13.23
731.762	2.23
731.786	6.23
731.811	12.23
731.836	-3.77
731.861	6.23
731.886	-1.77
731.911	5.23
731.936	9.23
731.961	5.23
731.986	-5.77
732.01	-6.77
732.035	-2.77
732.06	5.23
732.085	-5.77
732.11	8.23
732.135	-8.77
732.16	-13.77
732.184	-14.77
732.209	-1.77
732.234	1.23
732.259	2.23
732.284	30.23
732.309	2.23
732.334	13.23
732.358	-8.77
732.383	-17.77
732.408	6.23
732.433	13.23
732.458	5.23
732.482	-7.77
732.507	3.23
732.532	6.23
732.557	6.23
732.582	16.23
732.607	18.23
732.631	45.23
732.656	87.23
732.681	140.23
732.706	328.23
732.73	448.23
732.755	409.23
732.78	303.23
732.805	227.23
732.83	167.23
732.854	125.23
732.879	69.23
732.904	38.23
732.929	23.23
732.953	25.23
732.978	16.23
733.003	-7.77
733.028	-6.77
733.052	13.23
733.077	6.23
733.102	10.23
733.127	-17.77
733.151	-18.77
733.176	-6.77
733.201	-22.77
733.226	-6.77
733.25	-3.77
733.275	-1.77
733.3	9.23
733.324	24.23
733.349	20.23
733.374	19.23
733.399	-5.77
733.423	-15.77
733.448	-3.77
733.473	-5.77
733.497	0.23
733.522	-18.77
733.547	29.23
733.571	17.23
733.596	-3.77
733.621	5.23
733.646	7.23
733.67	9.23
733.695	-9.77
733.72	4.23
733.744	18.23
733.769	7.23
733.794	26.23
733.818	-7.77
733.843	-15.77
733.867	-12.77
733.892	-1.77
733.917	6.23
733.941	0.23
733.966	-0.77
733.991	10.23
734.015	18.23
734.04	7.23
734.065	6.23
734.089	12.23
734.114	-7.77
734.138	2.23
734.163	6.23
734.188	12.23
734.212	20.23
734.237	8.23
734.261	-5.77
734.286	0.23
734.311	-8.77
734.335	2.23
734.36	13.23
734.384	2.23
734.409	3.23
734.434	-10.77
734.458	-3.77
734.483	3.23
734.507	-14.77
734.532	8.23
734.556	1.23
734.581	12.23
734.606	9.23
734.63	-11.77
734.655	-2.77
734.679	-2.77
734.704	6.23
734.728	-15.77
734.753	6.23
734.777	0.23
734.802	4.23
734.826	0.23
734.851	1.23
734.876	2.23
734.9	5.23
734.925	18.23
734.949	18.23
734.974	-0.77
734.998	0.23
735.023	-6.77
735.047	1.23
735.072	8.23
735.096	1.23
735.121	0.23
735.145	-4.77
735.17	0.23
735.194	5.23
735.219	0.23
735.243	-3.77
735.268	11.23
735.292	-7.77
735.317	0.23
735.341	-2.77
735.365	-1.77
735.39	12.23
735.414	13.23
735.439	14.23
735.463	-3.77
735.488	0.23
735.512	-5.77
735.537	-7.77
735.561	-2.77
735.586	-4.77
735.61	7.23
735.634	-9.77
735.659	13.23
735.683	16.23
735.708	1.23
735.732	-7.77
735.757	-0.77
735.781	-2.77
735.805	4.23
735.83	4.23
735.854	-0.77
735.879	0.23
735.903	9.23
735.927	0.23
735.952	-12.77
735.976	-5.77
736.001	-4.77
736.025	-11.77
736.049	8.23
736.074	2.23
736.098	4.23
736.123	5.23
736.147	4.23
736.171	2.23
736.196	4.23
736.22	-11.77
736.244	24.23
736.269	0.23
736.293	-19.77
736.317	-1.77
736.342	-0.77
736.366	24.23
736.39	9.23
736.415	13.23
736.439	-3.77
736.463	-0.77
736.488	-1.77
736.512	-2.77
736.536	7.23
736.561	21.23
736.585	-5.77
736.609	10.23
736.634	1.23
736.658	-2.77
736.682	-7.77
736.707	-14.77
736.731	-3.77
736.755	6.23
736.78	14.23
736.804	14.23
736.828	12.23
736.852	-2.77
736.877	6.23
736.901	10.23
736.925	6.23
736.949	2.23
736.974	8.23
736.998	-15.77
737.022	-7.77
737.047	10.23
737.071	5.23
737.095	17.23
737.119	24.23
737.144	12.23
737.168	-4.77
737.192	17.23
737.216	3.23
737.241	6.23
737.265	4.23
737.289	0.23
737.313	-4.77
737.337	11.23
737.362	9.23
737.386	-8.77
737.41	-10.77
737.434	4.23
737.459	1.23
737.483	6.23
737.507	-7.77
737.531	16.23
737.555	8.23
737.58	4.23
737.604	1.23
737.628	-14.77
737.652	-6.77
737.676	12.23
737.701	1.23
737.725	12.23
737.749	2.23
737.773	-6.77
737.797	-9.77
737.821	3.23
737.846	-7.77
737.87	23.23
737.894	6.23
737.918	-0.77
737.942	-3.77
737.966	14.23
737.99	3.23
738.015	-8.77
738.039	2.23
738.063	14.23
738.087	15.23
738.111	1.23
738.135	18.23
738.159	16.23
738.184	-6.77
738.208	-1.77
738.232	4.23
738.256	6.23
738.28	14.23
738.304	14.23
738.328	-5.77
738.352	4.23
738.376	-2.77
738.4	-0.77
738.425	7.23
738.449	-6.77
738.473	22.23
738.497	8.23
738.521	-2.77
738.545	0.23
738.569	12.23
738.593	11.23
738.617	9.23
738.641	-8.77
738.665	0.23
738.689	5.23
738.713	-0.77
738.737	4.23
738.762	24.23
738.786	15.23
738.81	-14.77
738.834	32.23
738.858	12.23
738.882	0.23
738.906	-3.77
738.93	0.23
738.954	1.23
738.978	-2.77
739.002	-1.77
739.026	22.23
739.05	5.23
739.074	13.23
739.098	15.23
739.122	20.23
739.146	15.23
739.17	31.23
739.194	14.23
739.218	6.23
739.242	0.23
739.266	-7.77
739.29	14.23
739.314	13.23
739.338	8.23
739.362	-3.77
739.386	9.23
739.41	-1.77
739.434	-15.77
739.458	12.23
739.482	4.23
739.506	9.23
739.53	-6.77
739.554	19.23
739.577	-8.77
739.601	8.23
739.625	-9.77
739.649	1.23
739.673	-10.77
739.697	5.23
739.721	15.23
739.745	6.23
739.769	21.23
739.793	15.23
739.817	14.23
739.841	-3.77
739.865	9.23
739.889	-15.77
739.912	12.23
739.936	-11.77
739.96	-5.77
739.984	12.23
740.008	-4.77
740.032	5.23
740.056	13.23
740.08	5.23
740.104	0.23
740.127	1.23
740.151	12.23
740.175	20.23
740.199	22.23
740.223	41.23
740.247	10.23
740.271	9.23
740.295	-0.77
740.318	-8.77
740.342	7.23
740.366	-3.77
740.39	12.23
740.414	-0.77
740.438	-7.77
740.461	8.23
740.485	0.23
740.509	-11.77
740.533	4.23
740.557	-13.77
740.581	-13.77
740.604	-18.77
740.628	6.23
740.652	6.23
740.676	-2.77
740.7	5.23
740.723	1.23
740.747	-1.77
740.771	-5.77
740.795	-11.77
740.819	8.23
740.842	1.23
740.866	18.23
740.89	8.23
740.914	-10.77
740.938	-9.77
740.961	8.23
740.985	10.23
741.009	5.23
741.033	4.23
741.056	10.23
741.08	8.23
741.104	5.23
741.128	-3.77
741.151	2.23
741.175	-5.77
741.199	8.23
741.223	13.23
741.246	-7.77
741.27	-2.77
741.294	4.23
741.318	1.23
741.341	-0.77
741.365	3.23
741.389	9.23
741.413	0.23
741.436	-0.77
741.46	2.23
741.484	13.23
741.507	2.23
741.531	15.23
741.555	3.23
741.579	-1.77
741.602	4.23
741.626	-2.77
741.65	-5.77
741.673	16.23
741.697	6.23
741.721	23.23
741.744	-15.77
741.768	0.23
741.792	4.23
741.815	-8.77
741.839	17.23
741.863	10.23
741.886	6.23
741.91	1.23
741.934	-1.77
741.957	-10.77
741.981	8.23
742.005	-4.77
742.028	11.23
742.052	-5.77
742.075	-4.77
742.099	6.23
742.123	-3.77
742.146	2.23
742.17	12.23
742.194	-21.77
742.217	1.23
742.241	-0.77
742.264	4.23
742.288	1.23
742.312	-5.77
742.335	3.23
742.359	4.23
742.382	2.23
742.406	4.23
742.43	-14.77
742.453	-0.77
742.477	-12.77
742.5	-1.77
742.524	-0.77
742.548	-9.77
742.571	13.23
742.595	8.23
742.618	0.23
742.642	-2.77
742.665	8.23
742.689	-3.77
742.712	4.23
742.736	-3.77
742.76	-6.77
742.783	-19.77
742.807	4.23
742.83	8.23
742.854	-21.77
742.877	-2.77
742.901	9.23
742.924	-9.77
742.948	-3.77
742.971	5.23
742.995	9.23
743.018	-9.77
743.042	-15.77
743.065	7.23
743.089	-10.77
743.112	-1.77
743.136	-1.77
743.159	-4.77
743.183	0.23
743.206	1.23
743.23	-8.77
743.253	13.23
743.277	16.23
743.3	-7.77
743.324	0.23
743.347	-5.77
743.371	7.23
743.394	11.23
743.418	9.23
743.441	24.23
743.465	3.23
743.488	1.23
743.512	-14.77
743.535	15.23
743.558	4.23
743.582	2.23
743.605	-1.77
743.629	-6.77
743.652	12.23
743.676	4.23
743.699	16.23
743.723	7.23
743.746	-5.77
743.769	4.23
743.793	8.23
743.816	2.23
743.84	18.23
743.863	1.23
743.886	12.23
743.91	6.23
743.933	17.23
743.957	10.23
743.98	-10.77
744.003	6.23
744.027	3.23
744.05	-6.77
744.074	-3.77
744.097	-16.77
744.12	-7.77
744.144	6.23
744.167	6.23
744.19	1.23
744.214	1.23
744.237	-3.77
744.26	21.23
744.284	-1.77
744.307	-13.77
744.331	-9.77
744.354	-4.77
744.377	0.23
744.401	-11.77
744.424	-9.77
744.447	-10.77
744.471	-3.77
