Data from HighRes_H2D2_15_04_11_07_2024_HR4C61891__9__15-05-35-343.txt Node

Date: Thu Nov 07 15:05:35 EST 2024
User: crc00042
Spectrometer: HR4C6189
Trigger mode: 4
Integration Time (sec): 1.000000E-1
Scans to average: 1
Electric dark correction enabled: true
Nonlinearity correction enabled: false
Boxcar width: 0
XAxis mode: Wavelengths
Number of Pixels in Spectrum: 3648
>>>>>Begin Spectral Data<<<<<
639.567	-73.54
639.602	-73.54
639.636	-73.54
639.67	-56.54
639.704	-11.54
639.738	-13.54
639.773	9.46
639.807	-12.54
639.841	-2.54
639.875	9.46
639.909	-5.54
639.943	-19.54
639.978	3.46
640.012	10.46
640.046	17.46
640.08	10.46
640.114	2.46
640.148	-9.54
640.182	10.46
640.217	12.46
640.251	12.46
640.285	17.46
640.319	-4.54
640.353	-7.54
640.387	-18.54
640.421	-10.54
640.455	8.46
640.49	4.46
640.524	-4.54
640.558	3.46
640.592	12.46
640.626	9.46
640.66	-1.54
640.694	-13.54
640.728	15.46
640.762	13.46
640.796	15.46
640.83	12.46
640.865	-27.54
640.899	-18.54
640.933	-2.54
640.967	6.46
641.001	6.46
641.035	-0.54
641.069	19.46
641.103	-13.54
641.137	-6.54
641.171	-7.54
641.205	12.46
641.239	6.46
641.273	14.46
641.307	13.46
641.341	9.46
641.375	18.46
641.409	-4.54
641.443	3.46
641.477	-6.54
641.511	4.46
641.545	-4.54
641.579	5.46
641.614	11.46
641.648	7.46
641.682	5.46
641.716	15.46
641.75	19.46
641.784	6.46
641.818	8.46
641.852	13.46
641.886	-8.54
641.919	23.46
641.953	6.46
641.987	1.46
642.021	11.46
642.055	-0.54
642.089	-5.54
642.123	3.46
642.157	-1.54
642.191	-7.54
642.225	13.46
642.259	-9.54
642.293	7.46
642.327	-0.54
642.361	-6.54
642.395	12.46
642.429	24.46
642.463	-1.54
642.497	11.46
642.531	2.46
642.565	-14.54
642.599	17.46
642.633	-9.54
642.666	27.46
642.7	22.46
642.734	21.46
642.768	-3.54
642.802	-0.54
642.836	17.46
642.87	7.46
642.904	11.46
642.938	-2.54
642.972	7.46
643.005	-8.54
643.039	10.46
643.073	-1.54
643.107	6.46
643.141	-4.54
643.175	4.46
643.209	-9.54
643.243	10.46
643.276	10.46
643.31	-11.54
643.344	8.46
643.378	-2.54
643.412	24.46
643.446	4.46
643.48	-3.54
643.513	-8.54
643.547	-0.54
643.581	10.46
643.615	9.46
643.649	1.46
643.683	-4.54
643.716	2.46
643.75	2.46
643.784	-3.54
643.818	17.46
643.852	8.46
643.886	11.46
643.919	11.46
643.953	-0.54
643.987	-5.54
644.021	19.46
644.055	17.46
644.088	0.46
644.122	-5.54
644.156	-6.54
644.19	-0.54
644.224	8.46
644.257	19.46
644.291	25.46
644.325	14.46
644.359	-13.54
644.392	13.46
644.426	22.46
644.46	-1.54
644.494	-0.54
644.527	-3.54
644.561	11.46
644.595	20.46
644.629	7.46
644.662	8.46
644.696	0.46
644.73	-1.54
644.764	1.46
644.797	13.46
644.831	18.46
644.865	20.46
644.899	0.46
644.932	34.46
644.966	10.46
645	16.46
645.033	16.46
645.067	-3.54
645.101	7.46
645.135	1.46
645.168	-3.54
645.202	-15.54
645.236	9.46
645.269	28.46
645.303	-2.54
645.337	-8.54
645.37	-25.54
645.404	-1.54
645.438	8.46
645.471	-3.54
645.505	9.46
645.539	10.46
645.572	-15.54
645.606	-19.54
645.64	3.46
645.673	4.46
645.707	21.46
645.741	3.46
645.774	-3.54
645.808	-2.54
645.842	7.46
645.875	3.46
645.909	6.46
645.943	-11.54
645.976	1.46
646.01	1.46
646.043	-0.54
646.077	22.46
646.111	16.46
646.144	16.46
646.178	12.46
646.212	-20.54
646.245	-5.54
646.279	7.46
646.312	17.46
646.346	14.46
646.38	8.46
646.413	15.46
646.447	10.46
646.48	10.46
646.514	4.46
646.547	-3.54
646.581	-19.54
646.615	-9.54
646.648	-6.54
646.682	22.46
646.715	9.46
646.749	12.46
646.782	-0.54
646.816	13.46
646.85	20.46
646.883	20.46
646.917	2.46
646.95	12.46
646.984	-2.54
647.017	-6.54
647.051	1.46
647.084	15.46
647.118	4.46
647.151	6.46
647.185	-6.54
647.218	-15.54
647.252	-2.54
647.285	-0.54
647.319	-10.54
647.353	3.46
647.386	6.46
647.42	-1.54
647.453	12.46
647.487	6.46
647.52	0.46
647.553	16.46
647.587	8.46
647.62	-3.54
647.654	8.46
647.687	1.46
647.721	7.46
647.754	-0.54
647.788	2.46
647.821	11.46
647.855	14.46
647.888	11.46
647.922	7.46
647.955	-2.54
647.989	10.46
648.022	-0.54
648.055	6.46
648.089	-6.54
648.122	19.46
648.156	-1.54
648.189	-5.54
648.223	7.46
648.256	27.46
648.29	28.46
648.323	4.46
648.356	11.46
648.39	8.46
648.423	17.46
648.457	11.46
648.49	19.46
648.523	10.46
648.557	-1.54
648.59	-2.54
648.624	7.46
648.657	6.46
648.69	27.46
648.724	18.46
648.757	29.46
648.791	23.46
648.824	5.46
648.857	19.46
648.891	6.46
648.924	1.46
648.957	12.46
648.991	-24.54
649.024	9.46
649.057	2.46
649.091	8.46
649.124	5.46
649.158	8.46
649.191	21.46
649.224	-15.54
649.258	3.46
649.291	12.46
649.324	14.46
649.358	-12.54
649.391	-1.54
649.424	19.46
649.458	4.46
649.491	12.46
649.524	-1.54
649.557	-2.54
649.591	0.46
649.624	8.46
649.657	2.46
649.691	-10.54
649.724	3.46
649.757	7.46
649.791	-14.54
649.824	9.46
649.857	12.46
649.89	8.46
649.924	1.46
649.957	9.46
649.99	-20.54
650.023	2.46
650.057	-7.54
650.09	0.46
650.123	13.46
650.157	13.46
650.19	23.46
650.223	-3.54
650.256	-1.54
650.29	-0.54
650.323	-2.54
650.356	3.46
650.389	1.46
650.423	-3.54
650.456	12.46
650.489	11.46
650.522	4.46
650.555	1.46
650.589	10.46
650.622	-1.54
650.655	13.46
650.688	3.46
650.721	9.46
650.755	9.46
650.788	6.46
650.821	6.46
650.854	11.46
650.887	2.46
650.921	4.46
650.954	4.46
650.987	5.46
651.02	-5.54
651.053	-12.54
651.087	-10.54
651.12	5.46
651.153	13.46
651.186	-6.54
651.219	-5.54
651.252	11.46
651.286	9.46
651.319	1.46
651.352	12.46
651.385	4.46
651.418	10.46
651.451	13.46
651.484	17.46
651.518	6.46
651.551	20.46
651.584	-7.54
651.617	15.46
651.65	1.46
651.683	12.46
651.716	3.46
651.749	-16.54
651.783	2.46
651.816	12.46
651.849	21.46
651.882	0.46
651.915	17.46
651.948	3.46
651.981	1.46
652.014	-7.54
652.047	3.46
652.08	13.46
652.114	-0.54
652.147	-17.54
652.18	-1.54
652.213	27.46
652.246	18.46
652.279	-2.54
652.312	16.46
652.345	11.46
652.378	7.46
652.411	29.46
652.444	27.46
652.477	17.46
652.51	6.46
652.543	2.46
652.576	17.46
652.609	-19.54
652.642	8.46
652.675	23.46
652.709	-3.54
652.742	1.46
652.775	3.46
652.808	14.46
652.841	1.46
652.874	20.46
652.907	15.46
652.94	7.46
652.973	-15.54
653.006	2.46
653.039	-4.54
653.072	2.46
653.105	-3.54
653.138	-19.54
653.171	-12.54
653.204	-0.54
653.237	3.46
653.27	2.46
653.303	9.46
653.336	-13.54
653.368	-9.54
653.401	9.46
653.434	-8.54
653.467	6.46
653.5	-4.54
653.533	-2.54
653.566	5.46
653.599	-13.54
653.632	2.46
653.665	12.46
653.698	-7.54
653.731	-2.54
653.764	2.46
653.797	12.46
653.83	15.46
653.863	-15.54
653.896	10.46
653.929	15.46
653.961	10.46
653.994	4.46
654.027	-5.54
654.06	0.46
654.093	23.46
654.126	15.46
654.159	-8.54
654.192	-10.54
654.225	4.46
654.258	-10.54
654.29	13.46
654.323	8.46
654.356	-16.54
654.389	2.46
654.422	2.46
654.455	5.46
654.488	9.46
654.521	-8.54
654.553	-8.54
654.586	10.46
654.619	5.46
654.652	-14.54
654.685	11.46
654.718	-0.54
654.751	-1.54
654.783	-4.54
654.816	-1.54
654.849	5.46
654.882	-1.54
654.915	-17.54
654.948	0.46
654.98	7.46
655.013	2.46
655.046	-4.54
655.079	2.46
655.112	-3.54
655.144	-23.54
655.177	8.46
655.21	17.46
655.243	9.46
655.276	15.46
655.308	-0.54
655.341	-6.54
655.374	20.46
655.407	-5.54
655.44	3.46
655.472	11.46
655.505	12.46
655.538	8.46
655.571	6.46
655.603	-1.54
655.636	11.46
655.669	15.46
655.702	17.46
655.734	7.46
655.767	-3.54
655.8	-5.54
655.833	17.46
655.865	15.46
655.898	3.46
655.931	11.46
655.964	14.46
655.996	19.46
656.029	30.46
656.062	27.46
656.095	49.46
656.127	66.46
656.16	206.46
656.193	642.46
656.225	957.46
656.258	571.46
656.291	226.46
656.324	188.46
656.356	368.46
656.389	774.46
656.422	687.46
656.454	236.46
656.487	89.46
656.52	38.46
656.552	17.46
656.585	11.46
656.618	9.46
656.65	15.46
656.683	12.46
656.716	22.46
656.748	-5.54
656.781	4.46
656.814	-7.54
656.846	6.46
656.879	-0.54
656.912	0.46
656.944	-8.54
656.977	-10.54
657.01	-9.54
657.042	15.46
657.075	-2.54
657.108	-11.54
657.14	13.46
657.173	-3.54
657.205	29.46
657.238	13.46
657.271	-7.54
657.303	-7.54
657.336	7.46
657.369	12.46
657.401	0.46
657.434	2.46
657.466	4.46
657.499	19.46
657.532	-0.54
657.564	4.46
657.597	5.46
657.629	9.46
657.662	-0.54
657.694	0.46
657.727	-15.54
657.76	7.46
657.792	7.46
657.825	-14.54
657.857	20.46
657.89	-5.54
657.922	26.46
657.955	-2.54
657.987	24.46
658.02	22.46
658.053	19.46
658.085	8.46
658.118	13.46
658.15	12.46
658.183	20.46
658.215	-4.54
658.248	-18.54
658.28	-1.54
658.313	15.46
658.345	8.46
658.378	1.46
658.41	-13.54
658.443	14.46
658.475	17.46
658.508	-7.54
658.54	-1.54
658.573	-5.54
658.605	8.46
658.638	7.46
658.67	1.46
658.703	2.46
658.735	-3.54
658.768	5.46
658.8	-12.54
658.833	19.46
658.865	16.46
658.898	8.46
658.93	-3.54
658.963	-6.54
658.995	-18.54
659.028	-12.54
659.06	13.46
659.092	-4.54
659.125	4.46
659.157	2.46
659.19	-12.54
659.222	7.46
659.255	14.46
659.287	-15.54
659.32	11.46
659.352	5.46
659.384	21.46
659.417	1.46
659.449	13.46
659.482	12.46
659.514	-1.54
659.546	13.46
659.579	-13.54
659.611	0.46
659.644	5.46
659.676	-1.54
659.708	-17.54
659.741	-2.54
659.773	6.46
659.806	0.46
659.838	10.46
659.87	-7.54
659.903	-1.54
659.935	18.46
659.967	-6.54
660	13.46
660.032	9.46
660.065	39.46
660.097	1.46
660.129	11.46
660.162	-15.54
660.194	19.46
660.226	3.46
660.259	-4.54
660.291	-5.54
660.323	5.46
660.356	5.46
660.388	7.46
660.42	-23.54
660.453	19.46
660.485	6.46
660.517	20.46
660.55	15.46
660.582	5.46
660.614	10.46
660.647	11.46
660.679	-20.54
660.711	18.46
660.743	-5.54
660.776	-7.54
660.808	4.46
660.84	2.46
660.873	4.46
660.905	2.46
660.937	10.46
660.969	15.46
661.002	4.46
661.034	16.46
661.066	-5.54
661.099	1.46
661.131	7.46
661.163	-3.54
661.195	10.46
661.228	6.46
661.26	-11.54
661.292	3.46
661.324	3.46
661.357	7.46
661.389	7.46
661.421	1.46
661.453	7.46
661.485	-8.54
661.518	-10.54
661.55	-15.54
661.582	-9.54
661.614	-6.54
661.647	-1.54
661.679	2.46
661.711	4.46
661.743	-2.54
661.775	4.46
661.808	16.46
661.84	-7.54
661.872	2.46
661.904	2.46
661.936	2.46
661.969	-8.54
662.001	-0.54
662.033	14.46
662.065	-0.54
662.097	-4.54
662.129	14.46
662.162	0.46
662.194	-6.54
662.226	7.46
662.258	14.46
662.29	-3.54
662.322	-11.54
662.355	-10.54
662.387	30.46
662.419	11.46
662.451	9.46
662.483	4.46
662.515	8.46
662.547	14.46
662.58	1.46
662.612	-7.54
662.644	-12.54
662.676	3.46
662.708	9.46
662.74	-0.54
662.772	8.46
662.804	10.46
662.836	1.46
662.869	5.46
662.901	8.46
662.933	-1.54
662.965	25.46
662.997	9.46
663.029	-0.54
663.061	6.46
663.093	7.46
663.125	-14.54
663.157	9.46
663.189	3.46
663.221	10.46
663.254	-5.54
663.286	7.46
663.318	-17.54
663.35	-9.54
663.382	4.46
663.414	11.46
663.446	7.46
663.478	-3.54
663.51	35.46
663.542	-9.54
663.574	5.46
663.606	0.46
663.638	-15.54
663.67	-13.54
663.702	-3.54
663.734	8.46
663.766	3.46
663.798	1.46
663.83	-3.54
663.862	5.46
663.894	9.46
663.926	-5.54
663.958	7.46
663.99	16.46
664.022	4.46
664.054	6.46
664.086	-1.54
664.118	-4.54
664.15	-14.54
664.182	6.46
664.214	9.46
664.246	2.46
664.278	-1.54
664.31	11.46
664.342	-2.54
664.374	0.46
664.406	-7.54
664.438	-1.54
664.47	12.46
664.502	-8.54
664.534	0.46
664.566	-11.54
664.598	17.46
664.63	10.46
664.662	4.46
664.693	-0.54
664.725	-6.54
664.757	-0.54
664.789	1.46
664.821	14.46
664.853	7.46
664.885	-3.54
664.917	-4.54
664.949	10.46
664.981	25.46
665.013	16.46
665.045	0.46
665.076	0.46
665.108	-6.54
665.14	-8.54
665.172	-5.54
665.204	-14.54
665.236	-4.54
665.268	14.46
665.3	1.46
665.331	-5.54
665.363	0.46
665.395	-11.54
665.427	-9.54
665.459	19.46
665.491	5.46
665.523	-0.54
665.555	-16.54
665.586	16.46
665.618	-3.54
665.65	-6.54
665.682	4.46
665.714	-0.54
665.746	-14.54
665.777	4.46
665.809	-11.54
665.841	1.46
665.873	1.46
665.905	8.46
665.937	19.46
665.968	6.46
666	23.46
666.032	-3.54
666.064	6.46
666.096	10.46
666.127	17.46
666.159	3.46
666.191	18.46
666.223	-8.54
666.255	3.46
666.286	24.46
666.318	7.46
666.35	15.46
666.382	0.46
666.413	-20.54
666.445	-13.54
666.477	-7.54
666.509	7.46
666.54	-2.54
666.572	-2.54
666.604	8.46
666.636	-4.54
666.667	11.46
666.699	19.46
666.731	7.46
666.763	1.46
666.794	8.46
666.826	-6.54
666.858	-3.54
666.89	-4.54
666.921	5.46
666.953	6.46
666.985	-13.54
667.017	19.46
667.048	14.46
667.08	13.46
667.112	-0.54
667.143	-20.54
667.175	-6.54
667.207	-0.54
667.238	5.46
667.27	-1.54
667.302	4.46
667.334	-8.54
667.365	23.46
667.397	10.46
667.429	0.46
667.46	10.46
667.492	-5.54
667.524	8.46
667.555	-5.54
667.587	10.46
667.619	12.46
667.65	1.46
667.682	20.46
667.714	23.46
667.745	8.46
667.777	-15.54
667.808	-2.54
667.84	12.46
667.872	-5.54
667.903	23.46
667.935	4.46
667.967	0.46
667.998	0.46
668.03	-8.54
668.061	20.46
668.093	-2.54
668.125	-0.54
668.156	-3.54
668.188	-1.54
668.22	-3.54
668.251	-8.54
668.283	14.46
668.314	30.46
668.346	-4.54
668.377	-1.54
668.409	8.46
668.441	1.46
668.472	-3.54
668.504	5.46
668.535	-1.54
668.567	16.46
668.599	24.46
668.63	-9.54
668.662	2.46
668.693	-0.54
668.725	-6.54
668.756	12.46
668.788	6.46
668.819	12.46
668.851	12.46
668.882	9.46
668.914	-3.54
668.946	-1.54
668.977	-1.54
669.009	4.46
669.04	-8.54
669.072	-3.54
669.103	3.46
669.135	3.46
669.166	-5.54
669.198	-6.54
669.229	8.46
669.261	-0.54
669.292	-0.54
669.324	-3.54
669.355	13.46
669.387	-12.54
669.418	10.46
669.45	-12.54
669.481	4.46
669.513	13.46
669.544	16.46
669.576	10.46
669.607	22.46
669.639	11.46
669.67	-17.54
669.701	11.46
669.733	-7.54
669.764	-5.54
669.796	-16.54
669.827	-1.54
669.859	-7.54
669.89	-8.54
669.922	7.46
669.953	-0.54
669.985	17.46
670.016	20.46
670.047	7.46
670.079	-0.54
670.11	-0.54
670.142	-1.54
670.173	15.46
670.204	1.46
670.236	3.46
670.267	11.46
670.299	9.46
670.33	7.46
670.362	11.46
670.393	-6.54
670.424	2.46
670.456	-11.54
670.487	-3.54
670.518	2.46
670.55	5.46
670.581	-5.54
670.613	10.46
670.644	-14.54
670.675	-22.54
670.707	5.46
670.738	6.46
670.769	-9.54
670.801	-16.54
670.832	7.46
670.864	19.46
670.895	6.46
670.926	13.46
670.958	11.46
670.989	3.46
671.02	3.46
671.052	9.46
671.083	10.46
671.114	-8.54
671.146	-2.54
671.177	13.46
671.208	-15.54
671.24	-6.54
671.271	-0.54
671.302	7.46
671.333	2.46
671.365	-14.54
671.396	4.46
671.427	3.46
671.459	-4.54
671.49	6.46
671.521	-2.54
671.553	2.46
671.584	12.46
671.615	-6.54
671.646	5.46
671.678	8.46
671.709	-7.54
671.74	-18.54
671.771	0.46
671.803	9.46
671.834	23.46
671.865	8.46
671.896	14.46
671.928	0.46
671.959	-3.54
671.99	3.46
672.021	7.46
672.053	-1.54
672.084	20.46
672.115	6.46
672.146	10.46
672.178	-15.54
672.209	-0.54
672.24	-1.54
672.271	12.46
672.303	8.46
672.334	3.46
672.365	2.46
672.396	15.46
672.427	5.46
672.459	12.46
672.49	19.46
672.521	9.46
672.552	2.46
672.583	15.46
672.615	7.46
672.646	14.46
672.677	-11.54
672.708	5.46
672.739	-0.54
672.77	11.46
672.802	25.46
672.833	7.46
672.864	7.46
672.895	-4.54
672.926	-27.54
672.957	-27.54
672.989	10.46
673.02	6.46
673.051	-15.54
673.082	13.46
673.113	-0.54
673.144	4.46
673.175	-1.54
673.206	-24.54
673.238	-4.54
673.269	17.46
673.3	-1.54
673.331	10.46
673.362	1.46
673.393	0.46
673.424	18.46
673.455	14.46
673.487	7.46
673.518	11.46
673.549	-2.54
673.58	-2.54
673.611	-7.54
673.642	-11.54
673.673	-7.54
673.704	4.46
673.735	2.46
673.766	-12.54
673.797	15.46
673.828	4.46
673.86	-8.54
673.891	-7.54
673.922	-5.54
673.953	-1.54
673.984	-0.54
674.015	-1.54
674.046	-1.54
674.077	-8.54
674.108	-13.54
674.139	7.46
674.17	-2.54
674.201	0.46
674.232	-2.54
674.263	-11.54
674.294	-1.54
674.325	-5.54
674.356	13.46
674.387	12.46
674.418	2.46
674.449	2.46
674.48	2.46
674.511	-6.54
674.542	10.46
674.573	-14.54
674.604	9.46
674.635	14.46
674.666	12.46
674.697	-2.54
674.728	7.46
674.759	-7.54
674.79	-18.54
674.821	0.46
674.852	-8.54
674.883	-7.54
674.914	0.46
674.945	13.46
674.976	-4.54
675.007	-0.54
675.038	-1.54
675.069	-12.54
675.1	-4.54
675.131	14.46
675.162	-11.54
675.193	9.46
675.224	-1.54
675.254	9.46
675.285	29.46
675.316	4.46
675.347	3.46
675.378	-4.54
675.409	-8.54
675.44	-3.54
675.471	3.46
675.502	-20.54
675.533	11.46
675.564	9.46
675.595	-3.54
675.625	22.46
675.656	-1.54
675.687	0.46
675.718	-5.54
675.749	16.46
675.78	-1.54
675.811	-1.54
675.842	6.46
675.873	6.46
675.903	1.46
675.934	7.46
675.965	3.46
675.996	-8.54
676.027	19.46
676.058	12.46
676.089	-9.54
676.119	10.46
676.15	-0.54
676.181	-6.54
676.212	9.46
676.243	2.46
676.274	-15.54
676.304	13.46
676.335	9.46
676.366	2.46
676.397	3.46
676.428	11.46
676.459	2.46
676.489	7.46
676.52	3.46
676.551	3.46
676.582	-0.54
676.613	-0.54
676.643	-1.54
676.674	8.46
676.705	3.46
676.736	10.46
676.767	33.46
676.797	11.46
676.828	9.46
676.859	10.46
676.89	-9.54
676.92	11.46
676.951	11.46
676.982	9.46
677.013	6.46
677.044	10.46
677.074	3.46
677.105	-7.54
677.136	6.46
677.167	-4.54
677.197	8.46
677.228	7.46
677.259	-5.54
677.289	2.46
677.32	-8.54
677.351	-7.54
677.382	-3.54
677.412	-1.54
677.443	4.46
677.474	7.46
677.505	-4.54
677.535	-12.54
677.566	15.46
677.597	7.46
677.627	-13.54
677.658	-7.54
677.689	-5.54
677.72	-2.54
677.75	-0.54
677.781	-0.54
677.812	-4.54
677.842	5.46
677.873	11.46
677.904	-0.54
677.934	10.46
677.965	4.46
677.996	-8.54
678.026	9.46
678.057	19.46
678.088	2.46
678.118	17.46
678.149	3.46
678.18	-13.54
678.21	1.46
678.241	-4.54
678.272	5.46
678.302	-0.54
678.333	3.46
678.363	8.46
678.394	9.46
678.425	2.46
678.455	6.46
678.486	16.46
678.517	-6.54
678.547	7.46
678.578	-0.54
678.608	-6.54
678.639	-3.54
678.67	5.46
678.7	5.46
678.731	-3.54
678.761	6.46
678.792	12.46
678.823	18.46
678.853	-0.54
678.884	-19.54
678.914	7.46
678.945	-4.54
678.975	-3.54
679.006	21.46
679.037	2.46
679.067	23.46
679.098	7.46
679.128	-9.54
679.159	-0.54
679.189	21.46
679.22	-1.54
679.25	-0.54
679.281	12.46
679.312	-0.54
679.342	16.46
679.373	28.46
679.403	3.46
679.434	0.46
679.464	-7.54
679.495	9.46
679.525	4.46
679.556	-2.54
679.586	7.46
679.617	6.46
679.647	2.46
679.678	19.46
679.708	12.46
679.739	9.46
679.769	8.46
679.8	-11.54
679.83	14.46
679.861	-3.54
679.891	1.46
679.922	-4.54
679.952	-9.54
679.983	11.46
680.013	2.46
680.044	-6.54
680.074	4.46
680.105	13.46
680.135	3.46
680.165	16.46
680.196	28.46
680.226	10.46
680.257	19.46
680.287	3.46
680.318	0.46
680.348	-4.54
680.379	7.46
680.409	4.46
680.439	-2.54
680.47	-9.54
680.5	8.46
680.531	-1.54
680.561	1.46
680.592	0.46
680.622	7.46
680.652	6.46
680.683	13.46
680.713	1.46
680.744	-5.54
680.774	-1.54
680.804	21.46
680.835	-2.54
680.865	-0.54
680.896	20.46
680.926	19.46
680.956	-3.54
680.987	4.46
681.017	-6.54
681.047	4.46
681.078	2.46
681.108	20.46
681.139	9.46
681.169	5.46
681.199	1.46
681.23	12.46
681.26	0.46
681.29	15.46
681.321	-3.54
681.351	0.46
681.381	-17.54
681.412	13.46
681.442	14.46
681.472	3.46
681.503	10.46
681.533	-2.54
681.563	-9.54
681.594	-0.54
681.624	0.46
681.654	9.46
681.685	3.46
681.715	-8.54
681.745	10.46
681.775	13.46
681.806	12.46
681.836	2.46
681.866	-0.54
681.897	7.46
681.927	3.46
681.957	-7.54
681.987	0.46
682.018	15.46
682.048	18.46
682.078	3.46
682.109	8.46
682.139	7.46
682.169	-3.54
682.199	10.46
682.23	4.46
682.26	9.46
682.29	-3.54
682.32	-4.54
682.351	3.46
682.381	7.46
682.411	20.46
682.441	-8.54
682.472	-0.54
682.502	-3.54
682.532	-1.54
682.562	7.46
682.592	3.46
682.623	17.46
682.653	12.46
682.683	-12.54
682.713	6.46
682.743	-7.54
682.774	1.46
682.804	-1.54
682.834	19.46
682.864	11.46
682.894	0.46
682.925	-5.54
682.955	-6.54
682.985	-11.54
683.015	2.46
683.045	4.46
683.076	-17.54
683.106	-0.54
683.136	-3.54
683.166	3.46
683.196	7.46
683.226	-3.54
683.257	-4.54
683.287	-14.54
683.317	1.46
683.347	0.46
683.377	5.46
683.407	18.46
683.437	2.46
683.468	12.46
683.498	-11.54
683.528	8.46
683.558	24.46
683.588	-1.54
683.618	-5.54
683.648	-7.54
683.678	7.46
683.708	15.46
683.739	14.46
683.769	6.46
683.799	10.46
683.829	6.46
683.859	14.46
683.889	24.46
683.919	-1.54
683.949	-9.54
683.979	-3.54
684.009	-0.54
684.039	10.46
684.07	-4.54
684.1	29.46
684.13	23.46
684.16	7.46
684.19	-12.54
684.22	10.46
684.25	-3.54
684.28	-7.54
684.31	7.46
684.34	9.46
684.37	0.46
684.4	-6.54
684.43	6.46
684.46	8.46
684.49	9.46
684.52	23.46
684.55	-6.54
684.58	5.46
684.61	8.46
684.64	14.46
684.67	18.46
684.7	1.46
684.73	15.46
684.76	2.46
684.79	26.46
684.82	-0.54
684.85	-6.54
684.88	20.46
684.91	1.46
684.94	12.46
684.97	-11.54
685	1.46
685.03	-8.54
685.06	3.46
685.09	16.46
685.12	29.46
685.15	-2.54
685.18	6.46
685.21	3.46
685.24	16.46
685.27	15.46
685.3	-3.54
685.33	-0.54
685.36	-1.54
685.39	0.46
685.42	7.46
685.45	16.46
685.48	17.46
685.51	4.46
685.54	8.46
685.569	3.46
685.599	-3.54
685.629	6.46
685.659	23.46
685.689	18.46
685.719	17.46
685.749	5.46
685.779	11.46
685.809	17.46
685.839	11.46
685.869	13.46
685.898	4.46
685.928	3.46
685.958	-2.54
685.988	27.46
686.018	-7.54
686.048	-3.54
686.078	0.46
686.108	25.46
686.137	5.46
686.167	26.46
686.197	8.46
686.227	7.46
686.257	18.46
686.287	12.46
686.317	-14.54
686.346	1.46
686.376	10.46
686.406	10.46
686.436	24.46
686.466	-6.54
686.496	7.46
686.525	8.46
686.555	1.46
686.585	-1.54
686.615	32.46
686.645	-4.54
686.675	3.46
686.704	12.46
686.734	4.46
686.764	-4.54
686.794	6.46
686.824	-0.54
686.853	7.46
686.883	8.46
686.913	2.46
686.943	2.46
686.973	0.46
687.002	-7.54
687.032	6.46
687.062	-3.54
687.092	8.46
687.121	-14.54
687.151	3.46
687.181	3.46
687.211	13.46
687.24	0.46
687.27	7.46
687.3	-0.54
687.33	4.46
687.359	-0.54
687.389	12.46
687.419	14.46
687.449	10.46
687.478	10.46
687.508	3.46
687.538	17.46
687.568	11.46
687.597	2.46
687.627	4.46
687.657	0.46
687.686	10.46
687.716	16.46
687.746	-4.54
687.776	-8.54
687.805	1.46
687.835	-7.54
687.865	9.46
687.894	19.46
687.924	3.46
687.954	3.46
687.983	-1.54
688.013	19.46
688.043	8.46
688.072	7.46
688.102	15.46
688.132	-1.54
688.161	-3.54
688.191	-2.54
688.221	19.46
688.25	2.46
688.28	12.46
688.31	0.46
688.339	1.46
688.369	-5.54
688.399	7.46
688.428	-10.54
688.458	1.46
688.488	-14.54
688.517	10.46
688.547	-4.54
688.576	24.46
688.606	20.46
688.636	5.46
688.665	19.46
688.695	2.46
688.725	24.46
688.754	19.46
688.784	16.46
688.813	23.46
688.843	6.46
688.873	3.46
688.902	1.46
688.932	-1.54
688.961	8.46
688.991	20.46
689.02	15.46
689.05	-5.54
689.08	8.46
689.109	30.46
689.139	16.46
689.168	2.46
689.198	5.46
689.227	-9.54
689.257	-1.54
689.287	19.46
689.316	-2.54
689.346	-11.54
689.375	-2.54
689.405	21.46
689.434	3.46
689.464	-2.54
689.493	-0.54
689.523	-8.54
689.552	-6.54
689.582	8.46
689.611	-7.54
689.641	14.46
689.67	-7.54
689.7	3.46
689.73	24.46
689.759	11.46
689.789	23.46
689.818	9.46
689.848	-4.54
689.877	12.46
689.906	-1.54
689.936	-11.54
689.965	10.46
689.995	21.46
690.024	6.46
690.054	-1.54
690.083	11.46
690.113	2.46
690.142	2.46
690.172	2.46
690.201	0.46
690.231	17.46
690.26	6.46
690.29	6.46
690.319	12.46
690.348	13.46
690.378	-2.54
690.407	9.46
690.437	-3.54
690.466	10.46
690.496	6.46
690.525	18.46
690.555	-0.54
690.584	3.46
690.613	7.46
690.643	13.46
690.672	18.46
690.702	5.46
690.731	0.46
690.76	23.46
690.79	-1.54
690.819	-8.54
690.849	8.46
690.878	11.46
690.907	15.46
690.937	8.46
690.966	15.46
690.996	14.46
691.025	6.46
691.054	7.46
691.084	3.46
691.113	4.46
691.142	13.46
691.172	-2.54
691.201	10.46
691.23	21.46
691.26	23.46
691.289	13.46
691.319	14.46
691.348	19.46
691.377	32.46
691.407	16.46
691.436	16.46
691.465	7.46
691.495	-1.54
691.524	-5.54
691.553	0.46
691.583	-6.54
691.612	12.46
691.641	8.46
691.67	-12.54
691.7	16.46
691.729	-12.54
691.758	7.46
691.788	2.46
691.817	-0.54
691.846	5.46
691.876	10.46
691.905	14.46
691.934	4.46
691.963	29.46
691.993	17.46
692.022	-9.54
692.051	7.46
692.081	13.46
692.11	15.46
692.139	8.46
692.168	-0.54
692.198	15.46
692.227	5.46
692.256	19.46
692.285	9.46
692.315	-3.54
692.344	-0.54
692.373	10.46
692.402	-12.54
692.432	-1.54
692.461	-0.54
692.49	-5.54
692.519	1.46
692.548	23.46
692.578	5.46
692.607	6.46
692.636	5.46
692.665	4.46
692.694	-2.54
692.724	15.46
692.753	17.46
692.782	25.46
692.811	1.46
692.84	6.46
692.87	14.46
692.899	1.46
692.928	13.46
692.957	9.46
692.986	9.46
693.016	18.46
693.045	18.46
693.074	17.46
693.103	14.46
693.132	21.46
693.161	11.46
693.191	3.46
693.22	-4.54
693.249	12.46
693.278	9.46
693.307	31.46
693.336	-4.54
693.365	-14.54
693.395	-9.54
693.424	3.46
693.453	29.46
693.482	4.46
693.511	14.46
693.54	4.46
693.569	3.46
693.598	11.46
693.628	16.46
693.657	-4.54
693.686	28.46
693.715	18.46
693.744	25.46
693.773	11.46
693.802	5.46
693.831	-9.54
693.86	17.46
693.889	-8.54
693.919	1.46
693.948	3.46
693.977	14.46
694.006	-7.54
694.035	-1.54
694.064	-0.54
694.093	2.46
694.122	-1.54
694.151	-6.54
694.18	5.46
694.209	33.46
694.238	8.46
694.267	18.46
694.296	17.46
694.325	11.46
694.354	20.46
694.383	18.46
694.412	-6.54
694.441	-0.54
694.471	1.46
694.5	2.46
694.529	14.46
694.558	9.46
694.587	22.46
694.616	-2.54
694.645	-2.54
694.674	25.46
694.703	28.46
694.732	7.46
694.761	11.46
694.79	6.46
694.819	-11.54
694.848	6.46
694.877	9.46
694.906	16.46
694.935	10.46
694.963	22.46
694.992	-6.54
695.021	11.46
695.05	7.46
695.079	0.46
695.108	4.46
695.137	17.46
695.166	13.46
695.195	0.46
695.224	27.46
695.253	14.46
695.282	23.46
695.311	26.46
695.34	9.46
695.369	14.46
695.398	4.46
695.427	18.46
695.456	5.46
695.485	-0.54
695.513	6.46
695.542	17.46
695.571	1.46
695.6	19.46
695.629	9.46
695.658	17.46
695.687	0.46
695.716	7.46
695.745	18.46
695.774	-4.54
695.802	7.46
695.831	7.46
695.86	15.46
695.889	18.46
695.918	1.46
695.947	-3.54
695.976	8.46
696.005	14.46
696.033	16.46
696.062	2.46
696.091	1.46
696.12	4.46
696.149	25.46
696.178	-3.54
696.207	7.46
696.235	-17.54
696.264	8.46
696.293	8.46
696.322	4.46
696.351	-7.54
696.38	-10.54
696.408	4.46
696.437	7.46
696.466	0.46
696.495	13.46
696.524	23.46
696.553	7.46
696.581	-3.54
696.61	-2.54
696.639	-13.54
696.668	13.46
696.697	-5.54
696.725	9.46
696.754	17.46
696.783	-4.54
696.812	2.46
696.84	0.46
696.869	-3.54
696.898	2.46
696.927	-3.54
696.956	19.46
696.984	2.46
697.013	8.46
697.042	5.46
697.071	7.46
697.099	19.46
697.128	22.46
697.157	20.46
697.186	-1.54
697.214	-0.54
697.243	3.46
697.272	7.46
697.301	16.46
697.329	3.46
697.358	12.46
697.387	20.46
697.415	28.46
697.444	10.46
697.473	-5.54
697.502	-4.54
697.53	13.46
697.559	2.46
697.588	0.46
697.616	2.46
697.645	9.46
697.674	12.46
697.703	-7.54
697.731	7.46
697.76	-3.54
697.789	3.46
697.817	-3.54
697.846	27.46
697.875	14.46
697.903	20.46
697.932	17.46
697.961	22.46
697.989	8.46
698.018	11.46
698.047	-7.54
698.075	0.46
698.104	-4.54
698.133	1.46
698.161	0.46
698.19	-0.54
698.218	9.46
698.247	12.46
698.276	10.46
698.304	16.46
698.333	27.46
698.362	20.46
698.39	5.46
698.419	9.46
698.447	0.46
698.476	0.46
698.505	3.46
698.533	25.46
698.562	6.46
698.591	-12.54
698.619	-13.54
698.648	1.46
698.676	3.46
698.705	4.46
698.733	1.46
698.762	12.46
698.791	-0.54
698.819	4.46
698.848	-0.54
698.876	9.46
698.905	9.46
698.933	8.46
698.962	10.46
698.991	5.46
699.019	21.46
699.048	9.46
699.076	-1.54
699.105	-8.54
699.133	7.46
699.162	12.46
699.19	39.46
699.219	9.46
699.248	11.46
699.276	1.46
699.305	-8.54
699.333	1.46
699.362	4.46
699.39	5.46
699.419	0.46
699.447	-5.54
699.476	2.46
699.504	7.46
699.533	5.46
699.561	-5.54
699.59	6.46
699.618	9.46
699.647	4.46
699.675	12.46
699.704	19.46
699.732	-4.54
699.761	2.46
699.789	5.46
699.818	-0.54
699.846	-3.54
699.874	-0.54
699.903	11.46
699.931	-5.54
699.96	8.46
699.988	2.46
700.017	-8.54
700.045	3.46
700.074	-7.54
700.102	-0.54
700.13	3.46
700.159	-2.54
700.187	1.46
700.216	-8.54
700.244	-16.54
700.273	3.46
700.301	6.46
700.329	13.46
700.358	23.46
700.386	6.46
700.415	17.46
700.443	0.46
700.472	0.46
700.5	8.46
700.528	9.46
700.557	5.46
700.585	3.46
700.614	-2.54
700.642	22.46
700.67	25.46
700.699	14.46
700.727	2.46
700.755	17.46
700.784	15.46
700.812	11.46
700.841	12.46
700.869	13.46
700.897	-10.54
700.926	7.46
700.954	3.46
700.982	-3.54
701.011	2.46
701.039	9.46
701.067	19.46
701.096	12.46
701.124	2.46
701.152	11.46
701.181	19.46
701.209	-9.54
701.237	5.46
701.266	6.46
701.294	-2.54
701.322	20.46
701.351	25.46
701.379	26.46
701.407	10.46
701.435	10.46
701.464	19.46
701.492	18.46
701.52	-9.54
701.549	4.46
701.577	-4.54
701.605	4.46
701.634	0.46
701.662	11.46
701.69	-5.54
701.718	-3.54
701.747	2.46
701.775	14.46
701.803	-10.54
701.831	14.46
701.86	-0.54
701.888	7.46
701.916	2.46
701.944	1.46
701.973	-4.54
702.001	-14.54
702.029	15.46
702.057	7.46
702.086	-16.54
702.114	-23.54
702.142	13.46
702.17	10.46
702.199	16.46
702.227	1.46
702.255	19.46
702.283	-3.54
702.311	4.46
702.34	10.46
702.368	1.46
702.396	-0.54
702.424	-14.54
702.452	-3.54
702.481	1.46
702.509	5.46
702.537	17.46
702.565	8.46
702.593	-14.54
702.621	-2.54
702.65	16.46
702.678	11.46
702.706	11.46
702.734	-1.54
702.762	11.46
702.79	4.46
702.819	11.46
702.847	18.46
702.875	16.46
702.903	25.46
702.931	8.46
702.959	11.46
702.988	7.46
703.016	-4.54
703.044	-1.54
703.072	2.46
703.1	-4.54
703.128	4.46
703.156	0.46
703.184	2.46
703.212	15.46
703.241	24.46
703.269	16.46
703.297	2.46
703.325	10.46
703.353	-15.54
703.381	-3.54
703.409	1.46
703.437	-7.54
703.465	9.46
703.493	1.46
703.522	5.46
703.55	21.46
703.578	5.46
703.606	0.46
703.634	-0.54
703.662	1.46
703.69	2.46
703.718	3.46
703.746	15.46
703.774	-2.54
703.802	27.46
703.83	13.46
703.858	3.46
703.886	-1.54
703.914	0.46
703.942	17.46
703.97	-4.54
703.998	-1.54
704.027	18.46
704.055	10.46
704.083	11.46
704.111	-4.54
704.139	-2.54
704.167	12.46
704.195	0.46
704.223	-7.54
704.251	-3.54
704.279	7.46
704.307	-8.54
704.335	-9.54
704.363	-2.54
704.391	-2.54
704.419	2.46
704.447	4.46
704.475	-3.54
704.503	-0.54
704.531	5.46
704.558	-4.54
704.586	-3.54
704.614	-2.54
704.642	2.46
704.67	-21.54
704.698	-4.54
704.726	13.46
704.754	7.46
704.782	-0.54
704.81	-0.54
704.838	14.46
704.866	12.46
704.894	-5.54
704.922	-9.54
704.95	1.46
704.978	12.46
705.006	2.46
705.034	20.46
705.061	-21.54
705.089	0.46
705.117	-9.54
705.145	3.46
705.173	2.46
705.201	4.46
705.229	16.46
705.257	3.46
705.285	16.46
705.313	-4.54
705.34	-6.54
705.368	-9.54
705.396	-1.54
705.424	10.46
705.452	2.46
705.48	3.46
705.508	4.46
705.536	6.46
705.563	-3.54
705.591	-8.54
705.619	-5.54
705.647	-8.54
705.675	-8.54
705.703	4.46
705.731	3.46
705.758	-1.54
705.786	-0.54
705.814	8.46
705.842	3.46
705.87	7.46
705.898	20.46
705.925	13.46
705.953	16.46
705.981	-13.54
706.009	16.46
706.037	17.46
706.065	3.46
706.092	-5.54
706.12	-1.54
706.148	8.46
706.176	8.46
706.204	13.46
706.231	9.46
706.259	3.46
706.287	14.46
706.315	1.46
706.342	-8.54
706.37	10.46
706.398	-4.54
706.426	3.46
706.454	9.46
706.481	10.46
706.509	3.46
706.537	-3.54
706.565	5.46
706.592	19.46
706.62	4.46
706.648	1.46
706.676	-4.54
706.703	11.46
706.731	-6.54
706.759	1.46
706.787	15.46
706.814	-1.54
706.842	6.46
706.87	3.46
706.897	11.46
706.925	1.46
706.953	24.46
706.981	25.46
707.008	15.46
707.036	19.46
707.064	6.46
707.091	-12.54
707.119	11.46
707.147	0.46
707.174	-14.54
707.202	21.46
707.23	-8.54
707.258	2.46
707.285	-4.54
707.313	10.46
707.341	3.46
707.368	5.46
707.396	20.46
707.424	12.46
707.451	-7.54
707.479	15.46
707.507	2.46
707.534	2.46
707.562	0.46
707.59	9.46
707.617	-8.54
707.645	4.46
707.672	3.46
707.7	19.46
707.728	28.46
707.755	16.46
707.783	8.46
707.811	14.46
707.838	3.46
707.866	16.46
707.893	4.46
707.921	0.46
707.949	-3.54
707.976	-7.54
708.004	-0.54
708.031	4.46
708.059	3.46
708.087	-1.54
708.114	-2.54
708.142	2.46
708.169	-16.54
708.197	-14.54
708.225	-1.54
708.252	-8.54
708.28	11.46
708.307	-3.54
708.335	9.46
708.362	6.46
708.39	4.46
708.418	5.46
708.445	-9.54
708.473	0.46
708.5	4.46
708.528	10.46
708.555	-9.54
708.583	-5.54
708.61	-2.54
708.638	-3.54
708.665	-5.54
708.693	-0.54
708.72	-4.54
708.748	-10.54
708.776	-26.54
708.803	7.46
708.831	6.46
708.858	6.46
708.886	-0.54
708.913	11.46
708.941	2.46
708.968	28.46
708.996	0.46
709.023	27.46
709.051	4.46
709.078	-4.54
709.105	10.46
709.133	-5.54
709.16	7.46
709.188	17.46
709.215	1.46
709.243	11.46
709.27	-19.54
709.298	-3.54
709.325	-12.54
709.353	3.46
709.38	1.46
709.408	10.46
709.435	-0.54
709.462	5.46
709.49	7.46
709.517	-9.54
709.545	-0.54
709.572	-2.54
709.6	17.46
709.627	12.46
709.655	4.46
709.682	-0.54
709.709	-0.54
709.737	-9.54
709.764	-12.54
709.792	1.46
709.819	12.46
709.846	-4.54
709.874	1.46
709.901	21.46
709.929	33.46
709.956	16.46
709.983	-1.54
710.011	6.46
710.038	-4.54
710.066	3.46
710.093	14.46
710.12	14.46
710.148	-7.54
710.175	2.46
710.202	-2.54
710.23	-13.54
710.257	0.46
710.284	1.46
710.312	15.46
710.339	-2.54
710.366	14.46
710.394	-4.54
710.421	-3.54
710.448	-0.54
710.476	-9.54
710.503	16.46
710.53	6.46
710.558	18.46
710.585	12.46
710.612	0.46
710.64	10.46
710.667	18.46
710.694	-6.54
710.722	3.46
710.749	7.46
710.776	-5.54
710.804	25.46
710.831	8.46
710.858	8.46
710.885	11.46
710.913	19.46
710.94	20.46
710.967	-1.54
710.995	-13.54
711.022	9.46
711.049	11.46
711.076	2.46
711.104	6.46
711.131	0.46
711.158	-0.54
711.185	3.46
711.213	-12.54
711.24	-5.54
711.267	-3.54
711.294	-0.54
711.322	17.46
711.349	-1.54
711.376	14.46
711.403	10.46
711.431	2.46
711.458	-0.54
711.485	-1.54
711.512	10.46
711.54	0.46
711.567	15.46
711.594	-0.54
711.621	0.46
711.648	-5.54
711.676	3.46
711.703	5.46
711.73	-6.54
711.757	7.46
711.784	-0.54
711.812	5.46
711.839	1.46
711.866	4.46
711.893	-6.54
711.92	12.46
711.947	9.46
711.975	23.46
712.002	7.46
712.029	1.46
712.056	7.46
712.083	18.46
712.11	-20.54
712.138	7.46
712.165	2.46
712.192	-0.54
712.219	0.46
712.246	6.46
712.273	6.46
712.3	12.46
712.328	1.46
712.355	15.46
712.382	-3.54
712.409	13.46
712.436	-14.54
712.463	-1.54
712.49	12.46
712.517	-1.54
712.544	-0.54
712.572	6.46
712.599	7.46
712.626	17.46
712.653	-4.54
712.68	-4.54
712.707	10.46
712.734	5.46
712.761	6.46
712.788	10.46
712.815	-2.54
712.842	19.46
712.87	2.46
712.897	7.46
712.924	-19.54
712.951	11.46
712.978	20.46
713.005	16.46
713.032	2.46
713.059	-2.54
713.086	7.46
713.113	-12.54
713.14	-16.54
713.167	1.46
713.194	11.46
713.221	0.46
713.248	5.46
713.275	-3.54
713.302	-11.54
713.329	6.46
713.356	11.46
713.383	19.46
713.41	6.46
713.437	-5.54
713.464	4.46
713.491	11.46
713.518	14.46
713.545	-8.54
713.572	-1.54
713.599	8.46
713.626	-6.54
713.653	-3.54
713.68	-13.54
713.707	3.46
713.734	4.46
713.761	-8.54
713.788	-8.54
713.815	3.46
713.842	-9.54
713.869	-6.54
713.896	4.46
713.923	5.46
713.95	-2.54
713.977	-10.54
714.004	-6.54
714.031	-5.54
714.058	-6.54
714.085	0.46
714.112	23.46
714.139	11.46
714.165	-0.54
714.192	7.46
714.219	11.46
714.246	3.46
714.273	9.46
714.3	-1.54
714.327	9.46
714.354	7.46
714.381	2.46
714.408	10.46
714.435	3.46
714.461	2.46
714.488	4.46
714.515	-1.54
714.542	-1.54
714.569	-0.54
714.596	-9.54
714.623	-5.54
714.65	-7.54
714.677	21.46
714.703	0.46
714.73	-4.54
714.757	7.46
714.784	11.46
714.811	8.46
714.838	10.46
714.865	-6.54
714.891	9.46
714.918	13.46
714.945	3.46
714.972	0.46
714.999	15.46
715.026	-4.54
715.052	-2.54
715.079	1.46
715.106	7.46
715.133	4.46
715.16	0.46
715.187	3.46
715.213	4.46
715.24	-4.54
715.267	-13.54
715.294	1.46
715.321	2.46
715.347	2.46
715.374	3.46
715.401	-4.54
715.428	-6.54
715.455	-1.54
715.481	-3.54
715.508	4.46
715.535	11.46
715.562	30.46
715.588	21.46
715.615	11.46
715.642	9.46
715.669	22.46
715.695	5.46
715.722	9.46
715.749	8.46
715.776	13.46
715.802	8.46
715.829	7.46
715.856	-8.54
715.883	14.46
715.909	-2.54
715.936	-8.54
715.963	-1.54
715.99	-0.54
716.016	-2.54
716.043	7.46
716.07	-0.54
716.096	-10.54
716.123	-3.54
716.15	9.46
716.177	17.46
716.203	6.46
716.23	3.46
716.257	4.46
716.283	16.46
716.31	15.46
716.337	-1.54
716.363	0.46
716.39	8.46
716.417	2.46
716.443	11.46
716.47	10.46
716.497	19.46
716.523	24.46
716.55	16.46
716.577	28.46
716.603	8.46
716.63	9.46
716.657	11.46
716.683	0.46
716.71	11.46
716.737	-1.54
716.763	14.46
716.79	18.46
716.817	19.46
716.843	9.46
716.87	-1.54
716.897	3.46
716.923	13.46
716.95	15.46
716.976	-9.54
717.003	4.46
717.03	18.46
717.056	11.46
717.083	2.46
717.109	6.46
717.136	6.46
717.163	-4.54
717.189	7.46
717.216	-4.54
717.242	6.46
717.269	6.46
717.296	4.46
717.322	20.46
717.349	12.46
717.375	10.46
717.402	-7.54
717.428	11.46
717.455	9.46
717.481	5.46
717.508	6.46
717.535	17.46
717.561	8.46
717.588	-7.54
717.614	-0.54
717.641	-10.54
717.667	10.46
717.694	10.46
717.72	10.46
717.747	3.46
717.773	9.46
717.8	24.46
717.826	20.46
717.853	0.46
717.88	10.46
717.906	11.46
717.933	10.46
717.959	-1.54
717.986	7.46
718.012	9.46
718.039	19.46
718.065	19.46
718.092	23.46
718.118	10.46
718.144	-2.54
718.171	18.46
718.197	19.46
718.224	7.46
718.25	6.46
718.277	7.46
718.303	4.46
718.33	2.46
718.356	7.46
718.383	0.46
718.409	1.46
718.436	2.46
718.462	-1.54
718.489	-9.54
718.515	12.46
718.541	30.46
718.568	11.46
718.594	-3.54
718.621	3.46
718.647	6.46
718.674	-4.54
718.7	-2.54
718.726	-13.54
718.753	2.46
718.779	11.46
718.806	-9.54
718.832	4.46
718.858	7.46
718.885	-8.54
718.911	6.46
718.938	8.46
718.964	-3.54
718.99	6.46
719.017	16.46
719.043	17.46
719.07	10.46
719.096	4.46
719.122	22.46
719.149	28.46
719.175	5.46
719.201	1.46
719.228	-8.54
719.254	-2.54
719.281	-8.54
719.307	4.46
719.333	-0.54
719.36	8.46
719.386	16.46
719.412	22.46
719.439	-2.54
719.465	-1.54
719.491	-8.54
719.518	20.46
719.544	14.46
719.57	11.46
719.597	7.46
719.623	2.46
719.649	6.46
719.675	7.46
719.702	7.46
719.728	18.46
719.754	-3.54
719.781	-6.54
719.807	7.46
719.833	4.46
719.86	14.46
719.886	9.46
719.912	12.46
719.938	-3.54
719.965	17.46
719.991	19.46
720.017	6.46
720.044	17.46
720.07	7.46
720.096	5.46
720.122	11.46
720.149	12.46
720.175	13.46
720.201	12.46
720.227	9.46
720.254	10.46
720.28	6.46
720.306	0.46
720.332	-2.54
720.359	10.46
720.385	10.46
720.411	4.46
720.437	7.46
720.463	8.46
720.49	8.46
720.516	-9.54
720.542	-14.54
720.568	-5.54
720.595	3.46
720.621	6.46
720.647	8.46
720.673	3.46
720.699	-4.54
720.725	10.46
720.752	10.46
720.778	3.46
720.804	13.46
720.83	32.46
720.856	4.46
720.883	-18.54
720.909	6.46
720.935	16.46
720.961	23.46
720.987	16.46
721.013	12.46
721.04	4.46
721.066	0.46
721.092	-0.54
721.118	12.46
721.144	6.46
721.17	11.46
721.196	4.46
721.223	-8.54
721.249	-3.54
721.275	31.46
721.301	6.46
721.327	17.46
721.353	10.46
721.379	-2.54
721.405	2.46
721.432	32.46
721.458	2.46
721.484	12.46
721.51	-17.54
721.536	3.46
721.562	11.46
721.588	5.46
721.614	-1.54
721.64	2.46
721.666	-0.54
721.693	0.46
721.719	-5.54
721.745	-7.54
721.771	-1.54
721.797	-2.54
721.823	1.46
721.849	13.46
721.875	2.46
721.901	-10.54
721.927	-12.54
721.953	7.46
721.979	28.46
722.005	18.46
722.031	5.46
722.057	9.46
722.083	6.46
722.109	2.46
722.135	7.46
722.161	8.46
722.187	4.46
722.214	2.46
722.24	-8.54
722.266	-9.54
722.292	6.46
722.318	1.46
722.344	15.46
722.37	9.46
722.396	7.46
722.422	0.46
722.448	6.46
722.474	2.46
722.5	14.46
722.526	5.46
722.552	-8.54
722.578	-5.54
722.603	14.46
722.629	0.46
722.655	-3.54
722.681	-1.54
722.707	-2.54
722.733	6.46
722.759	-6.54
722.785	6.46
722.811	16.46
722.837	-0.54
722.863	10.46
722.889	25.46
722.915	2.46
722.941	6.46
722.967	12.46
722.993	13.46
723.019	16.46
723.045	-2.54
723.071	12.46
723.097	15.46
723.122	3.46
723.148	-3.54
723.174	-3.54
723.2	3.46
723.226	6.46
723.252	6.46
723.278	2.46
723.304	4.46
723.33	9.46
723.356	-0.54
723.381	-13.54
723.407	-7.54
723.433	22.46
723.459	-1.54
723.485	-3.54
723.511	6.46
723.537	-6.54
723.563	8.46
723.588	10.46
723.614	11.46
723.64	14.46
723.666	22.46
723.692	17.46
723.718	21.46
723.744	6.46
723.769	5.46
723.795	9.46
723.821	11.46
723.847	1.46
723.873	7.46
723.899	-0.54
723.924	20.46
723.95	18.46
723.976	-18.54
724.002	2.46
724.028	14.46
724.053	-8.54
724.079	11.46
724.105	20.46
724.131	0.46
724.157	-3.54
724.182	26.46
724.208	15.46
724.234	-1.54
724.26	1.46
724.286	4.46
724.311	-15.54
724.337	-12.54
724.363	-6.54
724.389	7.46
724.415	-0.54
724.44	9.46
724.466	12.46
724.492	12.46
724.518	7.46
724.543	9.46
724.569	9.46
724.595	-1.54
724.621	4.46
724.646	0.46
724.672	-8.54
724.698	4.46
724.723	-6.54
724.749	-4.54
724.775	13.46
724.801	17.46
724.826	-7.54
724.852	-17.54
724.878	5.46
724.904	-5.54
724.929	4.46
724.955	-8.54
724.981	7.46
725.006	4.46
725.032	4.46
725.058	7.46
725.083	1.46
725.109	1.46
725.135	1.46
725.161	4.46
725.186	-9.54
725.212	4.46
725.238	23.46
725.263	4.46
725.289	-12.54
725.315	-12.54
725.34	7.46
725.366	-5.54
725.392	-9.54
725.417	1.46
725.443	13.46
725.468	17.46
725.494	7.46
725.52	20.46
725.545	-5.54
725.571	2.46
725.597	1.46
725.622	-0.54
725.648	7.46
725.674	8.46
725.699	13.46
725.725	11.46
725.75	13.46
725.776	5.46
725.802	13.46
725.827	26.46
725.853	4.46
725.878	2.46
725.904	-2.54
725.93	1.46
725.955	-12.54
725.981	2.46
726.006	0.46
726.032	18.46
726.057	5.46
726.083	2.46
726.109	8.46
726.134	0.46
726.16	5.46
726.185	6.46
726.211	-1.54
726.236	12.46
726.262	12.46
726.288	2.46
726.313	19.46
726.339	8.46
726.364	-5.54
726.39	22.46
726.415	-4.54
726.441	-5.54
726.466	4.46
726.492	12.46
726.517	12.46
726.543	17.46
726.568	4.46
726.594	7.46
726.619	22.46
726.645	13.46
726.67	8.46
726.696	20.46
726.721	-13.54
726.747	-8.54
726.772	2.46
726.798	3.46
726.823	12.46
726.849	10.46
726.874	10.46
726.9	22.46
726.925	6.46
726.951	-3.54
726.976	27.46
727.002	0.46
727.027	-0.54
727.053	4.46
727.078	-9.54
727.104	7.46
727.129	-5.54
727.155	8.46
727.18	-3.54
727.205	2.46
727.231	-4.54
727.256	26.46
727.282	-0.54
727.307	10.46
727.333	-3.54
727.358	-6.54
727.383	-2.54
727.409	-9.54
727.434	13.46
727.46	4.46
727.485	0.46
727.511	10.46
727.536	-7.54
727.561	-11.54
727.587	6.46
727.612	-4.54
727.637	0.46
727.663	12.46
727.688	2.46
727.714	2.46
727.739	-2.54
727.764	-4.54
727.79	2.46
727.815	6.46
727.841	5.46
727.866	13.46
727.891	6.46
727.917	-11.54
727.942	-7.54
727.967	-0.54
727.993	-9.54
728.018	-9.54
728.043	7.46
728.069	11.46
728.094	20.46
728.119	5.46
728.145	19.46
728.17	14.46
728.195	-0.54
728.221	15.46
728.246	-2.54
728.271	-18.54
728.297	-6.54
728.322	12.46
728.347	14.46
728.373	12.46
728.398	9.46
728.423	-1.54
728.448	6.46
728.474	6.46
728.499	-1.54
728.524	-9.54
728.55	-23.54
728.575	-7.54
728.6	0.46
728.625	-3.54
728.651	3.46
728.676	-12.54
728.701	0.46
728.727	13.46
728.752	2.46
728.777	17.46
728.802	1.46
728.828	-5.54
728.853	20.46
728.878	3.46
728.903	5.46
728.929	-3.54
728.954	8.46
728.979	15.46
729.004	9.46
729.03	-5.54
729.055	13.46
729.08	2.46
729.105	7.46
729.13	35.46
729.156	10.46
729.181	14.46
729.206	2.46
729.231	-9.54
729.256	16.46
729.282	3.46
729.307	-1.54
729.332	-3.54
729.357	-4.54
729.382	3.46
729.408	8.46
729.433	-1.54
729.458	-2.54
729.483	12.46
729.508	29.46
729.533	11.46
729.559	6.46
729.584	-20.54
729.609	14.46
729.634	15.46
729.659	21.46
729.684	-6.54
729.71	13.46
729.735	8.46
729.76	6.46
729.785	-9.54
729.81	1.46
729.835	7.46
729.86	-3.54
729.886	9.46
729.911	10.46
729.936	-4.54
729.961	8.46
729.986	-8.54
730.011	-1.54
730.036	-5.54
730.061	-4.54
730.086	13.46
730.112	8.46
730.137	18.46
730.162	6.46
730.187	-2.54
730.212	9.46
730.237	-3.54
730.262	4.46
730.287	-2.54
730.312	18.46
730.337	17.46
730.362	12.46
730.387	3.46
730.413	-11.54
730.438	-10.54
730.463	-5.54
730.488	7.46
730.513	2.46
730.538	-7.54
730.563	25.46
730.588	3.46
730.613	24.46
730.638	1.46
730.663	7.46
730.688	13.46
730.713	-2.54
730.738	11.46
730.763	4.46
730.788	-4.54
730.813	14.46
730.838	-6.54
730.863	-0.54
730.888	-8.54
730.913	-8.54
730.938	-6.54
730.963	2.46
730.988	15.46
731.013	10.46
731.038	-8.54
731.063	3.46
731.088	5.46
731.113	-3.54
731.138	-1.54
731.163	-11.54
731.188	1.46
731.213	-4.54
731.238	24.46
731.263	5.46
731.288	-8.54
731.313	10.46
731.338	0.46
731.363	-1.54
731.388	-6.54
731.413	4.46
731.438	16.46
731.463	18.46
731.487	13.46
731.512	5.46
731.537	3.46
731.562	5.46
731.587	0.46
731.612	-1.54
731.637	2.46
731.662	-9.54
731.687	9.46
731.712	-5.54
731.737	9.46
731.762	12.46
731.786	-0.54
731.811	2.46
731.836	-3.54
731.861	4.46
731.886	8.46
731.911	7.46
731.936	7.46
731.961	-9.54
731.986	8.46
732.01	-1.54
732.035	7.46
732.06	4.46
732.085	5.46
732.11	4.46
732.135	11.46
732.16	4.46
732.184	1.46
732.209	8.46
732.234	1.46
732.259	-5.54
732.284	26.46
732.309	4.46
732.334	-3.54
732.358	-15.54
732.383	4.46
732.408	6.46
732.433	17.46
732.458	5.46
732.482	9.46
732.507	16.46
732.532	3.46
732.557	27.46
732.582	14.46
732.607	13.46
732.631	-20.54
732.656	3.46
732.681	0.46
732.706	6.46
732.73	0.46
732.755	-5.54
732.78	-5.54
732.805	15.46
732.83	8.46
732.854	2.46
732.879	3.46
732.904	-7.54
732.929	7.46
732.953	25.46
732.978	-0.54
733.003	-4.54
733.028	-7.54
733.052	-9.54
733.077	2.46
733.102	11.46
733.127	8.46
733.151	1.46
733.176	7.46
733.201	4.46
733.226	-16.54
733.25	7.46
733.275	-0.54
733.3	17.46
733.324	17.46
733.349	22.46
733.374	15.46
733.399	-4.54
733.423	-1.54
733.448	2.46
733.473	-2.54
733.497	-8.54
733.522	4.46
733.547	36.46
733.571	13.46
733.596	10.46
733.621	8.46
733.646	14.46
733.67	1.46
733.695	12.46
733.72	5.46
733.744	2.46
733.769	18.46
733.794	7.46
733.818	10.46
733.843	2.46
733.867	-7.54
733.892	-0.54
733.917	-0.54
733.941	1.46
733.966	0.46
733.991	8.46
734.015	27.46
734.04	4.46
734.065	4.46
734.089	19.46
734.114	5.46
734.138	6.46
734.163	6.46
734.188	2.46
734.212	21.46
734.237	8.46
734.261	4.46
734.286	3.46
734.311	13.46
734.335	-12.54
734.36	15.46
734.384	15.46
734.409	10.46
734.434	11.46
734.458	-1.54
734.483	2.46
734.507	6.46
734.532	11.46
734.556	10.46
734.581	-7.54
734.606	3.46
734.63	-3.54
734.655	11.46
734.679	12.46
734.704	7.46
734.728	-0.54
734.753	6.46
734.777	2.46
734.802	1.46
734.826	12.46
734.851	-1.54
734.876	19.46
734.9	17.46
734.925	16.46
734.949	2.46
734.974	7.46
734.998	14.46
735.023	5.46
735.047	-3.54
735.072	7.46
735.096	0.46
735.121	9.46
735.145	5.46
735.17	8.46
735.194	10.46
735.219	3.46
735.243	0.46
735.268	14.46
735.292	7.46
735.317	9.46
735.341	12.46
735.365	3.46
735.39	17.46
735.414	11.46
735.439	14.46
735.463	7.46
735.488	9.46
735.512	9.46
735.537	7.46
735.561	-0.54
735.586	0.46
735.61	18.46
735.634	11.46
735.659	3.46
735.683	-5.54
735.708	-0.54
735.732	-1.54
735.757	14.46
735.781	17.46
735.805	6.46
735.83	-5.54
735.854	13.46
735.879	25.46
735.903	17.46
735.927	11.46
735.952	18.46
735.976	8.46
736.001	-4.54
736.025	9.46
736.049	-3.54
736.074	-6.54
736.098	16.46
736.123	20.46
736.147	-7.54
736.171	9.46
736.196	9.46
736.22	8.46
736.244	6.46
736.269	10.46
736.293	15.46
736.317	20.46
736.342	19.46
736.366	21.46
736.39	27.46
736.415	10.46
736.439	18.46
736.463	14.46
736.488	3.46
736.512	15.46
736.536	4.46
736.561	23.46
736.585	5.46
736.609	5.46
736.634	-7.54
736.658	-4.54
736.682	-4.54
736.707	-22.54
736.731	-11.54
736.755	-2.54
736.78	21.46
736.804	16.46
736.828	5.46
736.852	1.46
736.877	-12.54
736.901	7.46
736.925	2.46
736.949	-8.54
736.974	-2.54
736.998	2.46
737.022	2.46
737.047	-3.54
737.071	2.46
737.095	8.46
737.119	17.46
737.144	32.46
737.168	15.46
737.192	-6.54
737.216	18.46
737.241	-9.54
737.265	2.46
737.289	-5.54
737.313	3.46
737.337	7.46
737.362	2.46
737.386	0.46
737.41	2.46
737.434	3.46
737.459	-1.54
737.483	16.46
737.507	18.46
737.531	23.46
737.555	4.46
737.58	13.46
737.604	12.46
737.628	12.46
737.652	-2.54
737.676	-8.54
737.701	11.46
737.725	8.46
737.749	28.46
737.773	6.46
737.797	3.46
737.821	0.46
737.846	7.46
737.87	34.46
737.894	11.46
737.918	4.46
737.942	10.46
737.966	10.46
737.99	21.46
738.015	3.46
738.039	10.46
738.063	-0.54
738.087	25.46
738.111	-15.54
738.135	20.46
738.159	18.46
738.184	8.46
738.208	10.46
738.232	19.46
738.256	16.46
738.28	3.46
738.304	18.46
738.328	-8.54
738.352	-6.54
738.376	3.46
738.4	7.46
738.425	8.46
738.449	8.46
738.473	18.46
738.497	11.46
738.521	-2.54
738.545	11.46
738.569	4.46
738.593	23.46
738.617	-3.54
738.641	8.46
738.665	-6.54
738.689	10.46
738.713	-3.54
738.737	6.46
738.762	21.46
738.786	2.46
738.81	-13.54
738.834	11.46
738.858	-1.54
738.882	2.46
738.906	2.46
738.93	4.46
738.954	0.46
738.978	12.46
739.002	6.46
739.026	22.46
739.05	1.46
739.074	-12.54
739.098	22.46
739.122	27.46
739.146	7.46
739.17	12.46
739.194	29.46
739.218	6.46
739.242	7.46
739.266	6.46
739.29	7.46
739.314	3.46
739.338	-0.54
739.362	14.46
739.386	8.46
739.41	-1.54
739.434	-7.54
739.458	13.46
739.482	10.46
739.506	9.46
739.53	-8.54
739.554	25.46
739.577	4.46
739.601	6.46
739.625	-17.54
739.649	-4.54
739.673	6.46
739.697	8.46
739.721	-4.54
739.745	0.46
739.769	2.46
739.793	2.46
739.817	12.46
739.841	3.46
739.865	0.46
739.889	-2.54
739.912	12.46
739.936	-1.54
739.96	3.46
739.984	6.46
740.008	-4.54
740.032	-8.54
740.056	6.46
740.08	13.46
740.104	-13.54
740.127	-6.54
740.151	3.46
740.175	24.46
740.199	23.46
740.223	50.46
740.247	12.46
740.271	3.46
740.295	8.46
740.318	-9.54
740.342	0.46
740.366	2.46
740.39	24.46
740.414	-0.54
740.438	11.46
740.461	15.46
740.485	16.46
740.509	3.46
740.533	13.46
740.557	7.46
740.581	3.46
740.604	-4.54
740.628	7.46
740.652	18.46
740.676	8.46
740.7	13.46
740.723	3.46
740.747	-9.54
740.771	-4.54
740.795	-0.54
740.819	7.46
740.842	11.46
740.866	18.46
740.89	13.46
740.914	12.46
740.938	-0.54
740.961	23.46
740.985	6.46
741.009	-4.54
741.033	18.46
741.056	8.46
741.08	1.46
741.104	6.46
741.128	7.46
741.151	18.46
741.175	-0.54
741.199	12.46
741.223	11.46
741.246	-8.54
741.27	0.46
741.294	-4.54
741.318	-7.54
741.341	-2.54
741.365	6.46
741.389	4.46
741.413	18.46
741.436	12.46
741.46	10.46
741.484	27.46
741.507	10.46
741.531	23.46
741.555	6.46
741.579	20.46
741.602	16.46
741.626	10.46
741.65	2.46
741.673	24.46
741.697	19.46
741.721	-1.54
741.744	2.46
741.768	3.46
741.792	10.46
741.815	1.46
741.839	16.46
741.863	14.46
741.886	16.46
741.91	1.46
741.934	6.46
741.957	-8.54
741.981	17.46
742.005	0.46
742.028	-3.54
742.052	8.46
742.075	10.46
742.099	14.46
742.123	4.46
742.146	2.46
742.17	15.46
742.194	-5.54
742.217	0.46
742.241	2.46
742.264	-1.54
742.288	15.46
742.312	18.46
742.335	7.46
742.359	-0.54
742.382	26.46
742.406	18.46
742.43	-2.54
742.453	10.46
742.477	3.46
742.5	2.46
742.524	7.46
742.548	6.46
742.571	4.46
742.595	8.46
742.618	-7.54
742.642	-7.54
742.665	10.46
742.689	-3.54
742.712	8.46
742.736	-5.54
742.76	1.46
742.783	12.46
742.807	9.46
742.83	9.46
742.854	0.46
742.877	-2.54
742.901	12.46
742.924	-4.54
742.948	18.46
742.971	11.46
742.995	3.46
743.018	-5.54
743.042	-2.54
743.065	16.46
743.089	-17.54
743.112	6.46
743.136	12.46
743.159	-6.54
743.183	-4.54
743.206	-9.54
743.23	2.46
743.253	3.46
743.277	15.46
743.3	4.46
743.324	-1.54
743.347	-8.54
743.371	23.46
743.394	15.46
743.418	24.46
743.441	13.46
743.465	6.46
743.488	-2.54
743.512	-14.54
743.535	10.46
743.558	7.46
743.582	-6.54
743.605	1.46
743.629	10.46
743.652	15.46
743.676	-10.54
743.699	13.46
743.723	2.46
743.746	7.46
743.769	-3.54
743.793	7.46
743.816	-5.54
743.84	26.46
743.863	11.46
743.886	7.46
743.91	18.46
743.933	6.46
743.957	24.46
743.98	21.46
744.003	-2.54
744.027	17.46
744.05	2.46
744.074	0.46
744.097	-11.54
744.12	6.46
744.144	1.46
744.167	12.46
744.19	-3.54
744.214	12.46
744.237	-3.54
744.26	10.46
744.284	21.46
744.307	8.46
744.331	13.46
744.354	7.46
744.377	-5.54
744.401	-13.54
744.424	-5.54
744.447	-8.54
744.471	11.46
