Data from HighRes_H2D2_15_04_11_07_2024_HR4C61891__4__15-05-34-844.txt Node

Date: Thu Nov 07 15:05:34 EST 2024
User: crc00042
Spectrometer: HR4C6189
Trigger mode: 4
Integration Time (sec): 1.000000E-1
Scans to average: 1
Electric dark correction enabled: true
Nonlinearity correction enabled: false
Boxcar width: 0
XAxis mode: Wavelengths
Number of Pixels in Spectrum: 3648
>>>>>Begin Spectral Data<<<<<
639.567	-73.38
639.602	-73.38
639.636	-73.38
639.67	-41.38
639.704	-29.38
639.738	-11.38
639.773	18.62
639.807	-28.38
639.841	-8.38
639.875	8.62
639.909	-3.38
639.943	-22.38
639.978	-0.38
640.012	7.62
640.046	15.62
640.08	9.62
640.114	15.62
640.148	-1.38
640.182	-8.38
640.217	6.62
640.251	13.62
640.285	17.62
640.319	-6.38
640.353	9.62
640.387	16.62
640.421	-5.38
640.455	-3.38
640.49	1.62
640.524	6.62
640.558	7.62
640.592	-12.38
640.626	-4.38
640.66	4.62
640.694	-2.38
640.728	3.62
640.762	4.62
640.796	7.62
640.83	6.62
640.865	-15.38
640.899	7.62
640.933	-3.38
640.967	-6.38
641.001	6.62
641.035	-3.38
641.069	-3.38
641.103	9.62
641.137	16.62
641.171	-9.38
641.205	5.62
641.239	18.62
641.273	9.62
641.307	5.62
641.341	-0.38
641.375	-9.38
641.409	2.62
641.443	-14.38
641.477	13.62
641.511	15.62
641.545	10.62
641.579	-9.38
641.614	14.62
641.648	7.62
641.682	-4.38
641.716	-11.38
641.75	15.62
641.784	-2.38
641.818	-9.38
641.852	-4.38
641.886	-11.38
641.919	21.62
641.953	-4.38
641.987	-10.38
642.021	3.62
642.055	5.62
642.089	-4.38
642.123	-4.38
642.157	3.62
642.191	0.62
642.225	5.62
642.259	-10.38
642.293	7.62
642.327	2.62
642.361	-12.38
642.395	13.62
642.429	12.62
642.463	9.62
642.497	31.62
642.531	-2.38
642.565	-4.38
642.599	5.62
642.633	-9.38
642.666	7.62
642.7	13.62
642.734	11.62
642.768	-7.38
642.802	7.62
642.836	15.62
642.87	-2.38
642.904	19.62
642.938	18.62
642.972	11.62
643.005	7.62
643.039	23.62
643.073	-1.38
643.107	1.62
643.141	10.62
643.175	11.62
643.209	1.62
643.243	-3.38
643.276	9.62
643.31	-7.38
643.344	3.62
643.378	-0.38
643.412	16.62
643.446	4.62
643.48	6.62
643.513	1.62
643.547	-4.38
643.581	5.62
643.615	9.62
643.649	0.62
643.683	1.62
643.716	9.62
643.75	13.62
643.784	6.62
643.818	25.62
643.852	10.62
643.886	-1.38
643.919	10.62
643.953	-4.38
643.987	-7.38
644.021	4.62
644.055	2.62
644.088	13.62
644.122	0.62
644.156	-5.38
644.19	-3.38
644.224	8.62
644.257	10.62
644.291	11.62
644.325	4.62
644.359	-7.38
644.392	29.62
644.426	17.62
644.46	5.62
644.494	-7.38
644.527	-13.38
644.561	-1.38
644.595	12.62
644.629	2.62
644.662	12.62
644.696	34.62
644.73	2.62
644.764	5.62
644.797	0.62
644.831	9.62
644.865	14.62
644.899	12.62
644.932	22.62
644.966	-3.38
645	15.62
645.033	33.62
645.067	19.62
645.101	20.62
645.135	0.62
645.168	8.62
645.202	-5.38
645.236	10.62
645.269	8.62
645.303	-3.38
645.337	-12.38
645.37	0.62
645.404	0.62
645.438	14.62
645.471	-2.38
645.505	14.62
645.539	-8.38
645.572	-6.38
645.606	-1.38
645.64	-5.38
645.673	8.62
645.707	15.62
645.741	-3.38
645.774	-8.38
645.808	-1.38
645.842	-5.38
645.875	3.62
645.909	-6.38
645.943	-5.38
645.976	10.62
646.01	9.62
646.043	13.62
646.077	12.62
646.111	1.62
646.144	14.62
646.178	18.62
646.212	-8.38
646.245	-5.38
646.279	18.62
646.312	0.62
646.346	12.62
646.38	7.62
646.413	-1.38
646.447	19.62
646.48	7.62
646.514	5.62
646.547	-1.38
646.581	-8.38
646.615	2.62
646.648	15.62
646.682	7.62
646.715	11.62
646.749	4.62
646.782	-7.38
646.816	0.62
646.85	12.62
646.883	2.62
646.917	10.62
646.95	-4.38
646.984	3.62
647.017	-19.38
647.051	1.62
647.084	6.62
647.118	-4.38
647.151	2.62
647.185	8.62
647.218	-1.38
647.252	16.62
647.285	-4.38
647.319	-10.38
647.353	10.62
647.386	20.62
647.42	7.62
647.453	13.62
647.487	3.62
647.52	-2.38
647.553	-8.38
647.587	9.62
647.62	3.62
647.654	7.62
647.687	3.62
647.721	3.62
647.754	-5.38
647.788	-4.38
647.821	-3.38
647.855	9.62
647.888	13.62
647.922	25.62
647.955	10.62
647.989	13.62
648.022	6.62
648.055	8.62
648.089	13.62
648.122	22.62
648.156	-8.38
648.189	11.62
648.223	2.62
648.256	18.62
648.29	-0.38
648.323	10.62
648.356	7.62
648.39	6.62
648.423	13.62
648.457	11.62
648.49	11.62
648.523	24.62
648.557	10.62
648.59	11.62
648.624	12.62
648.657	17.62
648.69	21.62
648.724	6.62
648.757	25.62
648.791	15.62
648.824	17.62
648.857	18.62
648.891	11.62
648.924	0.62
648.957	19.62
648.991	0.62
649.024	16.62
649.057	20.62
649.091	-10.38
649.124	8.62
649.158	8.62
649.191	37.62
649.224	3.62
649.258	20.62
649.291	14.62
649.324	0.62
649.358	12.62
649.391	28.62
649.424	-0.38
649.458	4.62
649.491	-7.38
649.524	-11.38
649.557	-0.38
649.591	-16.38
649.624	15.62
649.657	-4.38
649.691	-2.38
649.724	10.62
649.757	4.62
649.791	2.62
649.824	12.62
649.857	18.62
649.89	5.62
649.924	-15.38
649.957	-7.38
649.99	3.62
650.023	17.62
650.057	-1.38
650.09	11.62
650.123	6.62
650.157	13.62
650.19	35.62
650.223	6.62
650.256	-0.38
650.29	-2.38
650.323	-9.38
650.356	10.62
650.389	-0.38
650.423	-5.38
650.456	14.62
650.489	9.62
650.522	6.62
650.555	13.62
650.589	6.62
650.622	11.62
650.655	10.62
650.688	21.62
650.721	15.62
650.755	12.62
650.788	11.62
650.821	-10.38
650.854	-6.38
650.887	19.62
650.921	-1.38
650.954	-6.38
650.987	-14.38
651.02	2.62
651.053	2.62
651.087	-21.38
651.12	9.62
651.153	10.62
651.186	8.62
651.219	-12.38
651.252	-7.38
651.286	7.62
651.319	-13.38
651.352	-0.38
651.385	13.62
651.418	6.62
651.451	10.62
651.484	4.62
651.518	-6.38
651.551	17.62
651.584	-7.38
651.617	25.62
651.65	17.62
651.683	15.62
651.716	7.62
651.749	-7.38
651.783	0.62
651.816	7.62
651.849	8.62
651.882	13.62
651.915	-6.38
651.948	17.62
651.981	5.62
652.014	-12.38
652.047	-11.38
652.08	-12.38
652.114	5.62
652.147	-6.38
652.18	9.62
652.213	32.62
652.246	7.62
652.279	-5.38
652.312	2.62
652.345	-7.38
652.378	5.62
652.411	11.62
652.444	1.62
652.477	2.62
652.51	4.62
652.543	-16.38
652.576	10.62
652.609	-9.38
652.642	3.62
652.675	26.62
652.709	8.62
652.742	4.62
652.775	-0.38
652.808	8.62
652.841	-17.38
652.874	-6.38
652.907	1.62
652.94	0.62
652.973	-9.38
653.006	9.62
653.039	11.62
653.072	5.62
653.105	-2.38
653.138	-6.38
653.171	-0.38
653.204	0.62
653.237	14.62
653.27	-0.38
653.303	-0.38
653.336	4.62
653.368	-2.38
653.401	3.62
653.434	-18.38
653.467	10.62
653.5	10.62
653.533	-6.38
653.566	7.62
653.599	6.62
653.632	12.62
653.665	2.62
653.698	7.62
653.731	-7.38
653.764	-12.38
653.797	5.62
653.83	20.62
653.863	9.62
653.896	-5.38
653.929	-1.38
653.961	12.62
653.994	6.62
654.027	-8.38
654.06	14.62
654.093	2.62
654.126	-7.38
654.159	-6.38
654.192	8.62
654.225	-4.38
654.258	4.62
654.29	-4.38
654.323	10.62
654.356	-19.38
654.389	8.62
654.422	2.62
654.455	-8.38
654.488	2.62
654.521	-12.38
654.553	-21.38
654.586	9.62
654.619	3.62
654.652	1.62
654.685	4.62
654.718	16.62
654.751	12.62
654.783	10.62
654.816	18.62
654.849	11.62
654.882	-2.38
654.915	-15.38
654.948	-6.38
654.98	-3.38
655.013	-0.38
655.046	4.62
655.079	0.62
655.112	3.62
655.144	-2.38
655.177	2.62
655.21	15.62
655.243	15.62
655.276	18.62
655.308	11.62
655.341	1.62
655.374	19.62
655.407	-3.38
655.44	0.62
655.472	20.62
655.505	4.62
655.538	-1.38
655.571	12.62
655.603	11.62
655.636	0.62
655.669	0.62
655.702	-1.38
655.734	-0.38
655.767	-3.38
655.8	14.62
655.833	21.62
655.865	26.62
655.898	17.62
655.931	10.62
655.964	26.62
655.996	32.62
656.029	36.62
656.062	36.62
656.095	57.62
656.127	74.62
656.16	220.62
656.193	631.62
656.225	984.62
656.258	584.62
656.291	212.62
656.324	162.62
656.356	368.62
656.389	789.62
656.422	693.62
656.454	241.62
656.487	84.62
656.52	33.62
656.552	2.62
656.585	5.62
656.618	19.62
656.65	28.62
656.683	15.62
656.716	22.62
656.748	2.62
656.781	0.62
656.814	-4.38
656.846	12.62
656.879	-8.38
656.912	1.62
656.944	-8.38
656.977	-2.38
657.01	11.62
657.042	17.62
657.075	24.62
657.108	7.62
657.14	19.62
657.173	19.62
657.205	20.62
657.238	6.62
657.271	1.62
657.303	-2.38
657.336	-8.38
657.369	-2.38
657.401	0.62
657.434	-1.38
657.466	-11.38
657.499	3.62
657.532	2.62
657.564	16.62
657.597	-0.38
657.629	16.62
657.662	3.62
657.694	14.62
657.727	1.62
657.76	13.62
657.792	0.62
657.825	-8.38
657.857	-0.38
657.89	0.62
657.922	-1.38
657.955	-4.38
657.987	8.62
658.02	11.62
658.053	19.62
658.085	13.62
658.118	14.62
658.15	26.62
658.183	7.62
658.215	-6.38
658.248	-6.38
658.28	-7.38
658.313	22.62
658.345	5.62
658.378	16.62
658.41	1.62
658.443	18.62
658.475	0.62
658.508	4.62
658.54	-7.38
658.573	-6.38
658.605	11.62
658.638	7.62
658.67	3.62
658.703	12.62
658.735	5.62
658.768	8.62
658.8	-1.38
658.833	21.62
658.865	0.62
658.898	6.62
658.93	2.62
658.963	0.62
658.995	-17.38
659.028	22.62
659.06	7.62
659.092	7.62
659.125	-12.38
659.157	8.62
659.19	-8.38
659.222	2.62
659.255	-1.38
659.287	25.62
659.32	11.62
659.352	-4.38
659.384	14.62
659.417	8.62
659.449	3.62
659.482	6.62
659.514	-8.38
659.546	9.62
659.579	-21.38
659.611	8.62
659.644	-6.38
659.676	-1.38
659.708	-1.38
659.741	-0.38
659.773	2.62
659.806	-7.38
659.838	-5.38
659.87	-4.38
659.903	-0.38
659.935	15.62
659.967	12.62
660	9.62
660.032	-12.38
660.065	12.62
660.097	13.62
660.129	10.62
660.162	-13.38
660.194	1.62
660.226	-2.38
660.259	15.62
660.291	8.62
660.323	3.62
660.356	10.62
660.388	-4.38
660.42	0.62
660.453	6.62
660.485	10.62
660.517	24.62
660.55	11.62
660.582	0.62
660.614	8.62
660.647	8.62
660.679	-1.38
660.711	0.62
660.743	-10.38
660.776	-3.38
660.808	-0.38
660.84	7.62
660.873	-1.38
660.905	5.62
660.937	-13.38
660.969	-13.38
661.002	-0.38
661.034	34.62
661.066	14.62
661.099	10.62
661.131	23.62
661.163	3.62
661.195	14.62
661.228	9.62
661.26	-9.38
661.292	-2.38
661.324	5.62
661.357	10.62
661.389	3.62
661.421	6.62
661.453	2.62
661.485	10.62
661.518	12.62
661.55	-4.38
661.582	-29.38
661.614	8.62
661.647	22.62
661.679	3.62
661.711	0.62
661.743	-3.38
661.775	8.62
661.808	27.62
661.84	-12.38
661.872	-4.38
661.904	5.62
661.936	-7.38
661.969	2.62
662.001	-12.38
662.033	11.62
662.065	-16.38
662.097	-1.38
662.129	-0.38
662.162	-11.38
662.194	1.62
662.226	-1.38
662.258	12.62
662.29	2.62
662.322	-3.38
662.355	-8.38
662.387	10.62
662.419	6.62
662.451	16.62
662.483	9.62
662.515	8.62
662.547	-8.38
662.58	3.62
662.612	1.62
662.644	1.62
662.676	4.62
662.708	15.62
662.74	-3.38
662.772	9.62
662.804	12.62
662.836	9.62
662.869	-6.38
662.901	29.62
662.933	-3.38
662.965	-0.38
662.997	7.62
663.029	-5.38
663.061	-16.38
663.093	3.62
663.125	20.62
663.157	5.62
663.189	0.62
663.221	15.62
663.254	-6.38
663.286	15.62
663.318	5.62
663.35	-1.38
663.382	11.62
663.414	15.62
663.446	21.62
663.478	2.62
663.51	20.62
663.542	-10.38
663.574	6.62
663.606	12.62
663.638	-4.38
663.67	-7.38
663.702	-10.38
663.734	9.62
663.766	11.62
663.798	6.62
663.83	12.62
663.862	19.62
663.894	0.62
663.926	-0.38
663.958	0.62
663.99	10.62
664.022	2.62
664.054	18.62
664.086	-5.38
664.118	-15.38
664.15	-3.38
664.182	5.62
664.214	7.62
664.246	27.62
664.278	14.62
664.31	19.62
664.342	21.62
664.374	2.62
664.406	7.62
664.438	-0.38
664.47	20.62
664.502	14.62
664.534	4.62
664.566	-4.38
664.598	-12.38
664.63	6.62
664.662	4.62
664.693	4.62
664.725	0.62
664.757	8.62
664.789	-9.38
664.821	11.62
664.853	18.62
664.885	0.62
664.917	13.62
664.949	24.62
664.981	12.62
665.013	10.62
665.045	-4.38
665.076	-18.38
665.108	8.62
665.14	3.62
665.172	1.62
665.204	-4.38
665.236	-11.38
665.268	10.62
665.3	-1.38
665.331	-4.38
665.363	12.62
665.395	8.62
665.427	1.62
665.459	7.62
665.491	-3.38
665.523	-7.38
665.555	-3.38
665.586	-4.38
665.618	-10.38
665.65	-16.38
665.682	4.62
665.714	7.62
665.746	-7.38
665.777	-7.38
665.809	7.62
665.841	5.62
665.873	8.62
665.905	1.62
665.937	23.62
665.968	11.62
666	11.62
666.032	0.62
666.064	-5.38
666.096	-6.38
666.127	7.62
666.159	19.62
666.191	2.62
666.223	5.62
666.255	7.62
666.286	7.62
666.318	0.62
666.35	24.62
666.382	17.62
666.413	2.62
666.445	-5.38
666.477	2.62
666.509	-2.38
666.54	8.62
666.572	5.62
666.604	11.62
666.636	9.62
666.667	14.62
666.699	17.62
666.731	5.62
666.763	-10.38
666.794	0.62
666.826	-0.38
666.858	-7.38
666.89	4.62
666.921	4.62
666.953	-1.38
666.985	-1.38
667.017	9.62
667.048	17.62
667.08	-4.38
667.112	9.62
667.143	-7.38
667.175	11.62
667.207	-6.38
667.238	-5.38
667.27	13.62
667.302	1.62
667.334	6.62
667.365	16.62
667.397	8.62
667.429	-23.38
667.46	17.62
667.492	23.62
667.524	-6.38
667.555	-4.38
667.587	-11.38
667.619	-9.38
667.65	-1.38
667.682	11.62
667.714	10.62
667.745	-1.38
667.777	10.62
667.808	11.62
667.84	15.62
667.872	7.62
667.903	31.62
667.935	2.62
667.967	4.62
667.998	-4.38
668.03	6.62
668.061	9.62
668.093	0.62
668.125	1.62
668.156	4.62
668.188	7.62
668.22	-6.38
668.251	0.62
668.283	1.62
668.314	14.62
668.346	-0.38
668.377	3.62
668.409	-0.38
668.441	4.62
668.472	-4.38
668.504	13.62
668.535	12.62
668.567	23.62
668.599	1.62
668.63	-5.38
668.662	7.62
668.693	21.62
668.725	15.62
668.756	7.62
668.788	12.62
668.819	-0.38
668.851	3.62
668.882	12.62
668.914	19.62
668.946	-17.38
668.977	-6.38
669.009	2.62
669.04	-0.38
669.072	11.62
669.103	16.62
669.135	12.62
669.166	5.62
669.198	15.62
669.229	10.62
669.261	12.62
669.292	-7.38
669.324	5.62
669.355	9.62
669.387	-5.38
669.418	20.62
669.45	1.62
669.481	-0.38
669.513	5.62
669.544	1.62
669.576	-11.38
669.607	2.62
669.639	24.62
669.67	-0.38
669.701	1.62
669.733	-14.38
669.764	-2.38
669.796	-0.38
669.827	-16.38
669.859	3.62
669.89	13.62
669.922	17.62
669.953	23.62
669.985	8.62
670.016	17.62
670.047	11.62
670.079	-1.38
670.11	22.62
670.142	13.62
670.173	-3.38
670.204	-6.38
670.236	7.62
670.267	18.62
670.299	5.62
670.33	-0.38
670.362	12.62
670.393	-16.38
670.424	15.62
670.456	-3.38
670.487	3.62
670.518	13.62
670.55	11.62
670.581	16.62
670.613	13.62
670.644	-1.38
670.675	-4.38
670.707	-5.38
670.738	-6.38
670.769	7.62
670.801	-5.38
670.832	12.62
670.864	-9.38
670.895	7.62
670.926	14.62
670.958	3.62
670.989	-4.38
671.02	-11.38
671.052	-0.38
671.083	0.62
671.114	-3.38
671.146	-0.38
671.177	1.62
671.208	-4.38
671.24	6.62
671.271	-5.38
671.302	16.62
671.333	-2.38
671.365	-11.38
671.396	-6.38
671.427	6.62
671.459	20.62
671.49	6.62
671.521	-1.38
671.553	4.62
671.584	15.62
671.615	-23.38
671.646	-2.38
671.678	14.62
671.709	9.62
671.74	-6.38
671.771	-6.38
671.803	-4.38
671.834	7.62
671.865	-0.38
671.896	17.62
671.928	5.62
671.959	10.62
671.99	-6.38
672.021	6.62
672.053	-3.38
672.084	6.62
672.115	6.62
672.146	-4.38
672.178	4.62
672.209	-8.38
672.24	7.62
672.271	12.62
672.303	-3.38
672.334	-7.38
672.365	1.62
672.396	15.62
672.427	10.62
672.459	22.62
672.49	15.62
672.521	10.62
672.552	11.62
672.583	15.62
672.615	-1.38
672.646	19.62
672.677	12.62
672.708	-4.38
672.739	-0.38
672.77	18.62
672.802	5.62
672.833	9.62
672.864	8.62
672.895	9.62
672.926	-3.38
672.957	-14.38
672.989	-4.38
673.02	14.62
673.051	-4.38
673.082	13.62
673.113	-22.38
673.144	17.62
673.175	5.62
673.206	-1.38
673.238	-5.38
673.269	6.62
673.3	-14.38
673.331	-5.38
673.362	-4.38
673.393	5.62
673.424	14.62
673.455	35.62
673.487	-2.38
673.518	14.62
673.549	6.62
673.58	15.62
673.611	16.62
673.642	-8.38
673.673	-16.38
673.704	-1.38
673.735	7.62
673.766	-11.38
673.797	3.62
673.828	-0.38
673.86	-1.38
673.891	1.62
673.922	-3.38
673.953	10.62
673.984	13.62
674.015	21.62
674.046	14.62
674.077	-3.38
674.108	-13.38
674.139	-2.38
674.17	15.62
674.201	1.62
674.232	10.62
674.263	1.62
674.294	-1.38
674.325	5.62
674.356	10.62
674.387	4.62
674.418	11.62
674.449	-3.38
674.48	-8.38
674.511	11.62
674.542	16.62
674.573	-8.38
674.604	6.62
674.635	7.62
674.666	10.62
674.697	-8.38
674.728	6.62
674.759	-0.38
674.79	-7.38
674.821	6.62
674.852	19.62
674.883	6.62
674.914	-12.38
674.945	8.62
674.976	-1.38
675.007	-1.38
675.038	-4.38
675.069	-31.38
675.1	-1.38
675.131	3.62
675.162	-0.38
675.193	-9.38
675.224	-7.38
675.254	7.62
675.285	0.62
675.316	17.62
675.347	4.62
675.378	-5.38
675.409	-11.38
675.44	-0.38
675.471	-3.38
675.502	-3.38
675.533	-0.38
675.564	3.62
675.595	-22.38
675.625	32.62
675.656	5.62
675.687	-7.38
675.718	-5.38
675.749	-4.38
675.78	4.62
675.811	2.62
675.842	3.62
675.873	0.62
675.903	-9.38
675.934	-13.38
675.965	-12.38
675.996	-7.38
676.027	11.62
676.058	3.62
676.089	3.62
676.119	16.62
676.15	2.62
676.181	9.62
676.212	13.62
676.243	11.62
676.274	-2.38
676.304	13.62
676.335	-17.38
676.366	6.62
676.397	8.62
676.428	4.62
676.459	6.62
676.489	12.62
676.52	-1.38
676.551	7.62
676.582	-3.38
676.613	11.62
676.643	-0.38
676.674	11.62
676.705	5.62
676.736	3.62
676.767	26.62
676.797	10.62
676.828	7.62
676.859	4.62
676.89	-2.38
676.92	11.62
676.951	8.62
676.982	4.62
677.013	9.62
677.044	8.62
677.074	18.62
677.105	-4.38
677.136	11.62
677.167	10.62
677.197	11.62
677.228	12.62
677.259	-7.38
677.289	-3.38
677.32	-13.38
677.351	-2.38
677.382	-7.38
677.412	-20.38
677.443	2.62
677.474	4.62
677.505	0.62
677.535	-3.38
677.566	0.62
677.597	-15.38
677.627	-20.38
677.658	-13.38
677.689	-0.38
677.72	7.62
677.75	1.62
677.781	-4.38
677.812	11.62
677.842	7.62
677.873	19.62
677.904	7.62
677.934	3.62
677.965	13.62
677.996	-19.38
678.026	-3.38
678.057	11.62
678.088	-5.38
678.118	-7.38
678.149	-9.38
678.18	18.62
678.21	3.62
678.241	-1.38
678.272	4.62
678.302	-2.38
678.333	-4.38
678.363	5.62
678.394	8.62
678.425	9.62
678.455	12.62
678.486	-2.38
678.517	0.62
678.547	6.62
678.578	10.62
678.608	-7.38
678.639	1.62
678.67	-0.38
678.7	-4.38
678.731	-8.38
678.761	3.62
678.792	25.62
678.823	2.62
678.853	15.62
678.884	3.62
678.914	-0.38
678.945	-12.38
678.975	-7.38
679.006	12.62
679.037	2.62
679.067	2.62
679.098	4.62
679.128	-2.38
679.159	16.62
679.189	16.62
679.22	17.62
679.25	20.62
679.281	-5.38
679.312	-10.38
679.342	7.62
679.373	43.62
679.403	11.62
679.434	8.62
679.464	8.62
679.495	-2.38
679.525	2.62
679.556	3.62
679.586	20.62
679.617	15.62
679.647	5.62
679.678	16.62
679.708	-0.38
679.739	11.62
679.769	15.62
679.8	10.62
679.83	10.62
679.861	18.62
679.891	2.62
679.922	-6.38
679.952	4.62
679.983	6.62
680.013	11.62
680.044	-2.38
680.074	0.62
680.105	18.62
680.135	14.62
680.165	15.62
680.196	6.62
680.226	14.62
680.257	-1.38
680.287	10.62
680.318	-0.38
680.348	-4.38
680.379	13.62
680.409	9.62
680.439	0.62
680.47	-12.38
680.5	13.62
680.531	-1.38
680.561	14.62
680.592	-2.38
680.622	7.62
680.652	1.62
680.683	14.62
680.713	-3.38
680.744	-5.38
680.774	-2.38
680.804	3.62
680.835	5.62
680.865	3.62
680.896	19.62
680.926	18.62
680.956	0.62
680.987	15.62
681.017	-11.38
681.047	10.62
681.078	-5.38
681.108	15.62
681.139	6.62
681.169	7.62
681.199	2.62
681.23	-0.38
681.26	1.62
681.29	12.62
681.321	-0.38
681.351	-3.38
681.381	-16.38
681.412	4.62
681.442	-13.38
681.472	3.62
681.503	7.62
681.533	4.62
681.563	7.62
681.594	3.62
681.624	4.62
681.654	-15.38
681.685	-0.38
681.715	5.62
681.745	1.62
681.775	-2.38
681.806	-6.38
681.836	-0.38
681.866	13.62
681.897	6.62
681.927	-4.38
681.957	-12.38
681.987	-15.38
682.018	1.62
682.048	-3.38
682.078	2.62
682.109	31.62
682.139	20.62
682.169	11.62
682.199	2.62
682.23	-13.38
682.26	-0.38
682.29	-11.38
682.32	-6.38
682.351	5.62
682.381	2.62
682.411	-18.38
682.441	6.62
682.472	-10.38
682.502	1.62
682.532	-4.38
682.562	12.62
682.592	14.62
682.623	26.62
682.653	7.62
682.683	-2.38
682.713	-7.38
682.743	-2.38
682.774	-0.38
682.804	6.62
682.834	2.62
682.864	3.62
682.894	4.62
682.925	10.62
682.955	-10.38
682.985	-0.38
683.015	15.62
683.045	13.62
683.076	-4.38
683.106	0.62
683.136	1.62
683.166	0.62
683.196	8.62
683.226	2.62
683.257	-1.38
683.287	-4.38
683.317	-4.38
683.347	12.62
683.377	-2.38
683.407	11.62
683.437	6.62
683.468	11.62
683.498	-9.38
683.528	2.62
683.558	11.62
683.588	-3.38
683.618	-6.38
683.648	4.62
683.678	-2.38
683.708	18.62
683.739	5.62
683.769	15.62
683.799	0.62
683.829	4.62
683.859	-5.38
683.889	2.62
683.919	8.62
683.949	3.62
683.979	3.62
684.009	4.62
684.039	7.62
684.07	2.62
684.1	8.62
684.13	16.62
684.16	11.62
684.19	0.62
684.22	-5.38
684.25	-4.38
684.28	-10.38
684.31	18.62
684.34	6.62
684.37	-8.38
684.4	-10.38
684.43	12.62
684.46	1.62
684.49	12.62
684.52	14.62
684.55	24.62
684.58	10.62
684.61	-3.38
684.64	11.62
684.67	8.62
684.7	-1.38
684.73	21.62
684.76	-6.38
684.79	9.62
684.82	2.62
684.85	-4.38
684.88	11.62
684.91	1.62
684.94	2.62
684.97	-3.38
685	9.62
685.03	-0.38
685.06	4.62
685.09	6.62
685.12	17.62
685.15	-4.38
685.18	7.62
685.21	17.62
685.24	13.62
685.27	22.62
685.3	5.62
685.33	19.62
685.36	13.62
685.39	8.62
685.42	4.62
685.45	-13.38
685.48	3.62
685.51	-1.38
685.54	7.62
685.569	13.62
685.599	3.62
685.629	3.62
685.659	11.62
685.689	-3.38
685.719	-4.38
685.749	-3.38
685.779	13.62
685.809	17.62
685.839	8.62
685.869	6.62
685.898	9.62
685.928	-11.38
685.958	-12.38
685.988	12.62
686.018	-2.38
686.048	8.62
686.078	12.62
686.108	12.62
686.137	12.62
686.167	8.62
686.197	5.62
686.227	5.62
686.257	20.62
686.287	15.62
686.317	-11.38
686.346	0.62
686.376	7.62
686.406	10.62
686.436	8.62
686.466	4.62
686.496	2.62
686.525	8.62
686.555	8.62
686.585	11.62
686.615	14.62
686.645	-7.38
686.675	4.62
686.704	12.62
686.734	3.62
686.764	-3.38
686.794	-11.38
686.824	-7.38
686.853	10.62
686.883	19.62
686.913	10.62
686.943	12.62
686.973	3.62
687.002	-9.38
687.032	1.62
687.062	13.62
687.092	19.62
687.121	7.62
687.151	17.62
687.181	-1.38
687.211	7.62
687.24	-15.38
687.27	-10.38
687.3	7.62
687.33	4.62
687.359	-23.38
687.389	-12.38
687.419	6.62
687.449	0.62
687.478	18.62
687.508	17.62
687.538	13.62
687.568	11.62
687.597	2.62
687.627	13.62
687.657	4.62
687.686	20.62
687.716	27.62
687.746	1.62
687.776	4.62
687.805	6.62
687.835	14.62
687.865	20.62
687.894	-5.38
687.924	-2.38
687.954	4.62
687.983	-2.38
688.013	26.62
688.043	11.62
688.072	8.62
688.102	15.62
688.132	12.62
688.161	-6.38
688.191	-1.38
688.221	22.62
688.25	3.62
688.28	4.62
688.31	-4.38
688.339	5.62
688.369	-4.38
688.399	-2.38
688.428	-7.38
688.458	2.62
688.488	10.62
688.517	11.62
688.547	17.62
688.576	21.62
688.606	17.62
688.636	-25.38
688.665	3.62
688.695	3.62
688.725	7.62
688.754	15.62
688.784	11.62
688.813	27.62
688.843	0.62
688.873	8.62
688.902	-0.38
688.932	0.62
688.961	8.62
688.991	16.62
689.02	17.62
689.05	7.62
689.08	18.62
689.109	2.62
689.139	-4.38
689.168	10.62
689.198	1.62
689.227	-1.38
689.257	12.62
689.287	19.62
689.316	3.62
689.346	-11.38
689.375	-14.38
689.405	-0.38
689.434	7.62
689.464	3.62
689.493	1.62
689.523	-2.38
689.552	-13.38
689.582	6.62
689.611	-0.38
689.641	7.62
689.67	-5.38
689.7	3.62
689.73	24.62
689.759	20.62
689.789	13.62
689.818	-6.38
689.848	0.62
689.877	11.62
689.906	-0.38
689.936	-8.38
689.965	14.62
689.995	5.62
690.024	14.62
690.054	10.62
690.083	10.62
690.113	8.62
690.142	15.62
690.172	11.62
690.201	10.62
690.231	9.62
690.26	13.62
690.29	4.62
690.319	7.62
690.348	10.62
690.378	-10.38
690.407	16.62
690.437	0.62
690.466	4.62
690.496	1.62
690.525	13.62
690.555	-2.38
690.584	-0.38
690.613	13.62
690.643	24.62
690.672	16.62
690.702	18.62
690.731	5.62
690.76	5.62
690.79	-3.38
690.819	1.62
690.849	-6.38
690.878	7.62
690.907	8.62
690.937	18.62
690.966	17.62
690.996	11.62
691.025	9.62
691.054	16.62
691.084	5.62
691.113	3.62
691.142	12.62
691.172	3.62
691.201	14.62
691.23	4.62
691.26	12.62
691.289	9.62
691.319	11.62
691.348	10.62
691.377	10.62
691.407	4.62
691.436	1.62
691.465	16.62
691.495	4.62
691.524	-3.38
691.553	-5.38
691.583	2.62
691.612	17.62
691.641	-12.38
691.67	-9.38
691.7	9.62
691.729	-5.38
691.758	6.62
691.788	-5.38
691.817	0.62
691.846	7.62
691.876	6.62
691.905	22.62
691.934	4.62
691.963	16.62
691.993	25.62
692.022	15.62
692.051	-14.38
692.081	13.62
692.11	20.62
692.139	14.62
692.168	3.62
692.198	8.62
692.227	26.62
692.256	7.62
692.285	-12.38
692.315	0.62
692.344	23.62
692.373	12.62
692.402	-16.38
692.432	-7.38
692.461	-1.38
692.49	-0.38
692.519	9.62
692.548	17.62
692.578	2.62
692.607	-12.38
692.636	-3.38
692.665	14.62
692.694	-9.38
692.724	-4.38
692.753	13.62
692.782	18.62
692.811	2.62
692.84	9.62
692.87	12.62
692.899	7.62
692.928	3.62
692.957	1.62
692.986	10.62
693.016	12.62
693.045	19.62
693.074	13.62
693.103	15.62
693.132	1.62
693.161	3.62
693.191	3.62
693.22	0.62
693.249	-4.38
693.278	11.62
693.307	21.62
693.336	-8.38
693.365	-6.38
693.395	6.62
693.424	-0.38
693.453	6.62
693.482	20.62
693.511	23.62
693.54	0.62
693.569	11.62
693.598	15.62
693.628	12.62
693.657	24.62
693.686	26.62
693.715	8.62
693.744	23.62
693.773	21.62
693.802	3.62
693.831	3.62
693.86	36.62
693.889	-1.38
693.919	-2.38
693.948	-3.38
693.977	-7.38
694.006	8.62
694.035	-3.38
694.064	-9.38
694.093	1.62
694.122	4.62
694.151	16.62
694.18	17.62
694.209	23.62
694.238	7.62
694.267	19.62
694.296	13.62
694.325	27.62
694.354	24.62
694.383	11.62
694.412	5.62
694.441	-0.38
694.471	8.62
694.5	0.62
694.529	19.62
694.558	18.62
694.587	19.62
694.616	10.62
694.645	14.62
694.674	12.62
694.703	4.62
694.732	15.62
694.761	18.62
694.79	24.62
694.819	-11.38
694.848	-13.38
694.877	10.62
694.906	20.62
694.935	7.62
694.963	42.62
694.992	6.62
695.021	8.62
695.05	0.62
695.079	15.62
695.108	6.62
695.137	11.62
695.166	30.62
695.195	-2.38
695.224	12.62
695.253	8.62
695.282	-1.38
695.311	-1.38
695.34	-8.38
695.369	12.62
695.398	0.62
695.427	5.62
695.456	11.62
695.485	4.62
695.513	9.62
695.542	7.62
695.571	7.62
695.6	21.62
695.629	13.62
695.658	16.62
695.687	0.62
695.716	14.62
695.745	19.62
695.774	-8.38
695.802	1.62
695.831	25.62
695.86	14.62
695.889	18.62
695.918	7.62
695.947	-6.38
695.976	-1.38
696.005	3.62
696.033	8.62
696.062	15.62
696.091	10.62
696.12	-5.38
696.149	14.62
696.178	7.62
696.207	6.62
696.235	-2.38
696.264	7.62
696.293	5.62
696.322	14.62
696.351	1.62
696.38	-6.38
696.408	-1.38
696.437	-5.38
696.466	7.62
696.495	14.62
696.524	17.62
696.553	7.62
696.581	18.62
696.61	9.62
696.639	3.62
696.668	11.62
696.697	8.62
696.725	7.62
696.754	4.62
696.783	-11.38
696.812	-1.38
696.84	7.62
696.869	19.62
696.898	2.62
696.927	2.62
696.956	12.62
696.984	-13.38
697.013	16.62
697.042	2.62
697.071	1.62
697.099	12.62
697.128	2.62
697.157	7.62
697.186	-6.38
697.214	12.62
697.243	12.62
697.272	16.62
697.301	16.62
697.329	9.62
697.358	14.62
697.387	18.62
697.415	19.62
697.444	11.62
697.473	-1.38
697.502	-4.38
697.53	3.62
697.559	12.62
697.588	9.62
697.616	-0.38
697.645	14.62
697.674	9.62
697.703	-1.38
697.731	17.62
697.76	14.62
697.789	29.62
697.817	11.62
697.846	16.62
697.875	-8.38
697.903	16.62
697.932	5.62
697.961	-4.38
697.989	20.62
698.018	12.62
698.047	-2.38
698.075	18.62
698.104	-0.38
698.133	10.62
698.161	-0.38
698.19	7.62
698.218	-3.38
698.247	1.62
698.276	-7.38
698.304	13.62
698.333	0.62
698.362	3.62
698.39	28.62
698.419	20.62
698.447	-5.38
698.476	-8.38
698.505	2.62
698.533	6.62
698.562	14.62
698.591	-5.38
698.619	0.62
698.648	6.62
698.676	-4.38
698.705	-4.38
698.733	-18.38
698.762	12.62
698.791	6.62
698.819	5.62
698.848	-0.38
698.876	7.62
698.905	0.62
698.933	15.62
698.962	11.62
698.991	11.62
699.019	16.62
699.048	11.62
699.076	4.62
699.105	-4.38
699.133	-17.38
699.162	11.62
699.19	27.62
699.219	11.62
699.248	12.62
699.276	12.62
699.305	3.62
699.333	10.62
699.362	0.62
699.39	17.62
699.419	0.62
699.447	6.62
699.476	12.62
699.504	6.62
699.533	2.62
699.561	-1.38
699.59	4.62
699.618	8.62
699.647	-1.38
699.675	4.62
699.704	11.62
699.732	-0.38
699.761	14.62
699.789	10.62
699.818	10.62
699.846	-1.38
699.874	5.62
699.903	18.62
699.931	10.62
699.96	9.62
699.988	3.62
700.017	1.62
700.045	-2.38
700.074	-6.38
700.102	-4.38
700.13	5.62
700.159	4.62
700.187	20.62
700.216	0.62
700.244	-5.38
700.273	-10.38
700.301	-2.38
700.329	13.62
700.358	23.62
700.386	7.62
700.415	2.62
700.443	10.62
700.472	6.62
700.5	3.62
700.528	10.62
700.557	3.62
700.585	1.62
700.614	9.62
700.642	15.62
700.67	25.62
700.699	18.62
700.727	3.62
700.755	12.62
700.784	1.62
700.812	-0.38
700.841	10.62
700.869	6.62
700.897	-9.38
700.926	-7.38
700.954	6.62
700.982	15.62
701.011	4.62
701.039	3.62
701.067	2.62
701.096	25.62
701.124	2.62
701.152	18.62
701.181	13.62
701.209	-13.38
701.237	-4.38
701.266	4.62
701.294	-2.38
701.322	10.62
701.351	9.62
701.379	-1.38
701.407	-8.38
701.435	12.62
701.464	4.62
701.492	36.62
701.52	-2.38
701.549	-4.38
701.577	-14.38
701.605	-20.38
701.634	8.62
701.662	11.62
701.69	-8.38
701.718	5.62
701.747	11.62
701.775	17.62
701.803	1.62
701.831	14.62
701.86	-14.38
701.888	2.62
701.916	9.62
701.944	4.62
701.973	1.62
702.001	-12.38
702.029	6.62
702.057	-0.38
702.086	-5.38
702.114	-14.38
702.142	-7.38
702.17	-1.38
702.199	7.62
702.227	6.62
702.255	9.62
702.283	-2.38
702.311	16.62
702.34	9.62
702.368	-17.38
702.396	-8.38
702.424	10.62
702.452	-2.38
702.481	0.62
702.509	-1.38
702.537	6.62
702.565	17.62
702.593	0.62
702.621	8.62
702.65	14.62
702.678	16.62
702.706	18.62
702.734	-14.38
702.762	3.62
702.79	3.62
702.819	9.62
702.847	3.62
702.875	28.62
702.903	14.62
702.931	-14.38
702.959	6.62
702.988	12.62
703.016	-4.38
703.044	-0.38
703.072	3.62
703.1	-2.38
703.128	10.62
703.156	15.62
703.184	13.62
703.212	11.62
703.241	15.62
703.269	-4.38
703.297	-4.38
703.325	-3.38
703.353	-8.38
703.381	-12.38
703.409	11.62
703.437	-5.38
703.465	14.62
703.493	11.62
703.522	17.62
703.55	13.62
703.578	27.62
703.606	-7.38
703.634	5.62
703.662	-9.38
703.69	4.62
703.718	-6.38
703.746	21.62
703.774	6.62
703.802	10.62
703.83	12.62
703.858	0.62
703.886	-4.38
703.914	-9.38
703.942	7.62
703.97	14.62
703.998	-0.38
704.027	19.62
704.055	12.62
704.083	8.62
704.111	10.62
704.139	6.62
704.167	2.62
704.195	18.62
704.223	7.62
704.251	2.62
704.279	20.62
704.307	20.62
704.335	1.62
704.363	23.62
704.391	5.62
704.419	0.62
704.447	2.62
704.475	4.62
704.503	-2.38
704.531	14.62
704.558	18.62
704.586	17.62
704.614	11.62
704.642	13.62
704.67	-7.38
704.698	-7.38
704.726	11.62
704.754	3.62
704.782	-3.38
704.81	7.62
704.838	28.62
704.866	12.62
704.894	-3.38
704.922	-5.38
704.95	13.62
704.978	27.62
705.006	-1.38
705.034	3.62
705.061	8.62
705.089	7.62
705.117	7.62
705.145	-16.38
705.173	4.62
705.201	19.62
705.229	10.62
705.257	2.62
705.285	4.62
705.313	-9.38
705.34	0.62
705.368	11.62
705.396	-5.38
705.424	7.62
705.452	-11.38
705.48	-2.38
705.508	-8.38
705.536	2.62
705.563	5.62
705.591	14.62
705.619	7.62
705.647	3.62
705.675	-1.38
705.703	14.62
705.731	6.62
705.758	5.62
705.786	9.62
705.814	30.62
705.842	8.62
705.87	22.62
705.898	4.62
705.925	-14.38
705.953	-4.38
705.981	5.62
706.009	7.62
706.037	4.62
706.065	-9.38
706.092	8.62
706.12	18.62
706.148	9.62
706.176	-8.38
706.204	28.62
706.231	10.62
706.259	-4.38
706.287	0.62
706.315	6.62
706.342	15.62
706.37	9.62
706.398	12.62
706.426	4.62
706.454	-0.38
706.481	1.62
706.509	3.62
706.537	6.62
706.565	-12.38
706.592	5.62
706.62	7.62
706.648	4.62
706.676	-9.38
706.703	-6.38
706.731	0.62
706.759	-1.38
706.787	8.62
706.814	-1.38
706.842	-4.38
706.87	-9.38
706.897	-2.38
706.925	-8.38
706.953	9.62
706.981	16.62
707.008	10.62
707.036	0.62
707.064	4.62
707.091	-16.38
707.119	17.62
707.147	0.62
707.174	11.62
707.202	14.62
707.23	-5.38
707.258	11.62
707.285	-5.38
707.313	-6.38
707.341	-12.38
707.368	-1.38
707.396	9.62
707.424	13.62
707.451	10.62
707.479	-6.38
707.507	6.62
707.534	-12.38
707.562	6.62
707.59	-1.38
707.617	-3.38
707.645	0.62
707.672	9.62
707.7	16.62
707.728	21.62
707.755	3.62
707.783	5.62
707.811	3.62
707.838	1.62
707.866	10.62
707.893	7.62
707.921	-1.38
707.949	8.62
707.976	9.62
708.004	-1.38
708.031	-4.38
708.059	-4.38
708.087	8.62
708.114	-0.38
708.142	2.62
708.169	-1.38
708.197	-16.38
708.225	3.62
708.252	-1.38
708.28	25.62
708.307	-17.38
708.335	-16.38
708.362	2.62
708.39	-2.38
708.418	3.62
708.445	-3.38
708.473	2.62
708.5	-2.38
708.528	10.62
708.555	3.62
708.583	7.62
708.61	6.62
708.638	14.62
708.665	-2.38
708.693	4.62
708.72	7.62
708.748	-5.38
708.776	4.62
708.803	25.62
708.831	9.62
708.858	11.62
708.886	6.62
708.913	3.62
708.941	4.62
708.968	4.62
708.996	0.62
709.023	32.62
709.051	-6.38
709.078	-0.38
709.105	-1.38
709.133	4.62
709.16	5.62
709.188	13.62
709.215	8.62
709.243	5.62
709.27	6.62
709.298	-0.38
709.325	-9.38
709.353	-10.38
709.38	-4.38
709.408	3.62
709.435	9.62
709.462	-8.38
709.49	6.62
709.517	-0.38
709.545	6.62
709.572	4.62
709.6	12.62
709.627	7.62
709.655	6.62
709.682	-1.38
709.709	0.62
709.737	-2.38
709.764	0.62
709.792	1.62
709.819	16.62
709.846	11.62
709.874	7.62
709.901	30.62
709.929	31.62
709.956	15.62
709.983	-15.38
710.011	8.62
710.038	-3.38
710.066	19.62
710.093	8.62
710.12	18.62
710.148	-1.38
710.175	4.62
710.202	-9.38
710.23	0.62
710.257	-5.38
710.284	15.62
710.312	12.62
710.339	0.62
710.366	2.62
710.394	-4.38
710.421	12.62
710.448	6.62
710.476	-4.38
710.503	2.62
710.53	13.62
710.558	16.62
710.585	7.62
710.612	-6.38
710.64	3.62
710.667	-15.38
710.694	3.62
710.722	7.62
710.749	9.62
710.776	10.62
710.804	9.62
710.831	23.62
710.858	14.62
710.885	8.62
710.913	0.62
710.94	29.62
710.967	-6.38
710.995	-8.38
711.022	3.62
711.049	-5.38
711.076	-21.38
711.104	0.62
711.131	-8.38
711.158	3.62
711.185	4.62
711.213	0.62
711.24	4.62
711.267	6.62
711.294	4.62
711.322	8.62
711.349	-5.38
711.376	-0.38
711.403	6.62
711.431	-3.38
711.458	-6.38
711.485	2.62
711.512	3.62
711.54	9.62
711.567	11.62
711.594	6.62
711.621	-1.38
711.648	3.62
711.676	0.62
711.703	-0.38
711.73	-4.38
711.757	4.62
711.784	4.62
711.812	-7.38
711.839	-1.38
711.866	-8.38
711.893	-9.38
711.92	6.62
711.947	0.62
711.975	31.62
712.002	7.62
712.029	17.62
712.056	6.62
712.083	10.62
712.11	-6.38
712.138	3.62
712.165	-8.38
712.192	-6.38
712.219	-5.38
712.246	-1.38
712.273	-0.38
712.3	-9.38
712.328	-2.38
712.355	-1.38
712.382	-12.38
712.409	1.62
712.436	-16.38
712.463	19.62
712.49	14.62
712.517	17.62
712.544	15.62
712.572	-2.38
712.599	3.62
712.626	1.62
712.653	-5.38
712.68	-6.38
712.707	11.62
712.734	22.62
712.761	6.62
712.788	-1.38
712.815	6.62
712.842	11.62
712.87	-2.38
712.897	-1.38
712.924	1.62
712.951	1.62
712.978	5.62
713.005	14.62
713.032	14.62
713.059	3.62
713.086	6.62
713.113	-0.38
713.14	-5.38
713.167	11.62
713.194	8.62
713.221	14.62
713.248	13.62
713.275	12.62
713.302	-3.38
713.329	12.62
713.356	7.62
713.383	12.62
713.41	7.62
713.437	-12.38
713.464	9.62
713.491	14.62
713.518	-4.38
713.545	0.62
713.572	3.62
713.599	15.62
713.626	0.62
713.653	8.62
713.68	1.62
713.707	-0.38
713.734	2.62
713.761	1.62
713.788	8.62
713.815	8.62
713.842	7.62
713.869	6.62
713.896	18.62
713.923	7.62
713.95	2.62
713.977	-6.38
714.004	-1.38
714.031	-14.38
714.058	1.62
714.085	4.62
714.112	17.62
714.139	6.62
714.165	-1.38
714.192	-0.38
714.219	9.62
714.246	22.62
714.273	1.62
714.3	-2.38
714.327	13.62
714.354	23.62
714.381	2.62
714.408	0.62
714.435	-5.38
714.461	-3.38
714.488	-9.38
714.515	2.62
714.542	2.62
714.569	-21.38
714.596	-13.38
714.623	1.62
714.65	-6.38
714.677	2.62
714.703	-7.38
714.73	-3.38
714.757	4.62
714.784	0.62
714.811	-8.38
714.838	0.62
714.865	6.62
714.891	10.62
714.918	2.62
714.945	-1.38
714.972	0.62
714.999	13.62
715.026	12.62
715.052	7.62
715.079	3.62
715.106	9.62
715.133	4.62
715.16	-4.38
715.187	15.62
715.213	10.62
715.24	-2.38
715.267	-4.38
715.294	0.62
715.321	-5.38
715.347	5.62
715.374	-8.38
715.401	-1.38
715.428	2.62
715.455	3.62
715.481	-9.38
715.508	9.62
715.535	-0.38
715.562	21.62
715.588	12.62
715.615	4.62
715.642	4.62
715.669	33.62
715.695	-1.38
715.722	-3.38
715.749	6.62
715.776	-6.38
715.802	8.62
715.829	16.62
715.856	0.62
715.883	12.62
715.909	-1.38
715.936	4.62
715.963	16.62
715.99	-9.38
716.016	14.62
716.043	16.62
716.07	-5.38
716.096	-4.38
716.123	-1.38
716.15	-0.38
716.177	3.62
716.203	10.62
716.23	17.62
716.257	4.62
716.283	17.62
716.31	2.62
716.337	-0.38
716.363	15.62
716.39	11.62
716.417	26.62
716.443	-11.38
716.47	12.62
716.497	9.62
716.523	12.62
716.55	6.62
716.577	6.62
716.603	8.62
716.63	0.62
716.657	10.62
716.683	-4.38
716.71	0.62
716.737	11.62
716.763	26.62
716.79	-0.38
716.817	12.62
716.843	6.62
716.87	-16.38
716.897	0.62
716.923	23.62
716.95	-4.38
716.976	-0.38
717.003	-0.38
717.03	10.62
717.056	14.62
717.083	-13.38
717.109	4.62
717.136	19.62
717.163	7.62
717.189	8.62
717.216	-1.38
717.242	7.62
717.269	0.62
717.296	15.62
717.322	16.62
717.349	12.62
717.375	1.62
717.402	1.62
717.428	3.62
717.455	6.62
717.481	1.62
717.508	1.62
717.535	7.62
717.561	4.62
717.588	6.62
717.614	-7.38
717.641	-4.38
717.667	5.62
717.694	1.62
717.72	-6.38
717.747	-2.38
717.773	6.62
717.8	4.62
717.826	4.62
717.853	18.62
717.88	8.62
717.906	0.62
717.933	-0.38
717.959	3.62
717.986	6.62
718.012	10.62
718.039	11.62
718.065	33.62
718.092	7.62
718.118	-4.38
718.144	3.62
718.171	11.62
718.197	17.62
718.224	-2.38
718.25	6.62
718.277	10.62
718.303	12.62
718.33	7.62
718.356	-14.38
718.383	-8.38
718.409	0.62
718.436	9.62
718.462	4.62
718.489	6.62
718.515	19.62
718.541	13.62
718.568	15.62
718.594	13.62
718.621	7.62
718.647	-2.38
718.674	9.62
718.7	8.62
718.726	1.62
718.753	10.62
718.779	10.62
718.806	5.62
718.832	1.62
718.858	3.62
718.885	13.62
718.911	8.62
718.938	4.62
718.964	-5.38
718.99	6.62
719.017	-7.38
719.043	0.62
719.07	32.62
719.096	9.62
719.122	9.62
719.149	10.62
719.175	22.62
719.201	-3.38
719.228	-16.38
719.254	4.62
719.281	1.62
719.307	-4.38
719.333	-14.38
719.36	18.62
719.386	-9.38
719.412	9.62
719.439	-8.38
719.465	1.62
719.491	-9.38
719.518	10.62
719.544	6.62
719.57	6.62
719.597	-4.38
719.623	-18.38
719.649	13.62
719.675	-3.38
719.702	6.62
719.728	19.62
719.754	3.62
719.781	7.62
719.807	3.62
719.833	10.62
719.86	-4.38
719.886	-2.38
719.912	2.62
719.938	-11.38
719.965	1.62
719.991	14.62
720.017	9.62
720.044	0.62
720.07	-0.38
720.096	22.62
720.122	8.62
720.149	17.62
720.175	28.62
720.201	11.62
720.227	10.62
720.254	8.62
720.28	14.62
720.306	7.62
720.332	12.62
720.359	1.62
720.385	13.62
720.411	16.62
720.437	7.62
720.463	8.62
720.49	22.62
720.516	-3.38
720.542	-5.38
720.568	12.62
720.595	5.62
720.621	-3.38
720.647	26.62
720.673	19.62
720.699	-5.38
720.725	5.62
720.752	0.62
720.778	5.62
720.804	18.62
720.83	20.62
720.856	10.62
720.883	-9.38
720.909	-15.38
720.935	-2.38
720.961	10.62
720.987	1.62
721.013	3.62
721.04	8.62
721.066	9.62
721.092	2.62
721.118	14.62
721.144	-2.38
721.17	1.62
721.196	2.62
721.223	10.62
721.249	7.62
721.275	18.62
721.301	0.62
721.327	2.62
721.353	9.62
721.379	19.62
721.405	9.62
721.432	6.62
721.458	11.62
721.484	19.62
721.51	-9.38
721.536	3.62
721.562	18.62
721.588	6.62
721.614	1.62
721.64	5.62
721.666	2.62
721.693	5.62
721.719	-6.38
721.745	0.62
721.771	2.62
721.797	9.62
721.823	7.62
721.849	14.62
721.875	18.62
721.901	6.62
721.927	-2.38
721.953	3.62
721.979	10.62
722.005	9.62
722.031	-4.38
722.057	8.62
722.083	9.62
722.109	7.62
722.135	4.62
722.161	3.62
722.187	-1.38
722.214	4.62
722.24	4.62
722.266	-9.38
722.292	11.62
722.318	17.62
722.344	6.62
722.37	8.62
722.396	12.62
722.422	-5.38
722.448	0.62
722.474	-6.38
722.5	22.62
722.526	1.62
722.552	0.62
722.578	-1.38
722.603	4.62
722.629	2.62
722.655	14.62
722.681	18.62
722.707	11.62
722.733	2.62
722.759	1.62
722.785	2.62
722.811	2.62
722.837	18.62
722.863	24.62
722.889	24.62
722.915	0.62
722.941	0.62
722.967	-7.38
722.993	-0.38
723.019	-3.38
723.045	8.62
723.071	3.62
723.097	11.62
723.122	5.62
723.148	1.62
723.174	0.62
723.2	7.62
723.226	11.62
723.252	1.62
723.278	12.62
723.304	1.62
723.33	3.62
723.356	0.62
723.381	-9.38
723.407	2.62
723.433	4.62
723.459	-4.38
723.485	13.62
723.511	4.62
723.537	-0.38
723.563	11.62
723.588	18.62
723.614	12.62
723.64	19.62
723.666	10.62
723.692	20.62
723.718	-9.38
723.744	2.62
723.769	6.62
723.795	4.62
723.821	11.62
723.847	-4.38
723.873	2.62
723.899	14.62
723.924	-5.38
723.95	5.62
723.976	-17.38
724.002	4.62
724.028	7.62
724.053	5.62
724.079	-5.38
724.105	9.62
724.131	3.62
724.157	9.62
724.182	8.62
724.208	-2.38
724.234	3.62
724.26	-9.38
724.286	7.62
724.311	3.62
724.337	2.62
724.363	-15.38
724.389	18.62
724.415	0.62
724.44	27.62
724.466	6.62
724.492	7.62
724.518	19.62
724.543	16.62
724.569	10.62
724.595	19.62
724.621	8.62
724.646	-14.38
724.672	-2.38
724.698	-0.38
724.723	2.62
724.749	0.62
724.775	3.62
724.801	3.62
724.826	1.62
724.852	12.62
724.878	2.62
724.904	-8.38
724.929	0.62
724.955	-12.38
724.981	2.62
725.006	-1.38
725.032	16.62
725.058	11.62
725.083	-8.38
725.109	1.62
725.135	11.62
725.161	15.62
725.186	0.62
725.212	-4.38
725.238	3.62
725.263	4.62
725.289	5.62
725.315	2.62
725.34	1.62
725.366	18.62
725.392	-0.38
725.417	-2.38
725.443	-11.38
725.468	0.62
725.494	19.62
725.52	6.62
725.545	1.62
725.571	8.62
725.597	-1.38
725.622	-2.38
725.648	4.62
725.674	20.62
725.699	4.62
725.725	-0.38
725.75	24.62
725.776	0.62
725.802	0.62
725.827	21.62
725.853	-5.38
725.878	13.62
725.904	2.62
725.93	-2.38
725.955	-12.38
725.981	-5.38
726.006	-0.38
726.032	2.62
726.057	3.62
726.083	-1.38
726.109	13.62
726.134	11.62
726.16	7.62
726.185	2.62
726.211	10.62
726.236	21.62
726.262	8.62
726.288	2.62
726.313	3.62
726.339	13.62
726.364	15.62
726.39	11.62
726.415	-0.38
726.441	-7.38
726.466	-11.38
726.492	-1.38
726.517	16.62
726.543	6.62
726.568	-6.38
726.594	-3.38
726.619	3.62
726.645	1.62
726.67	18.62
726.696	10.62
726.721	6.62
726.747	-6.38
726.772	7.62
726.798	2.62
726.823	9.62
726.849	6.62
726.874	12.62
726.9	30.62
726.925	14.62
726.951	-1.38
726.976	-2.38
727.002	-7.38
727.027	19.62
727.053	21.62
727.078	1.62
727.104	2.62
727.129	0.62
727.155	-1.38
727.18	5.62
727.205	6.62
727.231	-3.38
727.256	-0.38
727.282	8.62
727.307	26.62
727.333	8.62
727.358	-1.38
727.383	-13.38
727.409	-17.38
727.434	2.62
727.46	-2.38
727.485	-6.38
727.511	9.62
727.536	-15.38
727.561	9.62
727.587	2.62
727.612	-0.38
727.637	9.62
727.663	6.62
727.688	41.62
727.714	-4.38
727.739	14.62
727.764	1.62
727.79	0.62
727.815	9.62
727.841	3.62
727.866	5.62
727.891	16.62
727.917	-3.38
727.942	-6.38
727.967	4.62
727.993	-21.38
728.018	-14.38
728.043	13.62
728.069	13.62
728.094	29.62
728.119	2.62
728.145	8.62
728.17	4.62
728.195	5.62
728.221	15.62
728.246	4.62
728.271	-21.38
728.297	4.62
728.322	-4.38
728.347	8.62
728.373	16.62
728.398	6.62
728.423	-5.38
728.448	-4.38
728.474	-0.38
728.499	11.62
728.524	-9.38
728.55	-6.38
728.575	-7.38
728.6	-5.38
728.625	-1.38
728.651	6.62
728.676	6.62
728.701	10.62
728.727	7.62
728.752	-9.38
728.777	-3.38
728.802	14.62
728.828	15.62
728.853	-2.38
728.878	-9.38
728.903	-9.38
728.929	-3.38
728.954	-4.38
728.979	12.62
729.004	10.62
729.03	6.62
729.055	6.62
729.08	-7.38
729.105	-9.38
729.13	10.62
729.156	7.62
729.181	3.62
729.206	-13.38
729.231	-7.38
729.256	5.62
729.282	14.62
729.307	9.62
729.332	8.62
729.357	-1.38
729.382	-2.38
729.408	-0.38
729.433	7.62
729.458	3.62
729.483	4.62
729.508	26.62
729.533	17.62
729.559	28.62
729.584	-4.38
729.609	10.62
729.634	13.62
729.659	3.62
729.684	-0.38
729.71	19.62
729.735	1.62
729.76	0.62
729.785	5.62
729.81	15.62
729.835	-11.38
729.86	-7.38
729.886	2.62
729.911	10.62
729.936	-13.38
729.961	-4.38
729.986	-5.38
730.011	10.62
730.036	8.62
730.061	8.62
730.086	-4.38
730.112	-4.38
730.137	24.62
730.162	17.62
730.187	-11.38
730.212	4.62
730.237	-1.38
730.262	4.62
730.287	16.62
730.312	7.62
730.337	-15.38
730.362	19.62
730.387	8.62
730.413	-17.38
730.438	-8.38
730.463	-0.38
730.488	-13.38
730.513	-9.38
730.538	-4.38
730.563	11.62
730.588	14.62
730.613	7.62
730.638	-8.38
730.663	10.62
730.688	20.62
730.713	5.62
730.738	8.62
730.763	-0.38
730.788	-9.38
730.813	3.62
730.838	2.62
730.863	7.62
730.888	6.62
730.913	-1.38
730.938	-9.38
730.963	15.62
730.988	6.62
731.013	10.62
731.038	-3.38
731.063	0.62
731.088	13.62
731.113	3.62
731.138	12.62
731.163	-1.38
731.188	-1.38
731.213	-1.38
731.238	9.62
731.263	-13.38
731.288	0.62
731.313	11.62
731.338	12.62
731.363	4.62
731.388	7.62
731.413	1.62
731.438	17.62
731.463	2.62
731.487	6.62
731.512	0.62
731.537	1.62
731.562	17.62
731.587	16.62
731.612	-3.38
731.637	3.62
731.662	0.62
731.687	1.62
731.712	-7.38
731.737	11.62
731.762	4.62
731.786	8.62
731.811	23.62
731.836	15.62
731.861	1.62
731.886	-6.38
731.911	11.62
731.936	25.62
731.961	-0.38
731.986	4.62
732.01	17.62
732.035	11.62
732.06	21.62
732.085	6.62
732.11	4.62
732.135	-1.38
732.16	3.62
732.184	8.62
732.209	-2.38
732.234	-3.38
732.259	3.62
732.284	28.62
732.309	6.62
732.334	-11.38
732.358	-12.38
732.383	-16.38
732.408	-5.38
732.433	2.62
732.458	7.62
732.482	5.62
732.507	-3.38
732.532	2.62
732.557	20.62
732.582	14.62
732.607	0.62
732.631	-6.38
732.656	-4.38
732.681	5.62
732.706	22.62
732.73	12.62
732.755	-0.38
732.78	14.62
732.805	17.62
732.83	-1.38
732.854	6.62
732.879	18.62
732.904	7.62
732.929	4.62
732.953	12.62
732.978	2.62
733.003	2.62
733.028	-0.38
733.052	14.62
733.077	18.62
733.102	13.62
733.127	3.62
733.151	0.62
733.176	12.62
733.201	-5.38
733.226	-2.38
733.25	4.62
733.275	5.62
733.3	3.62
733.324	22.62
733.349	11.62
733.374	19.62
733.399	3.62
733.423	6.62
733.448	20.62
733.473	-1.38
733.497	4.62
733.522	-5.38
733.547	16.62
733.571	30.62
733.596	12.62
733.621	16.62
733.646	3.62
733.67	6.62
733.695	-6.38
733.72	4.62
733.744	-0.38
733.769	4.62
733.794	18.62
733.818	-9.38
733.843	4.62
733.867	0.62
733.892	-2.38
733.917	-0.38
733.941	8.62
733.966	-1.38
733.991	3.62
734.015	20.62
734.04	8.62
734.065	12.62
734.089	20.62
734.114	3.62
734.138	20.62
734.163	5.62
734.188	17.62
734.212	19.62
734.237	6.62
734.261	13.62
734.286	6.62
734.311	6.62
734.335	1.62
734.36	0.62
734.384	11.62
734.409	8.62
734.434	-7.38
734.458	14.62
734.483	11.62
734.507	5.62
734.532	-1.38
734.556	11.62
734.581	-5.38
734.606	-10.38
734.63	7.62
734.655	10.62
734.679	-9.38
734.704	-3.38
734.728	-2.38
734.753	-1.38
734.777	-0.38
734.802	12.62
734.826	19.62
734.851	-0.38
734.876	12.62
734.9	6.62
734.925	2.62
734.949	2.62
734.974	0.62
734.998	6.62
735.023	-0.38
735.047	-9.38
735.072	31.62
735.096	11.62
735.121	3.62
735.145	6.62
735.17	-1.38
735.194	21.62
735.219	-0.38
735.243	-4.38
735.268	-1.38
735.292	9.62
735.317	4.62
735.341	0.62
735.365	-9.38
735.39	-7.38
735.414	15.62
735.439	14.62
735.463	24.62
735.488	11.62
735.512	-10.38
735.537	7.62
735.561	7.62
735.586	1.62
735.61	1.62
735.634	9.62
735.659	7.62
735.683	26.62
735.708	22.62
735.732	0.62
735.757	-0.38
735.781	15.62
735.805	14.62
735.83	-4.38
735.854	-0.38
735.879	-7.38
735.903	12.62
735.927	5.62
735.952	23.62
735.976	-3.38
736.001	5.62
736.025	7.62
736.049	8.62
736.074	3.62
736.098	-11.38
736.123	-2.38
736.147	15.62
736.171	7.62
736.196	15.62
736.22	2.62
736.244	16.62
736.269	11.62
736.293	12.62
736.317	10.62
736.342	5.62
736.366	14.62
736.39	17.62
736.415	-1.38
736.439	23.62
736.463	10.62
736.488	17.62
736.512	4.62
736.536	10.62
736.561	33.62
736.585	17.62
736.609	-1.38
736.634	10.62
736.658	7.62
736.682	-9.38
736.707	-6.38
736.731	-11.38
736.755	2.62
736.78	11.62
736.804	34.62
736.828	2.62
736.852	-3.38
736.877	2.62
736.901	12.62
736.925	0.62
736.949	18.62
736.974	4.62
736.998	1.62
737.022	8.62
737.047	-1.38
737.071	0.62
737.095	28.62
737.119	22.62
737.144	25.62
737.168	9.62
737.192	-7.38
737.216	10.62
737.241	4.62
737.265	6.62
737.289	13.62
737.313	6.62
737.337	15.62
737.362	15.62
737.386	0.62
737.41	1.62
737.434	18.62
737.459	2.62
737.483	17.62
737.507	20.62
737.531	12.62
737.555	2.62
737.58	18.62
737.604	2.62
737.628	-22.38
737.652	-4.38
737.676	7.62
737.701	18.62
737.725	3.62
737.749	9.62
737.773	14.62
737.797	6.62
737.821	4.62
737.846	3.62
737.87	23.62
737.894	3.62
737.918	3.62
737.942	6.62
737.966	9.62
737.99	5.62
738.015	15.62
738.039	11.62
738.063	10.62
738.087	10.62
738.111	6.62
738.135	18.62
738.159	17.62
738.184	8.62
738.208	12.62
738.232	15.62
738.256	11.62
738.28	10.62
738.304	12.62
738.328	4.62
738.352	15.62
738.376	8.62
738.4	-1.38
738.425	10.62
738.449	2.62
738.473	18.62
738.497	2.62
738.521	16.62
738.545	6.62
738.569	10.62
738.593	16.62
738.617	8.62
738.641	7.62
738.665	13.62
738.689	15.62
738.713	2.62
738.737	4.62
738.762	24.62
738.786	14.62
738.81	-17.38
738.834	14.62
738.858	5.62
738.882	7.62
738.906	4.62
738.93	3.62
738.954	3.62
738.978	10.62
739.002	5.62
739.026	25.62
739.05	23.62
739.074	1.62
739.098	11.62
739.122	16.62
739.146	3.62
739.17	19.62
739.194	14.62
739.218	5.62
739.242	-2.38
739.266	2.62
739.29	6.62
739.314	17.62
739.338	18.62
739.362	14.62
739.386	20.62
739.41	3.62
739.434	-7.38
739.458	24.62
739.482	4.62
739.506	6.62
739.53	-7.38
739.554	4.62
739.577	-0.38
739.601	6.62
739.625	3.62
739.649	6.62
739.673	8.62
739.697	17.62
739.721	23.62
739.745	10.62
739.769	19.62
739.793	15.62
739.817	22.62
739.841	-1.38
739.865	6.62
739.889	3.62
739.912	19.62
739.936	6.62
739.96	9.62
739.984	14.62
740.008	4.62
740.032	-10.38
740.056	18.62
740.08	10.62
740.104	13.62
740.127	20.62
740.151	15.62
740.175	8.62
740.199	26.62
740.223	54.62
740.247	21.62
740.271	17.62
740.295	-2.38
740.318	-15.38
740.342	6.62
740.366	17.62
740.39	24.62
740.414	5.62
740.438	0.62
740.461	16.62
740.485	18.62
740.509	-11.38
740.533	19.62
740.557	-3.38
740.581	-2.38
740.604	-7.38
740.628	9.62
740.652	4.62
740.676	-2.38
740.7	16.62
740.723	-5.38
740.747	-3.38
740.771	3.62
740.795	1.62
740.819	15.62
740.842	-2.38
740.866	11.62
740.89	16.62
740.914	3.62
740.938	-2.38
740.961	14.62
740.985	3.62
741.009	-1.38
741.033	-6.38
741.056	14.62
741.08	1.62
741.104	-0.38
741.128	12.62
741.151	24.62
741.175	7.62
741.199	6.62
741.223	-1.38
741.246	2.62
741.27	6.62
741.294	14.62
741.318	3.62
741.341	7.62
741.365	18.62
741.389	11.62
741.413	15.62
741.436	11.62
741.46	10.62
741.484	17.62
741.507	7.62
741.531	46.62
741.555	6.62
741.579	12.62
741.602	5.62
741.626	22.62
741.65	7.62
741.673	13.62
741.697	27.62
741.721	7.62
741.744	2.62
741.768	-6.38
741.792	9.62
741.815	-0.38
741.839	18.62
741.863	17.62
741.886	11.62
741.91	11.62
741.934	1.62
741.957	-3.38
741.981	10.62
742.005	-7.38
742.028	-8.38
742.052	2.62
742.075	10.62
742.099	15.62
742.123	4.62
742.146	11.62
742.17	13.62
742.194	-6.38
742.217	0.62
742.241	10.62
742.264	-3.38
742.288	24.62
742.312	13.62
742.335	-3.38
742.359	4.62
742.382	7.62
742.406	8.62
742.43	-0.38
742.453	2.62
742.477	-12.38
742.5	-7.38
742.524	11.62
742.548	-4.38
742.571	1.62
742.595	3.62
742.618	-3.38
742.642	6.62
742.665	24.62
742.689	5.62
742.712	4.62
742.736	0.62
742.76	14.62
742.783	11.62
742.807	18.62
742.83	18.62
742.854	4.62
742.877	0.62
742.901	7.62
742.924	6.62
742.948	9.62
742.971	15.62
742.995	15.62
743.018	-1.38
743.042	-1.38
743.065	-17.38
743.089	-1.38
743.112	-0.38
743.136	-12.38
743.159	11.62
743.183	0.62
743.206	-2.38
743.23	2.62
743.253	19.62
743.277	16.62
743.3	-7.38
743.324	-3.38
743.347	-0.38
743.371	6.62
743.394	16.62
743.418	24.62
743.441	22.62
743.465	4.62
743.488	-1.38
743.512	-7.38
743.535	3.62
743.558	-1.38
743.582	4.62
743.605	13.62
743.629	11.62
743.652	11.62
743.676	-5.38
743.699	10.62
743.723	18.62
743.746	15.62
743.769	4.62
743.793	3.62
743.816	-10.38
743.84	-8.38
743.863	1.62
743.886	-2.38
743.91	8.62
743.933	7.62
743.957	2.62
743.98	-0.38
744.003	4.62
744.027	6.62
744.05	5.62
744.074	11.62
744.097	-9.38
744.12	-8.38
744.144	3.62
744.167	12.62
744.19	4.62
744.214	-1.38
744.237	-2.38
744.26	16.62
744.284	0.62
744.307	-2.38
744.331	16.62
744.354	-1.38
744.377	-0.38
744.401	-3.38
744.424	-3.38
744.447	-1.38
744.471	-11.38
