Data from HighRes_H2D2_15_04_11_07_2024_HR4C61891__58__15-05-40-243.txt Node

Date: Thu Nov 07 15:05:40 EST 2024
User: crc00042
Spectrometer: HR4C6189
Trigger mode: 4
Integration Time (sec): 1.000000E-1
Scans to average: 1
Electric dark correction enabled: true
Nonlinearity correction enabled: false
Boxcar width: 0
XAxis mode: Wavelengths
Number of Pixels in Spectrum: 3648
>>>>>Begin Spectral Data<<<<<
639.567	-25.46
639.602	-25.46
639.636	-25.46
639.67	-36.46
639.704	-4.46
639.738	0.54
639.773	9.54
639.807	-21.46
639.841	6.54
639.875	16.54
639.909	-9.46
639.943	-16.46
639.978	-4.46
640.012	12.54
640.046	8.54
640.08	3.54
640.114	12.54
640.148	-18.46
640.182	4.54
640.217	1.54
640.251	11.54
640.285	19.54
640.319	-0.46
640.353	-6.46
640.387	6.54
640.421	-7.46
640.455	-7.46
640.49	5.54
640.524	12.54
640.558	8.54
640.592	1.54
640.626	11.54
640.66	12.54
640.694	4.54
640.728	0.54
640.762	1.54
640.796	0.54
640.83	12.54
640.865	-0.46
640.899	-1.46
640.933	0.54
640.967	-12.46
641.001	28.54
641.035	12.54
641.069	-9.46
641.103	-20.46
641.137	-9.46
641.171	-25.46
641.205	2.54
641.239	8.54
641.273	20.54
641.307	13.54
641.341	0.54
641.375	5.54
641.409	-14.46
641.443	-5.46
641.477	10.54
641.511	0.54
641.545	-14.46
641.579	3.54
641.614	13.54
641.648	1.54
641.682	-4.46
641.716	-0.46
641.75	2.54
641.784	0.54
641.818	9.54
641.852	-2.46
641.886	-18.46
641.919	18.54
641.953	1.54
641.987	-15.46
642.021	3.54
642.055	10.54
642.089	-4.46
642.123	-10.46
642.157	9.54
642.191	-4.46
642.225	3.54
642.259	-4.46
642.293	9.54
642.327	6.54
642.361	7.54
642.395	11.54
642.429	9.54
642.463	12.54
642.497	1.54
642.531	-3.46
642.565	-12.46
642.599	11.54
642.633	-17.46
642.666	10.54
642.7	12.54
642.734	18.54
642.768	3.54
642.802	-12.46
642.836	10.54
642.87	-1.46
642.904	1.54
642.938	10.54
642.972	7.54
643.005	2.54
643.039	31.54
643.073	6.54
643.107	-2.46
643.141	13.54
643.175	3.54
643.209	-6.46
643.243	-0.46
643.276	11.54
643.31	-6.46
643.344	8.54
643.378	5.54
643.412	24.54
643.446	4.54
643.48	7.54
643.513	14.54
643.547	-0.46
643.581	-4.46
643.615	-6.46
643.649	8.54
643.683	5.54
643.716	7.54
643.75	3.54
643.784	-8.46
643.818	-6.46
643.852	-9.46
643.886	-4.46
643.919	10.54
643.953	7.54
643.987	-4.46
644.021	31.54
644.055	6.54
644.088	14.54
644.122	-10.46
644.156	-1.46
644.19	0.54
644.224	-2.46
644.257	1.54
644.291	-1.46
644.325	8.54
644.359	-1.46
644.392	18.54
644.426	-3.46
644.46	1.54
644.494	-5.46
644.527	-6.46
644.561	2.54
644.595	10.54
644.629	-12.46
644.662	10.54
644.696	19.54
644.73	-6.46
644.764	-1.46
644.797	8.54
644.831	-15.46
644.865	11.54
644.899	3.54
644.932	27.54
644.966	5.54
645	10.54
645.033	17.54
645.067	8.54
645.101	14.54
645.135	8.54
645.168	-1.46
645.202	1.54
645.236	-8.46
645.269	10.54
645.303	-9.46
645.337	-2.46
645.37	2.54
645.404	6.54
645.438	-7.46
645.471	-16.46
645.505	10.54
645.539	10.54
645.572	-15.46
645.606	-14.46
645.64	0.54
645.673	-1.46
645.707	14.54
645.741	2.54
645.774	1.54
645.808	15.54
645.842	-3.46
645.875	8.54
645.909	2.54
645.943	-12.46
645.976	-4.46
646.01	-0.46
646.043	14.54
646.077	9.54
646.111	10.54
646.144	12.54
646.178	13.54
646.212	-12.46
646.245	-12.46
646.279	10.54
646.312	18.54
646.346	19.54
646.38	8.54
646.413	10.54
646.447	4.54
646.48	1.54
646.514	14.54
646.547	7.54
646.581	-8.46
646.615	-12.46
646.648	-2.46
646.682	6.54
646.715	10.54
646.749	9.54
646.782	3.54
646.816	-6.46
646.85	8.54
646.883	-2.46
646.917	6.54
646.95	19.54
646.984	7.54
647.017	10.54
647.051	13.54
647.084	12.54
647.118	-7.46
647.151	-5.46
647.185	16.54
647.218	-8.46
647.252	1.54
647.285	7.54
647.319	-22.46
647.353	10.54
647.386	12.54
647.42	-2.46
647.453	7.54
647.487	9.54
647.52	5.54
647.553	15.54
647.587	13.54
647.62	-3.46
647.654	-13.46
647.687	14.54
647.721	5.54
647.754	14.54
647.788	5.54
647.821	-2.46
647.855	10.54
647.888	22.54
647.922	8.54
647.955	-1.46
647.989	10.54
648.022	17.54
648.055	37.54
648.089	9.54
648.122	25.54
648.156	-8.46
648.189	13.54
648.223	6.54
648.256	10.54
648.29	10.54
648.323	-2.46
648.356	12.54
648.39	2.54
648.423	6.54
648.457	9.54
648.49	11.54
648.523	10.54
648.557	4.54
648.59	-5.46
648.624	2.54
648.657	2.54
648.69	22.54
648.724	16.54
648.757	20.54
648.791	15.54
648.824	12.54
648.857	18.54
648.891	-9.46
648.924	8.54
648.957	22.54
648.991	-5.46
649.024	24.54
649.057	-5.46
649.091	5.54
649.124	26.54
649.158	14.54
649.191	27.54
649.224	-3.46
649.258	-3.46
649.291	1.54
649.324	1.54
649.358	2.54
649.391	8.54
649.424	3.54
649.458	6.54
649.491	-4.46
649.524	0.54
649.557	4.54
649.591	-14.46
649.624	6.54
649.657	-0.46
649.691	0.54
649.724	8.54
649.757	10.54
649.791	20.54
649.824	18.54
649.857	14.54
649.89	1.54
649.924	-10.46
649.957	4.54
649.99	-0.46
650.023	7.54
650.057	-5.46
650.09	10.54
650.123	6.54
650.157	0.54
650.19	20.54
650.223	1.54
650.256	7.54
650.29	1.54
650.323	-12.46
650.356	0.54
650.389	-0.46
650.423	-2.46
650.456	5.54
650.489	3.54
650.522	6.54
650.555	12.54
650.589	7.54
650.622	0.54
650.655	8.54
650.688	17.54
650.721	17.54
650.755	10.54
650.788	12.54
650.821	15.54
650.854	1.54
650.887	9.54
650.921	-0.46
650.954	2.54
650.987	16.54
651.02	-9.46
651.053	-4.46
651.087	-4.46
651.12	25.54
651.153	11.54
651.186	-4.46
651.219	-9.46
651.252	7.54
651.286	-4.46
651.319	6.54
651.352	-5.46
651.385	5.54
651.418	-8.46
651.451	14.54
651.484	5.54
651.518	-1.46
651.551	27.54
651.584	8.54
651.617	19.54
651.65	5.54
651.683	21.54
651.716	1.54
651.749	0.54
651.783	2.54
651.816	9.54
651.849	12.54
651.882	1.54
651.915	-8.46
651.948	0.54
651.981	-0.46
652.014	-13.46
652.047	-0.46
652.08	-3.46
652.114	-14.46
652.147	-14.46
652.18	3.54
652.213	31.54
652.246	13.54
652.279	-1.46
652.312	17.54
652.345	-4.46
652.378	-0.46
652.411	19.54
652.444	-7.46
652.477	6.54
652.51	-2.46
652.543	-15.46
652.576	5.54
652.609	-3.46
652.642	4.54
652.675	13.54
652.709	-6.46
652.742	20.54
652.775	-2.46
652.808	22.54
652.841	-0.46
652.874	4.54
652.907	1.54
652.94	-4.46
652.973	-13.46
653.006	-13.46
653.039	-4.46
653.072	-14.46
653.105	7.54
653.138	-12.46
653.171	-10.46
653.204	12.54
653.237	10.54
653.27	-4.46
653.303	15.54
653.336	17.54
653.368	-0.46
653.401	22.54
653.434	15.54
653.467	15.54
653.5	-12.46
653.533	3.54
653.566	20.54
653.599	11.54
653.632	4.54
653.665	6.54
653.698	-18.46
653.731	-5.46
653.764	18.54
653.797	-1.46
653.83	8.54
653.863	-9.46
653.896	-5.46
653.929	-7.46
653.961	23.54
653.994	6.54
654.027	0.54
654.06	-5.46
654.093	3.54
654.126	9.54
654.159	-0.46
654.192	1.54
654.225	2.54
654.258	-5.46
654.29	-5.46
654.323	6.54
654.356	-18.46
654.389	22.54
654.422	10.54
654.455	8.54
654.488	11.54
654.521	-1.46
654.553	-1.46
654.586	2.54
654.619	-6.46
654.652	-2.46
654.685	0.54
654.718	16.54
654.751	18.54
654.783	10.54
654.816	12.54
654.849	-0.46
654.882	-13.46
654.915	-18.46
654.948	1.54
654.98	-10.46
655.013	2.54
655.046	8.54
655.079	8.54
655.112	5.54
655.144	-19.46
655.177	12.54
655.21	-4.46
655.243	1.54
655.276	13.54
655.308	9.54
655.341	-16.46
655.374	14.54
655.407	-5.46
655.44	-6.46
655.472	8.54
655.505	-1.46
655.538	5.54
655.571	13.54
655.603	1.54
655.636	2.54
655.669	8.54
655.702	0.54
655.734	6.54
655.767	-0.46
655.8	-1.46
655.833	-0.46
655.865	29.54
655.898	2.54
655.931	1.54
655.964	15.54
655.996	5.54
656.029	30.54
656.062	21.54
656.095	58.54
656.127	82.54
656.16	219.54
656.193	614.54
656.225	905.54
656.258	549.54
656.291	213.54
656.324	182.54
656.356	368.54
656.389	749.54
656.422	658.54
656.454	239.54
656.487	87.54
656.52	34.54
656.552	9.54
656.585	25.54
656.618	21.54
656.65	13.54
656.683	3.54
656.716	3.54
656.748	-7.46
656.781	-1.46
656.814	3.54
656.846	22.54
656.879	3.54
656.912	10.54
656.944	-8.46
656.977	-9.46
657.01	-4.46
657.042	-1.46
657.075	9.54
657.108	-3.46
657.14	12.54
657.173	12.54
657.205	29.54
657.238	8.54
657.271	12.54
657.303	-2.46
657.336	14.54
657.369	6.54
657.401	-9.46
657.434	-17.46
657.466	9.54
657.499	-0.46
657.532	-6.46
657.564	12.54
657.597	1.54
657.629	11.54
657.662	-5.46
657.694	10.54
657.727	-0.46
657.76	5.54
657.792	-22.46
657.825	3.54
657.857	14.54
657.89	1.54
657.922	-2.46
657.955	-6.46
657.987	10.54
658.02	24.54
658.053	22.54
658.085	3.54
658.118	8.54
658.15	22.54
658.183	24.54
658.215	-1.46
658.248	-6.46
658.28	15.54
658.313	16.54
658.345	7.54
658.378	7.54
658.41	-10.46
658.443	7.54
658.475	11.54
658.508	-10.46
658.54	-4.46
658.573	-6.46
658.605	7.54
658.638	9.54
658.67	-8.46
658.703	17.54
658.735	-13.46
658.768	1.54
658.8	-3.46
658.833	13.54
658.865	11.54
658.898	2.54
658.93	1.54
658.963	-5.46
658.995	-9.46
659.028	14.54
659.06	14.54
659.092	12.54
659.125	-8.46
659.157	13.54
659.19	-3.46
659.222	-8.46
659.255	-15.46
659.287	7.54
659.32	17.54
659.352	6.54
659.384	3.54
659.417	-20.46
659.449	-0.46
659.482	-4.46
659.514	-6.46
659.546	-9.46
659.579	-3.46
659.611	13.54
659.644	12.54
659.676	-15.46
659.708	-6.46
659.741	-17.46
659.773	6.54
659.806	-4.46
659.838	-2.46
659.87	-9.46
659.903	-15.46
659.935	6.54
659.967	2.54
660	-2.46
660.032	-1.46
660.065	25.54
660.097	7.54
660.129	-3.46
660.162	-17.46
660.194	6.54
660.226	2.54
660.259	13.54
660.291	-7.46
660.323	-3.46
660.356	-12.46
660.388	-14.46
660.42	3.54
660.453	8.54
660.485	24.54
660.517	19.54
660.55	15.54
660.582	-5.46
660.614	13.54
660.647	-0.46
660.679	-9.46
660.711	13.54
660.743	-17.46
660.776	2.54
660.808	-3.46
660.84	-9.46
660.873	6.54
660.905	-15.46
660.937	7.54
660.969	-4.46
661.002	3.54
661.034	11.54
661.066	-1.46
661.099	11.54
661.131	14.54
661.163	13.54
661.195	12.54
661.228	5.54
661.26	-13.46
661.292	0.54
661.324	-0.46
661.357	6.54
661.389	8.54
661.421	8.54
661.453	13.54
661.485	-0.46
661.518	-12.46
661.55	-4.46
661.582	-19.46
661.614	1.54
661.647	-1.46
661.679	3.54
661.711	-2.46
661.743	-8.46
661.775	1.54
661.808	14.54
661.84	-14.46
661.872	8.54
661.904	4.54
661.936	-1.46
661.969	-4.46
662.001	-17.46
662.033	-0.46
662.065	-5.46
662.097	1.54
662.129	9.54
662.162	6.54
662.194	1.54
662.226	9.54
662.258	4.54
662.29	4.54
662.322	-20.46
662.355	-1.46
662.387	24.54
662.419	0.54
662.451	-1.46
662.483	5.54
662.515	5.54
662.547	3.54
662.58	0.54
662.612	-1.46
662.644	-4.46
662.676	3.54
662.708	9.54
662.74	-3.46
662.772	13.54
662.804	5.54
662.836	8.54
662.869	6.54
662.901	10.54
662.933	7.54
662.965	26.54
662.997	18.54
663.029	-14.46
663.061	-3.46
663.093	-1.46
663.125	5.54
663.157	8.54
663.189	-5.46
663.221	19.54
663.254	10.54
663.286	6.54
663.318	0.54
663.35	-7.46
663.382	-6.46
663.414	-5.46
663.446	5.54
663.478	-16.46
663.51	31.54
663.542	-11.46
663.574	-5.46
663.606	-12.46
663.638	-14.46
663.67	4.54
663.702	-0.46
663.734	-10.46
663.766	1.54
663.798	-3.46
663.83	4.54
663.862	6.54
663.894	3.54
663.926	-6.46
663.958	12.54
663.99	7.54
664.022	-18.46
664.054	3.54
664.086	-6.46
664.118	-8.46
664.15	-10.46
664.182	2.54
664.214	-2.46
664.246	16.54
664.278	5.54
664.31	11.54
664.342	5.54
664.374	-0.46
664.406	0.54
664.438	-5.46
664.47	17.54
664.502	-12.46
664.534	13.54
664.566	-5.46
664.598	8.54
664.63	-14.46
664.662	-3.46
664.693	-9.46
664.725	-14.46
664.757	0.54
664.789	-14.46
664.821	3.54
664.853	15.54
664.885	6.54
664.917	4.54
664.949	7.54
664.981	25.54
665.013	13.54
665.045	-1.46
665.076	-13.46
665.108	10.54
665.14	7.54
665.172	-5.46
665.204	2.54
665.236	3.54
665.268	28.54
665.3	-8.46
665.331	12.54
665.363	-2.46
665.395	-9.46
665.427	-1.46
665.459	8.54
665.491	3.54
665.523	10.54
665.555	-13.46
665.586	5.54
665.618	-0.46
665.65	-7.46
665.682	2.54
665.714	2.54
665.746	-0.46
665.777	7.54
665.809	-4.46
665.841	-13.46
665.873	3.54
665.905	17.54
665.937	12.54
665.968	-4.46
666	-2.46
666.032	16.54
666.064	-1.46
666.096	6.54
666.127	23.54
666.159	7.54
666.191	22.54
666.223	0.54
666.255	10.54
666.286	-15.46
666.318	1.54
666.35	37.54
666.382	22.54
666.413	0.54
666.445	-2.46
666.477	-24.46
666.509	-2.46
666.54	-11.46
666.572	6.54
666.604	1.54
666.636	0.54
666.667	11.54
666.699	17.54
666.731	8.54
666.763	-15.46
666.794	12.54
666.826	3.54
666.858	-7.46
666.89	20.54
666.921	11.54
666.953	4.54
666.985	2.54
667.017	18.54
667.048	-3.46
667.08	-1.46
667.112	-24.46
667.143	-22.46
667.175	15.54
667.207	-5.46
667.238	11.54
667.27	-3.46
667.302	5.54
667.334	5.54
667.365	18.54
667.397	-2.46
667.429	9.54
667.46	8.54
667.492	10.54
667.524	9.54
667.555	0.54
667.587	-1.46
667.619	1.54
667.65	-9.46
667.682	-5.46
667.714	-2.46
667.745	11.54
667.777	-8.46
667.808	16.54
667.84	-6.46
667.872	-3.46
667.903	15.54
667.935	2.54
667.967	13.54
667.998	8.54
668.03	9.54
668.061	6.54
668.093	4.54
668.125	11.54
668.156	2.54
668.188	2.54
668.22	-8.46
668.251	-0.46
668.283	12.54
668.314	10.54
668.346	9.54
668.377	4.54
668.409	-0.46
668.441	12.54
668.472	-2.46
668.504	10.54
668.535	10.54
668.567	14.54
668.599	-5.46
668.63	-20.46
668.662	0.54
668.693	23.54
668.725	13.54
668.756	11.54
668.788	13.54
668.819	-1.46
668.851	5.54
668.882	-0.46
668.914	16.54
668.946	2.54
668.977	6.54
669.009	-1.46
669.04	-16.46
669.072	10.54
669.103	-2.46
669.135	-2.46
669.166	4.54
669.198	8.54
669.229	4.54
669.261	4.54
669.292	-6.46
669.324	8.54
669.355	7.54
669.387	-4.46
669.418	2.54
669.45	-9.46
669.481	-0.46
669.513	9.54
669.544	13.54
669.576	11.54
669.607	8.54
669.639	0.54
669.67	-12.46
669.701	7.54
669.733	4.54
669.764	16.54
669.796	-14.46
669.827	9.54
669.859	-5.46
669.89	7.54
669.922	1.54
669.953	0.54
669.985	5.54
670.016	9.54
670.047	9.54
670.079	15.54
670.11	16.54
670.142	-2.46
670.173	5.54
670.204	-0.46
670.236	4.54
670.267	7.54
670.299	10.54
670.33	-1.46
670.362	11.54
670.393	-19.46
670.424	12.54
670.456	-7.46
670.487	-1.46
670.518	10.54
670.55	14.54
670.581	6.54
670.613	4.54
670.644	-3.46
670.675	-10.46
670.707	-3.46
670.738	13.54
670.769	-3.46
670.801	0.54
670.832	9.54
670.864	-9.46
670.895	3.54
670.926	-2.46
670.958	-2.46
670.989	13.54
671.02	8.54
671.052	3.54
671.083	3.54
671.114	7.54
671.146	-3.46
671.177	7.54
671.208	-3.46
671.24	-6.46
671.271	-6.46
671.302	8.54
671.333	-7.46
671.365	-10.46
671.396	0.54
671.427	8.54
671.459	2.54
671.49	2.54
671.521	11.54
671.553	5.54
671.584	-7.46
671.615	-17.46
671.646	0.54
671.678	-1.46
671.709	-3.46
671.74	-21.46
671.771	-15.46
671.803	-1.46
671.834	1.54
671.865	-11.46
671.896	6.54
671.928	0.54
671.959	-8.46
671.99	4.54
672.021	10.54
672.053	-10.46
672.084	9.54
672.115	7.54
672.146	-6.46
672.178	-18.46
672.209	-11.46
672.24	8.54
672.271	31.54
672.303	1.54
672.334	-2.46
672.365	-0.46
672.396	1.54
672.427	18.54
672.459	16.54
672.49	11.54
672.521	11.54
672.552	30.54
672.583	15.54
672.615	15.54
672.646	11.54
672.677	2.54
672.708	-4.46
672.739	-1.46
672.77	11.54
672.802	13.54
672.833	7.54
672.864	-3.46
672.895	4.54
672.926	5.54
672.957	-9.46
672.989	-4.46
673.02	1.54
673.051	-11.46
673.082	-9.46
673.113	-1.46
673.144	7.54
673.175	15.54
673.206	-2.46
673.238	-12.46
673.269	-3.46
673.3	-11.46
673.331	10.54
673.362	4.54
673.393	6.54
673.424	6.54
673.455	25.54
673.487	6.54
673.518	6.54
673.549	6.54
673.58	12.54
673.611	7.54
673.642	12.54
673.673	-13.46
673.704	8.54
673.735	8.54
673.766	-0.46
673.797	-6.46
673.828	-8.46
673.86	-1.46
673.891	-3.46
673.922	7.54
673.953	-1.46
673.984	0.54
674.015	-1.46
674.046	3.54
674.077	-10.46
674.108	-11.46
674.139	11.54
674.17	-7.46
674.201	-9.46
674.232	9.54
674.263	-7.46
674.294	-4.46
674.325	-4.46
674.356	11.54
674.387	20.54
674.418	9.54
674.449	-3.46
674.48	-12.46
674.511	2.54
674.542	1.54
674.573	0.54
674.604	11.54
674.635	13.54
674.666	2.54
674.697	-1.46
674.728	5.54
674.759	11.54
674.79	5.54
674.821	6.54
674.852	9.54
674.883	-5.46
674.914	-11.46
674.945	2.54
674.976	6.54
675.007	-10.46
675.038	-21.46
675.069	-2.46
675.1	-7.46
675.131	11.54
675.162	-7.46
675.193	6.54
675.224	11.54
675.254	13.54
675.285	-2.46
675.316	1.54
675.347	13.54
675.378	0.54
675.409	-6.46
675.44	10.54
675.471	4.54
675.502	-7.46
675.533	-1.46
675.564	8.54
675.595	7.54
675.625	8.54
675.656	10.54
675.687	12.54
675.718	3.54
675.749	7.54
675.78	13.54
675.811	-4.46
675.842	6.54
675.873	3.54
675.903	-5.46
675.934	0.54
675.965	-7.46
675.996	-8.46
676.027	7.54
676.058	0.54
676.089	-9.46
676.119	3.54
676.15	2.54
676.181	3.54
676.212	3.54
676.243	7.54
676.274	-3.46
676.304	21.54
676.335	0.54
676.366	6.54
676.397	-10.46
676.428	9.54
676.459	8.54
676.489	3.54
676.52	0.54
676.551	1.54
676.582	-4.46
676.613	-2.46
676.643	-13.46
676.674	21.54
676.705	16.54
676.736	0.54
676.767	16.54
676.797	7.54
676.828	11.54
676.859	3.54
676.89	-8.46
676.92	-0.46
676.951	16.54
676.982	13.54
677.013	-0.46
677.044	19.54
677.074	-1.46
677.105	-12.46
677.136	-1.46
677.167	3.54
677.197	6.54
677.228	0.54
677.259	7.54
677.289	3.54
677.32	-19.46
677.351	-1.46
677.382	-3.46
677.412	-0.46
677.443	6.54
677.474	-0.46
677.505	-18.46
677.535	8.54
677.566	-16.46
677.597	2.54
677.627	-1.46
677.658	1.54
677.689	-3.46
677.72	-9.46
677.75	5.54
677.781	-0.46
677.812	8.54
677.842	10.54
677.873	10.54
677.904	-4.46
677.934	4.54
677.965	-13.46
677.996	-5.46
678.026	2.54
678.057	11.54
678.088	-15.46
678.118	1.54
678.149	5.54
678.18	6.54
678.21	5.54
678.241	7.54
678.272	-2.46
678.302	0.54
678.333	5.54
678.363	9.54
678.394	17.54
678.425	14.54
678.455	1.54
678.486	3.54
678.517	-3.46
678.547	9.54
678.578	4.54
678.608	-23.46
678.639	-1.46
678.67	11.54
678.7	-16.46
678.731	0.54
678.761	1.54
678.792	-3.46
678.823	7.54
678.853	13.54
678.884	1.54
678.914	18.54
678.945	-5.46
678.975	-8.46
679.006	11.54
679.037	1.54
679.067	32.54
679.098	9.54
679.128	-5.46
679.159	9.54
679.189	11.54
679.22	-3.46
679.25	11.54
679.281	-5.46
679.312	5.54
679.342	0.54
679.373	25.54
679.403	27.54
679.434	12.54
679.464	-1.46
679.495	2.54
679.525	20.54
679.556	-1.46
679.586	-6.46
679.617	-0.46
679.647	-1.46
679.678	-6.46
679.708	0.54
679.739	7.54
679.769	0.54
679.8	6.54
679.83	-1.46
679.861	12.54
679.891	-4.46
679.922	-24.46
679.952	22.54
679.983	2.54
680.013	-0.46
680.044	-2.46
680.074	6.54
680.105	16.54
680.135	10.54
680.165	7.54
680.196	3.54
680.226	14.54
680.257	26.54
680.287	-2.46
680.318	-0.46
680.348	1.54
680.379	22.54
680.409	12.54
680.439	1.54
680.47	-0.46
680.5	-9.46
680.531	22.54
680.561	7.54
680.592	1.54
680.622	12.54
680.652	-6.46
680.683	1.54
680.713	0.54
680.744	0.54
680.774	-15.46
680.804	22.54
680.835	-0.46
680.865	-1.46
680.896	2.54
680.926	-10.46
680.956	-8.46
680.987	6.54
681.017	-5.46
681.047	4.54
681.078	-10.46
681.108	-3.46
681.139	-0.46
681.169	5.54
681.199	2.54
681.23	15.54
681.26	-0.46
681.29	8.54
681.321	-10.46
681.351	-3.46
681.381	3.54
681.412	-3.46
681.442	-4.46
681.472	16.54
681.503	2.54
681.533	7.54
681.563	0.54
681.594	-1.46
681.624	17.54
681.654	8.54
681.685	6.54
681.715	11.54
681.745	-7.46
681.775	-0.46
681.806	6.54
681.836	-0.46
681.866	-0.46
681.897	2.54
681.927	-11.46
681.957	-6.46
681.987	3.54
682.018	1.54
682.048	7.54
682.078	14.54
682.109	20.54
682.139	6.54
682.169	1.54
682.199	0.54
682.23	-16.46
682.26	17.54
682.29	2.54
682.32	-7.46
682.351	-4.46
682.381	-6.46
682.411	-6.46
682.441	-6.46
682.472	-8.46
682.502	1.54
682.532	0.54
682.562	-5.46
682.592	16.54
682.623	-1.46
682.653	18.54
682.683	13.54
682.713	11.54
682.743	13.54
682.774	6.54
682.804	-8.46
682.834	7.54
682.864	-14.46
682.894	-1.46
682.925	-15.46
682.955	1.54
682.985	-9.46
683.015	-3.46
683.045	-5.46
683.076	-17.46
683.106	-0.46
683.136	4.54
683.166	9.54
683.196	5.54
683.226	-1.46
683.257	-13.46
683.287	-17.46
683.317	-22.46
683.347	-12.46
683.377	-2.46
683.407	-0.46
683.437	7.54
683.468	14.54
683.498	-1.46
683.528	-7.46
683.558	3.54
683.588	5.54
683.618	-20.46
683.648	-4.46
683.678	-0.46
683.708	10.54
683.739	-8.46
683.769	8.54
683.799	-2.46
683.829	-7.46
683.859	4.54
683.889	2.54
683.919	3.54
683.949	15.54
683.979	8.54
684.009	6.54
684.039	12.54
684.07	-14.46
684.1	10.54
684.13	12.54
684.16	2.54
684.19	-8.46
684.22	4.54
684.25	7.54
684.28	-3.46
684.31	11.54
684.34	8.54
684.37	7.54
684.4	4.54
684.43	1.54
684.46	-1.46
684.49	14.54
684.52	22.54
684.55	18.54
684.58	-5.46
684.61	-9.46
684.64	7.54
684.67	9.54
684.7	3.54
684.73	-5.46
684.76	4.54
684.79	13.54
684.82	18.54
684.85	-2.46
684.88	16.54
684.91	6.54
684.94	-4.46
684.97	-8.46
685	11.54
685.03	-11.46
685.06	-8.46
685.09	-1.46
685.12	18.54
685.15	-2.46
685.18	10.54
685.21	7.54
685.24	19.54
685.27	11.54
685.3	8.54
685.33	-2.46
685.36	5.54
685.39	8.54
685.42	-6.46
685.45	16.54
685.48	8.54
685.51	1.54
685.54	18.54
685.569	26.54
685.599	9.54
685.629	7.54
685.659	0.54
685.689	-5.46
685.719	6.54
685.749	0.54
685.779	8.54
685.809	8.54
685.839	-9.46
685.869	2.54
685.898	19.54
685.928	8.54
685.958	-2.46
685.988	15.54
686.018	12.54
686.048	1.54
686.078	7.54
686.108	14.54
686.137	0.54
686.167	7.54
686.197	-15.46
686.227	6.54
686.257	47.54
686.287	9.54
686.317	6.54
686.346	1.54
686.376	-13.46
686.406	-5.46
686.436	2.54
686.466	5.54
686.496	8.54
686.525	0.54
686.555	-2.46
686.585	15.54
686.615	24.54
686.645	15.54
686.675	14.54
686.704	-1.46
686.734	5.54
686.764	2.54
686.794	9.54
686.824	3.54
686.853	7.54
686.883	19.54
686.913	2.54
686.943	9.54
686.973	7.54
687.002	-9.46
687.032	8.54
687.062	-8.46
687.092	14.54
687.121	-1.46
687.151	20.54
687.181	2.54
687.211	14.54
687.24	8.54
687.27	6.54
687.3	8.54
687.33	-1.46
687.359	-18.46
687.389	3.54
687.419	4.54
687.449	1.54
687.478	12.54
687.508	-5.46
687.538	11.54
687.568	6.54
687.597	6.54
687.627	-10.46
687.657	-5.46
687.686	13.54
687.716	27.54
687.746	-4.46
687.776	11.54
687.805	11.54
687.835	6.54
687.865	13.54
687.894	12.54
687.924	5.54
687.954	8.54
687.983	3.54
688.013	11.54
688.043	14.54
688.072	5.54
688.102	8.54
688.132	6.54
688.161	-10.46
688.191	-4.46
688.221	1.54
688.25	4.54
688.28	-2.46
688.31	5.54
688.339	15.54
688.369	-0.46
688.399	-1.46
688.428	-5.46
688.458	8.54
688.488	2.54
688.517	14.54
688.547	-4.46
688.576	22.54
688.606	12.54
688.636	9.54
688.665	4.54
688.695	5.54
688.725	24.54
688.754	22.54
688.784	12.54
688.813	11.54
688.843	3.54
688.873	17.54
688.902	-8.46
688.932	13.54
688.961	-2.46
688.991	10.54
689.02	22.54
689.05	2.54
689.08	30.54
689.109	16.54
689.139	3.54
689.168	-5.46
689.198	-2.46
689.227	1.54
689.257	5.54
689.287	14.54
689.316	3.54
689.346	4.54
689.375	2.54
689.405	13.54
689.434	0.54
689.464	-12.46
689.493	1.54
689.523	-1.46
689.552	2.54
689.582	-0.46
689.611	2.54
689.641	-8.46
689.67	4.54
689.7	17.54
689.73	21.54
689.759	23.54
689.789	29.54
689.818	2.54
689.848	6.54
689.877	18.54
689.906	-10.46
689.936	-7.46
689.965	-1.46
689.995	-4.46
690.024	0.54
690.054	3.54
690.083	5.54
690.113	0.54
690.142	7.54
690.172	9.54
690.201	21.54
690.231	3.54
690.26	27.54
690.29	11.54
690.319	25.54
690.348	-13.46
690.378	7.54
690.407	-6.46
690.437	0.54
690.466	4.54
690.496	-5.46
690.525	-0.46
690.555	-2.46
690.584	2.54
690.613	11.54
690.643	10.54
690.672	15.54
690.702	17.54
690.731	20.54
690.76	15.54
690.79	-5.46
690.819	17.54
690.849	16.54
690.878	-4.46
690.907	-4.46
690.937	16.54
690.966	10.54
690.996	3.54
691.025	-9.46
691.054	6.54
691.084	17.54
691.113	-5.46
691.142	20.54
691.172	10.54
691.201	9.54
691.23	1.54
691.26	8.54
691.289	14.54
691.319	11.54
691.348	0.54
691.377	28.54
691.407	15.54
691.436	22.54
691.465	3.54
691.495	3.54
691.524	-0.46
691.553	-7.46
691.583	-7.46
691.612	15.54
691.641	19.54
691.67	5.54
691.7	5.54
691.729	5.54
691.758	7.54
691.788	2.54
691.817	-7.46
691.846	2.54
691.876	18.54
691.905	11.54
691.934	12.54
691.963	15.54
691.993	5.54
692.022	-4.46
692.051	1.54
692.081	-5.46
692.11	15.54
692.139	15.54
692.168	13.54
692.198	5.54
692.227	7.54
692.256	3.54
692.285	-1.46
692.315	9.54
692.344	19.54
692.373	7.54
692.402	-17.46
692.432	2.54
692.461	10.54
692.49	-0.46
692.519	8.54
692.548	2.54
692.578	7.54
692.607	-10.46
692.636	1.54
692.665	18.54
692.694	1.54
692.724	11.54
692.753	3.54
692.782	6.54
692.811	-9.46
692.84	7.54
692.87	16.54
692.899	0.54
692.928	-0.46
692.957	21.54
692.986	6.54
693.016	-2.46
693.045	12.54
693.074	2.54
693.103	1.54
693.132	2.54
693.161	15.54
693.191	-4.46
693.22	-6.46
693.249	18.54
693.278	8.54
693.307	10.54
693.336	-13.46
693.365	-12.46
693.395	1.54
693.424	-3.46
693.453	17.54
693.482	5.54
693.511	12.54
693.54	5.54
693.569	24.54
693.598	18.54
693.628	20.54
693.657	20.54
693.686	23.54
693.715	30.54
693.744	2.54
693.773	14.54
693.802	4.54
693.831	11.54
693.86	31.54
693.889	7.54
693.919	12.54
693.948	10.54
693.977	9.54
694.006	-1.46
694.035	-1.46
694.064	2.54
694.093	-1.46
694.122	-0.46
694.151	3.54
694.18	14.54
694.209	17.54
694.238	20.54
694.267	25.54
694.296	18.54
694.325	16.54
694.354	15.54
694.383	18.54
694.412	-4.46
694.441	-2.46
694.471	-0.46
694.5	0.54
694.529	3.54
694.558	26.54
694.587	4.54
694.616	-0.46
694.645	14.54
694.674	22.54
694.703	-4.46
694.732	-9.46
694.761	9.54
694.79	14.54
694.819	-1.46
694.848	10.54
694.877	21.54
694.906	30.54
694.935	5.54
694.963	40.54
694.992	11.54
695.021	5.54
695.05	13.54
695.079	7.54
695.108	11.54
695.137	23.54
695.166	-2.46
695.195	8.54
695.224	20.54
695.253	12.54
695.282	7.54
695.311	20.54
695.34	0.54
695.369	8.54
695.398	-2.46
695.427	26.54
695.456	15.54
695.485	27.54
695.513	20.54
695.542	7.54
695.571	4.54
695.6	13.54
695.629	14.54
695.658	10.54
695.687	2.54
695.716	-0.46
695.745	29.54
695.774	-1.46
695.802	-14.46
695.831	14.54
695.86	11.54
695.889	28.54
695.918	7.54
695.947	-8.46
695.976	-8.46
696.005	-12.46
696.033	15.54
696.062	21.54
696.091	-4.46
696.12	-0.46
696.149	14.54
696.178	7.54
696.207	12.54
696.235	0.54
696.264	21.54
696.293	-4.46
696.322	6.54
696.351	13.54
696.38	2.54
696.408	-6.46
696.437	17.54
696.466	17.54
696.495	14.54
696.524	11.54
696.553	2.54
696.581	20.54
696.61	4.54
696.639	-10.46
696.668	6.54
696.697	16.54
696.725	13.54
696.754	-1.46
696.783	-7.46
696.812	0.54
696.84	10.54
696.869	-0.46
696.898	-8.46
696.927	6.54
696.956	13.54
696.984	-8.46
697.013	5.54
697.042	2.54
697.071	6.54
697.099	24.54
697.128	14.54
697.157	15.54
697.186	1.54
697.214	-1.46
697.243	3.54
697.272	21.54
697.301	12.54
697.329	10.54
697.358	16.54
697.387	34.54
697.415	19.54
697.444	4.54
697.473	1.54
697.502	-6.46
697.53	11.54
697.559	13.54
697.588	22.54
697.616	4.54
697.645	6.54
697.674	16.54
697.703	7.54
697.731	19.54
697.76	3.54
697.789	3.54
697.817	5.54
697.846	2.54
697.875	20.54
697.903	33.54
697.932	12.54
697.961	8.54
697.989	6.54
698.018	8.54
698.047	-0.46
698.075	7.54
698.104	3.54
698.133	0.54
698.161	-6.46
698.19	11.54
698.218	11.54
698.247	14.54
698.276	8.54
698.304	12.54
698.333	19.54
698.362	6.54
698.39	14.54
698.419	-4.46
698.447	-8.46
698.476	4.54
698.505	14.54
698.533	4.54
698.562	9.54
698.591	4.54
698.619	14.54
698.648	-0.46
698.676	4.54
698.705	-15.46
698.733	4.54
698.762	20.54
698.791	15.54
698.819	-4.46
698.848	-0.46
698.876	8.54
698.905	10.54
698.933	19.54
698.962	-8.46
698.991	12.54
699.019	21.54
699.048	5.54
699.076	16.54
699.105	6.54
699.133	0.54
699.162	11.54
699.19	17.54
699.219	7.54
699.248	1.54
699.276	14.54
699.305	4.54
699.333	11.54
699.362	5.54
699.39	15.54
699.419	-2.46
699.447	15.54
699.476	1.54
699.504	1.54
699.533	5.54
699.561	2.54
699.59	7.54
699.618	6.54
699.647	7.54
699.675	8.54
699.704	7.54
699.732	10.54
699.761	11.54
699.789	8.54
699.818	24.54
699.846	4.54
699.874	11.54
699.903	1.54
699.931	2.54
699.96	15.54
699.988	0.54
700.017	-0.46
700.045	0.54
700.074	7.54
700.102	16.54
700.13	-0.46
700.159	6.54
700.187	2.54
700.216	-9.46
700.244	10.54
700.273	-7.46
700.301	2.54
700.329	3.54
700.358	-0.46
700.386	-14.46
700.415	8.54
700.443	11.54
700.472	7.54
700.5	10.54
700.528	7.54
700.557	13.54
700.585	-9.46
700.614	3.54
700.642	18.54
700.67	25.54
700.699	7.54
700.727	13.54
700.755	5.54
700.784	12.54
700.812	0.54
700.841	9.54
700.869	-5.46
700.897	-1.46
700.926	-6.46
700.954	9.54
700.982	13.54
701.011	-0.46
701.039	8.54
701.067	-1.46
701.096	15.54
701.124	-15.46
701.152	-6.46
701.181	2.54
701.209	-7.46
701.237	-16.46
701.266	2.54
701.294	0.54
701.322	5.54
701.351	15.54
701.379	6.54
701.407	-10.46
701.435	-2.46
701.464	16.54
701.492	18.54
701.52	4.54
701.549	8.54
701.577	2.54
701.605	0.54
701.634	9.54
701.662	19.54
701.69	-6.46
701.718	-5.46
701.747	9.54
701.775	5.54
701.803	2.54
701.831	12.54
701.86	3.54
701.888	1.54
701.916	1.54
701.944	3.54
701.973	-0.46
702.001	1.54
702.029	-2.46
702.057	-4.46
702.086	-13.46
702.114	-7.46
702.142	22.54
702.17	-4.46
702.199	0.54
702.227	9.54
702.255	-0.46
702.283	3.54
702.311	1.54
702.34	17.54
702.368	-5.46
702.396	14.54
702.424	7.54
702.452	0.54
702.481	0.54
702.509	1.54
702.537	4.54
702.565	2.54
702.593	-3.46
702.621	3.54
702.65	10.54
702.678	8.54
702.706	14.54
702.734	11.54
702.762	2.54
702.79	2.54
702.819	-1.46
702.847	15.54
702.875	13.54
702.903	23.54
702.931	15.54
702.959	20.54
702.988	3.54
703.016	-10.46
703.044	-2.46
703.072	7.54
703.1	4.54
703.128	5.54
703.156	-4.46
703.184	3.54
703.212	13.54
703.241	-5.46
703.269	9.54
703.297	-1.46
703.325	3.54
703.353	-4.46
703.381	21.54
703.409	-7.46
703.437	-8.46
703.465	7.54
703.493	-0.46
703.522	-4.46
703.55	14.54
703.578	10.54
703.606	6.54
703.634	-2.46
703.662	2.54
703.69	-2.46
703.718	-0.46
703.746	25.54
703.774	7.54
703.802	9.54
703.83	-8.46
703.858	1.54
703.886	-5.46
703.914	-1.46
703.942	9.54
703.97	0.54
703.998	2.54
704.027	14.54
704.055	21.54
704.083	12.54
704.111	-15.46
704.139	20.54
704.167	-5.46
704.195	-1.46
704.223	-6.46
704.251	-5.46
704.279	13.54
704.307	24.54
704.335	-7.46
704.363	1.54
704.391	-6.46
704.419	-7.46
704.447	-11.46
704.475	-6.46
704.503	-2.46
704.531	14.54
704.558	6.54
704.586	-1.46
704.614	-3.46
704.642	9.54
704.67	1.54
704.698	7.54
704.726	13.54
704.754	-6.46
704.782	2.54
704.81	-0.46
704.838	29.54
704.866	7.54
704.894	-2.46
704.922	-9.46
704.95	8.54
704.978	-0.46
705.006	13.54
705.034	24.54
705.061	8.54
705.089	3.54
705.117	-13.46
705.145	-2.46
705.173	-3.46
705.201	-6.46
705.229	-0.46
705.257	-2.46
705.285	15.54
705.313	12.54
705.34	10.54
705.368	-13.46
705.396	7.54
705.424	20.54
705.452	11.54
705.48	3.54
705.508	-6.46
705.536	-7.46
705.563	-8.46
705.591	16.54
705.619	9.54
705.647	-0.46
705.675	7.54
705.703	17.54
705.731	-4.46
705.758	3.54
705.786	9.54
705.814	34.54
705.842	11.54
705.87	27.54
705.898	28.54
705.925	-5.46
705.953	5.54
705.981	-4.46
706.009	0.54
706.037	5.54
706.065	-1.46
706.092	-6.46
706.12	-5.46
706.148	-0.46
706.176	6.54
706.204	13.54
706.231	3.54
706.259	-3.46
706.287	-1.46
706.315	3.54
706.342	-11.46
706.37	21.54
706.398	13.54
706.426	-1.46
706.454	-2.46
706.481	3.54
706.509	17.54
706.537	-5.46
706.565	-8.46
706.592	12.54
706.62	8.54
706.648	14.54
706.676	-0.46
706.703	9.54
706.731	-19.46
706.759	-0.46
706.787	6.54
706.814	8.54
706.842	3.54
706.87	2.54
706.897	2.54
706.925	1.54
706.953	11.54
706.981	18.54
707.008	-0.46
707.036	28.54
707.064	3.54
707.091	-12.46
707.119	15.54
707.147	-9.46
707.174	-8.46
707.202	11.54
707.23	-0.46
707.258	-8.46
707.285	-5.46
707.313	-5.46
707.341	-25.46
707.368	3.54
707.396	7.54
707.424	15.54
707.451	13.54
707.479	11.54
707.507	-17.46
707.534	-9.46
707.562	-5.46
707.59	-2.46
707.617	-18.46
707.645	7.54
707.672	10.54
707.7	-1.46
707.728	11.54
707.755	6.54
707.783	-8.46
707.811	-2.46
707.838	1.54
707.866	9.54
707.893	6.54
707.921	1.54
707.949	4.54
707.976	11.54
708.004	5.54
708.031	-0.46
708.059	-2.46
708.087	0.54
708.114	9.54
708.142	-0.46
708.169	-6.46
708.197	-22.46
708.225	-0.46
708.252	-3.46
708.28	11.54
708.307	-1.46
708.335	-4.46
708.362	-10.46
708.39	-4.46
708.418	0.54
708.445	0.54
708.473	-2.46
708.5	-4.46
708.528	6.54
708.555	6.54
708.583	-20.46
708.61	2.54
708.638	10.54
708.665	-9.46
708.693	-1.46
708.72	1.54
708.748	6.54
708.776	1.54
708.803	10.54
708.831	12.54
708.858	7.54
708.886	1.54
708.913	-5.46
708.941	-0.46
708.968	16.54
708.996	3.54
709.023	21.54
709.051	6.54
709.078	3.54
709.105	8.54
709.133	4.54
709.16	1.54
709.188	16.54
709.215	4.54
709.243	7.54
709.27	6.54
709.298	6.54
709.325	-8.46
709.353	-12.46
709.38	5.54
709.408	8.54
709.435	0.54
709.462	2.54
709.49	1.54
709.517	-0.46
709.545	2.54
709.572	6.54
709.6	3.54
709.627	4.54
709.655	-2.46
709.682	2.54
709.709	10.54
709.737	6.54
709.764	-6.46
709.792	8.54
709.819	10.54
709.846	-7.46
709.874	7.54
709.901	27.54
709.929	22.54
709.956	19.54
709.983	-5.46
710.011	-0.46
710.038	2.54
710.066	8.54
710.093	15.54
710.12	14.54
710.148	4.54
710.175	6.54
710.202	3.54
710.23	10.54
710.257	7.54
710.284	17.54
710.312	2.54
710.339	-4.46
710.366	-12.46
710.394	-1.46
710.421	1.54
710.448	2.54
710.476	-16.46
710.503	-2.46
710.53	21.54
710.558	16.54
710.585	3.54
710.612	-1.46
710.64	-18.46
710.667	-18.46
710.694	0.54
710.722	7.54
710.749	-8.46
710.776	21.54
710.804	30.54
710.831	9.54
710.858	0.54
710.885	5.54
710.913	5.54
710.94	12.54
710.967	-4.46
710.995	3.54
711.022	11.54
711.049	-1.46
711.076	1.54
711.104	4.54
711.131	-1.46
711.158	6.54
711.185	13.54
711.213	-5.46
711.24	-14.46
711.267	4.54
711.294	2.54
711.322	10.54
711.349	-2.46
711.376	11.54
711.403	6.54
711.431	3.54
711.458	-16.46
711.485	-2.46
711.512	0.54
711.54	-6.46
711.567	1.54
711.594	-6.46
711.621	-0.46
711.648	15.54
711.676	12.54
711.703	-0.46
711.73	-5.46
711.757	-0.46
711.784	-5.46
711.812	13.54
711.839	4.54
711.866	-9.46
711.893	-6.46
711.92	16.54
711.947	6.54
711.975	20.54
712.002	-16.46
712.029	11.54
712.056	10.54
712.083	12.54
712.11	-19.46
712.138	-2.46
712.165	15.54
712.192	-3.46
712.219	1.54
712.246	0.54
712.273	-1.46
712.3	-6.46
712.328	-4.46
712.355	7.54
712.382	-7.46
712.409	16.54
712.436	8.54
712.463	5.54
712.49	12.54
712.517	13.54
712.544	-0.46
712.572	7.54
712.599	0.54
712.626	2.54
712.653	-4.46
712.68	-8.46
712.707	3.54
712.734	11.54
712.761	-0.46
712.788	6.54
712.815	5.54
712.842	13.54
712.87	5.54
712.897	-17.46
712.924	0.54
712.951	0.54
712.978	10.54
713.005	18.54
713.032	5.54
713.059	18.54
713.086	-6.46
713.113	-2.46
713.14	-1.46
713.167	4.54
713.194	23.54
713.221	8.54
713.248	35.54
713.275	5.54
713.302	-1.46
713.329	13.54
713.356	7.54
713.383	13.54
713.41	9.54
713.437	-7.46
713.464	1.54
713.491	21.54
713.518	9.54
713.545	13.54
713.572	6.54
713.599	7.54
713.626	0.54
713.653	22.54
713.68	-5.46
713.707	-2.46
713.734	8.54
713.761	-8.46
713.788	-7.46
713.815	17.54
713.842	-1.46
713.869	5.54
713.896	2.54
713.923	9.54
713.95	0.54
713.977	-16.46
714.004	5.54
714.031	-6.46
714.058	7.54
714.085	4.54
714.112	12.54
714.139	-1.46
714.165	-2.46
714.192	0.54
714.219	9.54
714.246	10.54
714.273	5.54
714.3	0.54
714.327	4.54
714.354	6.54
714.381	10.54
714.408	1.54
714.435	-0.46
714.461	-1.46
714.488	5.54
714.515	0.54
714.542	2.54
714.569	8.54
714.596	-4.46
714.623	6.54
714.65	-9.46
714.677	-1.46
714.703	1.54
714.73	9.54
714.757	3.54
714.784	13.54
714.811	-10.46
714.838	-15.46
714.865	-12.46
714.891	12.54
714.918	-6.46
714.945	-9.46
714.972	7.54
714.999	3.54
715.026	-12.46
715.052	-0.46
715.079	13.54
715.106	8.54
715.133	5.54
715.16	-7.46
715.187	5.54
715.213	16.54
715.24	-3.46
715.267	1.54
715.294	-6.46
715.321	3.54
715.347	-2.46
715.374	-7.46
715.401	-19.46
715.428	5.54
715.455	9.54
715.481	-1.46
715.508	12.54
715.535	2.54
715.562	27.54
715.588	12.54
715.615	-0.46
715.642	1.54
715.669	10.54
715.695	0.54
715.722	7.54
715.749	-1.46
715.776	-4.46
715.802	10.54
715.829	3.54
715.856	-5.46
715.883	2.54
715.909	0.54
715.936	4.54
715.963	14.54
715.99	-0.46
716.016	5.54
716.043	5.54
716.07	-7.46
716.096	-10.46
716.123	-3.46
716.15	14.54
716.177	7.54
716.203	14.54
716.23	8.54
716.257	20.54
716.283	24.54
716.31	10.54
716.337	10.54
716.363	1.54
716.39	4.54
716.417	8.54
716.443	-1.46
716.47	3.54
716.497	19.54
716.523	18.54
716.55	13.54
716.577	23.54
716.603	5.54
716.63	6.54
716.657	12.54
716.683	-2.46
716.71	-15.46
716.737	-7.46
716.763	7.54
716.79	2.54
716.817	6.54
716.843	11.54
716.87	12.54
716.897	2.54
716.923	19.54
716.95	2.54
716.976	2.54
717.003	-6.46
717.03	3.54
717.056	5.54
717.083	11.54
717.109	16.54
717.136	7.54
717.163	2.54
717.189	1.54
717.216	0.54
717.242	4.54
717.269	1.54
717.296	12.54
717.322	6.54
717.349	18.54
717.375	12.54
717.402	9.54
717.428	3.54
717.455	5.54
717.481	10.54
717.508	5.54
717.535	9.54
717.561	-3.46
717.588	7.54
717.614	-0.46
717.641	1.54
717.667	5.54
717.694	7.54
717.72	8.54
717.747	15.54
717.773	9.54
717.8	30.54
717.826	10.54
717.853	-0.46
717.88	10.54
717.906	2.54
717.933	-5.46
717.959	6.54
717.986	12.54
718.012	7.54
718.039	22.54
718.065	8.54
718.092	6.54
718.118	-7.46
718.144	6.54
718.171	16.54
718.197	13.54
718.224	13.54
718.25	15.54
718.277	5.54
718.303	6.54
718.33	12.54
718.356	11.54
718.383	2.54
718.409	-10.46
718.436	-1.46
718.462	-0.46
718.489	-6.46
718.515	22.54
718.541	23.54
718.568	11.54
718.594	7.54
718.621	8.54
718.647	10.54
718.674	7.54
718.7	-0.46
718.726	3.54
718.753	0.54
718.779	18.54
718.806	0.54
718.832	1.54
718.858	6.54
718.885	-6.46
718.911	-9.46
718.938	3.54
718.964	-1.46
718.99	10.54
719.017	0.54
719.043	18.54
719.07	7.54
719.096	-8.46
719.122	2.54
719.149	4.54
719.175	18.54
719.201	5.54
719.228	-5.46
719.254	-1.46
719.281	-0.46
719.307	5.54
719.333	5.54
719.36	20.54
719.386	1.54
719.412	19.54
719.439	14.54
719.465	-2.46
719.491	-4.46
719.518	10.54
719.544	18.54
719.57	11.54
719.597	7.54
719.623	-0.46
719.649	7.54
719.675	5.54
719.702	1.54
719.728	8.54
719.754	-7.46
719.781	-3.46
719.807	-5.46
719.833	12.54
719.86	9.54
719.886	3.54
719.912	1.54
719.938	-0.46
719.965	5.54
719.991	9.54
720.017	6.54
720.044	-6.46
720.07	6.54
720.096	6.54
720.122	9.54
720.149	7.54
720.175	23.54
720.201	13.54
720.227	-3.46
720.254	1.54
720.28	1.54
720.306	-7.46
720.332	-14.46
720.359	1.54
720.385	6.54
720.411	0.54
720.437	17.54
720.463	10.54
720.49	3.54
720.516	6.54
720.542	9.54
720.568	9.54
720.595	11.54
720.621	1.54
720.647	7.54
720.673	3.54
720.699	7.54
720.725	7.54
720.752	3.54
720.778	18.54
720.804	8.54
720.83	7.54
720.856	-0.46
720.883	-12.46
720.909	-1.46
720.935	11.54
720.961	15.54
720.987	12.54
721.013	-12.46
721.04	6.54
721.066	5.54
721.092	7.54
721.118	11.54
721.144	-14.46
721.17	-0.46
721.196	21.54
721.223	0.54
721.249	1.54
721.275	14.54
721.301	3.54
721.327	8.54
721.353	7.54
721.379	16.54
721.405	10.54
721.432	19.54
721.458	-1.46
721.484	14.54
721.51	-13.46
721.536	15.54
721.562	-3.46
721.588	4.54
721.614	-3.46
721.64	-3.46
721.666	-2.46
721.693	-21.46
721.719	-4.46
721.745	-2.46
721.771	2.54
721.797	-3.46
721.823	-3.46
721.849	26.54
721.875	-1.46
721.901	7.54
721.927	-1.46
721.953	-0.46
721.979	20.54
722.005	9.54
722.031	-2.46
722.057	6.54
722.083	1.54
722.109	21.54
722.135	7.54
722.161	10.54
722.187	-3.46
722.214	0.54
722.24	14.54
722.266	-1.46
722.292	5.54
722.318	26.54
722.344	9.54
722.37	10.54
722.396	19.54
722.422	10.54
722.448	-1.46
722.474	-1.46
722.5	18.54
722.526	0.54
722.552	16.54
722.578	-1.46
722.603	22.54
722.629	14.54
722.655	2.54
722.681	-6.46
722.707	-1.46
722.733	3.54
722.759	-1.46
722.785	11.54
722.811	-5.46
722.837	-2.46
722.863	24.54
722.889	22.54
722.915	8.54
722.941	-5.46
722.967	4.54
722.993	22.54
723.019	6.54
723.045	11.54
723.071	1.54
723.097	8.54
723.122	2.54
723.148	11.54
723.174	2.54
723.2	-4.46
723.226	1.54
723.252	12.54
723.278	-1.46
723.304	-3.46
723.33	9.54
723.356	-11.46
723.381	-12.46
723.407	3.54
723.433	14.54
723.459	2.54
723.485	0.54
723.511	5.54
723.537	-13.46
723.563	7.54
723.588	20.54
723.614	17.54
723.64	11.54
723.666	7.54
723.692	6.54
723.718	7.54
723.744	2.54
723.769	-2.46
723.795	-2.46
723.821	13.54
723.847	4.54
723.873	12.54
723.899	20.54
723.924	6.54
723.95	-5.46
723.976	-18.46
724.002	-4.46
724.028	5.54
724.053	2.54
724.079	5.54
724.105	7.54
724.131	-5.46
724.157	12.54
724.182	10.54
724.208	-8.46
724.234	10.54
724.26	2.54
724.286	9.54
724.311	4.54
724.337	-6.46
724.363	2.54
724.389	-0.46
724.415	-1.46
724.44	11.54
724.466	-5.46
724.492	9.54
724.518	7.54
724.543	-2.46
724.569	18.54
724.595	-1.46
724.621	2.54
724.646	-6.46
724.672	9.54
724.698	1.54
724.723	2.54
724.749	-11.46
724.775	9.54
724.801	6.54
724.826	-2.46
724.852	3.54
724.878	3.54
724.904	-9.46
724.929	21.54
724.955	-3.46
724.981	2.54
725.006	6.54
725.032	16.54
725.058	16.54
725.083	-8.46
725.109	6.54
725.135	8.54
725.161	14.54
725.186	17.54
725.212	15.54
725.238	18.54
725.263	1.54
725.289	-6.46
725.315	3.54
725.34	-0.46
725.366	5.54
725.392	0.54
725.417	10.54
725.443	8.54
725.468	0.54
725.494	15.54
725.52	14.54
725.545	-13.46
725.571	-7.46
725.597	-3.46
725.622	2.54
725.648	-10.46
725.674	17.54
725.699	27.54
725.725	4.54
725.75	25.54
725.776	-10.46
725.802	8.54
725.827	-5.46
725.853	-5.46
725.878	14.54
725.904	1.54
725.93	10.54
725.955	-9.46
725.981	13.54
726.006	1.54
726.032	8.54
726.057	-2.46
726.083	-0.46
726.109	-1.46
726.134	3.54
726.16	0.54
726.185	-5.46
726.211	-5.46
726.236	7.54
726.262	12.54
726.288	9.54
726.313	17.54
726.339	18.54
726.364	9.54
726.39	13.54
726.415	7.54
726.441	2.54
726.466	-1.46
726.492	4.54
726.517	3.54
726.543	0.54
726.568	2.54
726.594	12.54
726.619	7.54
726.645	18.54
726.67	2.54
726.696	12.54
726.721	2.54
726.747	-5.46
726.772	-8.46
726.798	12.54
726.823	17.54
726.849	5.54
726.874	-4.46
726.9	27.54
726.925	15.54
726.951	11.54
726.976	9.54
727.002	0.54
727.027	11.54
727.053	20.54
727.078	10.54
727.104	6.54
727.129	-5.46
727.155	-1.46
727.18	2.54
727.205	15.54
727.231	9.54
727.256	9.54
727.282	19.54
727.307	25.54
727.333	15.54
727.358	3.54
727.383	-7.46
727.409	3.54
727.434	17.54
727.46	3.54
727.485	10.54
727.511	18.54
727.536	3.54
727.561	-0.46
727.587	-0.46
727.612	1.54
727.637	5.54
727.663	9.54
727.688	25.54
727.714	3.54
727.739	1.54
727.764	5.54
727.79	13.54
727.815	6.54
727.841	3.54
727.866	25.54
727.891	9.54
727.917	1.54
727.942	-13.46
727.967	-5.46
727.993	-21.46
728.018	-2.46
728.043	1.54
728.069	18.54
728.094	15.54
728.119	0.54
728.145	3.54
728.17	-0.46
728.195	18.54
728.221	13.54
728.246	10.54
728.271	-12.46
728.297	-1.46
728.322	5.54
728.347	1.54
728.373	1.54
728.398	16.54
728.423	11.54
728.448	10.54
728.474	9.54
728.499	16.54
728.524	3.54
728.55	-7.46
728.575	-2.46
728.6	-10.46
728.625	-3.46
728.651	-1.46
728.676	-7.46
728.701	2.54
728.727	2.54
728.752	-5.46
728.777	1.54
728.802	12.54
728.828	-2.46
728.853	1.54
728.878	-5.46
728.903	-5.46
728.929	2.54
728.954	5.54
728.979	10.54
729.004	3.54
729.03	-1.46
729.055	22.54
729.08	-8.46
729.105	-2.46
729.13	6.54
729.156	1.54
729.181	1.54
729.206	-12.46
729.231	-0.46
729.256	2.54
729.282	14.54
729.307	-4.46
729.332	6.54
729.357	2.54
729.382	10.54
729.408	6.54
729.433	13.54
729.458	-4.46
729.483	20.54
729.508	35.54
729.533	17.54
729.559	-3.46
729.584	-10.46
729.609	15.54
729.634	0.54
729.659	9.54
729.684	-2.46
729.71	2.54
729.735	10.54
729.76	8.54
729.785	5.54
729.81	6.54
729.835	3.54
729.86	-5.46
729.886	10.54
729.911	9.54
729.936	-5.46
729.961	7.54
729.986	1.54
730.011	15.54
730.036	3.54
730.061	5.54
730.086	-0.46
730.112	7.54
730.137	28.54
730.162	9.54
730.187	-10.46
730.212	14.54
730.237	-6.46
730.262	-7.46
730.287	6.54
730.312	23.54
730.337	6.54
730.362	19.54
730.387	-2.46
730.413	-8.46
730.438	-9.46
730.463	0.54
730.488	-6.46
730.513	-5.46
730.538	-10.46
730.563	16.54
730.588	10.54
730.613	15.54
730.638	10.54
730.663	1.54
730.688	29.54
730.713	8.54
730.738	5.54
730.763	7.54
730.788	2.54
730.813	1.54
730.838	-4.46
730.863	5.54
730.888	-6.46
730.913	-5.46
730.938	-18.46
730.963	6.54
730.988	20.54
731.013	8.54
731.038	-4.46
731.063	5.54
731.088	5.54
731.113	11.54
731.138	1.54
731.163	10.54
731.188	-8.46
731.213	7.54
731.238	12.54
731.263	7.54
731.288	-0.46
731.313	4.54
731.338	-0.46
731.363	3.54
731.388	19.54
731.413	13.54
731.438	14.54
731.463	15.54
731.487	2.54
731.512	-2.46
731.537	-8.46
731.562	-10.46
731.587	-4.46
731.612	-6.46
731.637	-5.46
731.662	-2.46
731.687	-1.46
731.712	-9.46
731.737	1.54
731.762	11.54
731.786	12.54
731.811	14.54
731.836	7.54
731.861	-2.46
731.886	1.54
731.911	7.54
731.936	35.54
731.961	9.54
731.986	1.54
732.01	0.54
732.035	8.54
732.06	25.54
732.085	-0.46
732.11	13.54
732.135	0.54
732.16	8.54
732.184	3.54
732.209	1.54
732.234	15.54
732.259	6.54
732.284	31.54
732.309	7.54
732.334	6.54
732.358	-14.46
732.383	-9.46
732.408	-1.46
732.433	0.54
732.458	2.54
732.482	23.54
732.507	-6.46
732.532	-0.46
732.557	12.54
732.582	-8.46
732.607	1.54
732.631	-5.46
732.656	2.54
732.681	2.54
732.706	4.54
732.73	7.54
732.755	-2.46
732.78	3.54
732.805	7.54
732.83	6.54
732.854	1.54
732.879	0.54
732.904	13.54
732.929	6.54
732.953	12.54
732.978	8.54
733.003	-0.46
733.028	-5.46
733.052	24.54
733.077	18.54
733.102	12.54
733.127	17.54
733.151	2.54
733.176	5.54
733.201	-7.46
733.226	-9.46
733.25	1.54
733.275	2.54
733.3	12.54
733.324	19.54
733.349	2.54
733.374	0.54
733.399	6.54
733.423	6.54
733.448	2.54
733.473	3.54
733.497	2.54
733.522	1.54
733.547	18.54
733.571	23.54
733.596	6.54
733.621	6.54
733.646	4.54
733.67	10.54
733.695	11.54
733.72	14.54
733.744	-0.46
733.769	-0.46
733.794	23.54
733.818	15.54
733.843	3.54
733.867	1.54
733.892	5.54
733.917	5.54
733.941	7.54
733.966	-3.46
733.991	2.54
734.015	9.54
734.04	6.54
734.065	13.54
734.089	31.54
734.114	-0.46
734.138	13.54
734.163	-0.46
734.188	11.54
734.212	-5.46
734.237	11.54
734.261	6.54
734.286	2.54
734.311	4.54
734.335	2.54
734.36	-2.46
734.384	10.54
734.409	9.54
734.434	1.54
734.458	13.54
734.483	1.54
734.507	-3.46
734.532	10.54
734.556	8.54
734.581	9.54
734.606	8.54
734.63	-8.46
734.655	11.54
734.679	-5.46
734.704	-2.46
734.728	6.54
734.753	1.54
734.777	6.54
734.802	-1.46
734.826	0.54
734.851	9.54
734.876	7.54
734.9	8.54
734.925	13.54
734.949	12.54
734.974	-5.46
734.998	-4.46
735.023	-2.46
735.047	-5.46
735.072	13.54
735.096	-1.46
735.121	4.54
735.145	-4.46
735.17	0.54
735.194	15.54
735.219	8.54
735.243	0.54
735.268	20.54
735.292	4.54
735.317	5.54
735.341	3.54
735.365	-10.46
735.39	2.54
735.414	6.54
735.439	10.54
735.463	10.54
735.488	6.54
735.512	2.54
735.537	25.54
735.561	14.54
735.586	5.54
735.61	11.54
735.634	-3.46
735.659	3.54
735.683	18.54
735.708	3.54
735.732	-4.46
735.757	5.54
735.781	11.54
735.805	13.54
735.83	-12.46
735.854	-3.46
735.879	15.54
735.903	21.54
735.927	12.54
735.952	21.54
735.976	3.54
736.001	2.54
736.025	5.54
736.049	16.54
736.074	15.54
736.098	8.54
736.123	5.54
736.147	10.54
736.171	13.54
736.196	3.54
736.22	1.54
736.244	6.54
736.269	-9.46
736.293	-1.46
736.317	-5.46
736.342	0.54
736.366	15.54
736.39	4.54
736.415	7.54
736.439	7.54
736.463	9.54
736.488	12.54
736.512	6.54
736.536	5.54
736.561	14.54
736.585	-14.46
736.609	5.54
736.634	-9.46
736.658	10.54
736.682	-14.46
736.707	-5.46
736.731	-28.46
736.755	-5.46
736.78	17.54
736.804	30.54
736.828	8.54
736.852	21.54
736.877	18.54
736.901	12.54
736.925	11.54
736.949	12.54
736.974	-5.46
736.998	-14.46
737.022	0.54
737.047	-1.46
737.071	-12.46
737.095	17.54
737.119	31.54
737.144	21.54
737.168	0.54
737.192	-7.46
737.216	5.54
737.241	1.54
737.265	17.54
737.289	13.54
737.313	3.54
737.337	5.54
737.362	16.54
737.386	-5.46
737.41	0.54
737.434	4.54
737.459	14.54
737.483	16.54
737.507	26.54
737.531	32.54
737.555	22.54
737.58	6.54
737.604	-2.46
737.628	1.54
737.652	-7.46
737.676	0.54
737.701	-0.46
737.725	-4.46
737.749	2.54
737.773	3.54
737.797	5.54
737.821	7.54
737.846	11.54
737.87	28.54
737.894	3.54
737.918	5.54
737.942	3.54
737.966	16.54
737.99	12.54
738.015	7.54
738.039	-2.46
738.063	-1.46
738.087	18.54
738.111	3.54
738.135	11.54
738.159	6.54
738.184	14.54
738.208	14.54
738.232	5.54
738.256	17.54
738.28	10.54
738.304	9.54
738.328	13.54
738.352	-0.46
738.376	-1.46
738.4	9.54
738.425	6.54
738.449	-10.46
738.473	14.54
738.497	25.54
738.521	14.54
738.545	11.54
738.569	3.54
738.593	4.54
738.617	9.54
738.641	5.54
738.665	3.54
738.689	6.54
738.713	2.54
738.737	-13.46
738.762	24.54
738.786	9.54
738.81	-6.46
738.834	-0.46
738.858	-1.46
738.882	21.54
738.906	-13.46
738.93	19.54
738.954	-0.46
738.978	7.54
739.002	15.54
739.026	12.54
739.05	-2.46
739.074	-9.46
739.098	25.54
739.122	4.54
739.146	-0.46
739.17	13.54
739.194	23.54
739.218	-3.46
739.242	12.54
739.266	13.54
739.29	16.54
739.314	6.54
739.338	13.54
739.362	15.54
739.386	-1.46
739.41	8.54
739.434	-12.46
739.458	6.54
739.482	19.54
739.506	11.54
739.53	12.54
739.554	14.54
739.577	17.54
739.601	43.54
739.625	8.54
739.649	1.54
739.673	5.54
739.697	33.54
739.721	0.54
739.745	17.54
739.769	20.54
739.793	7.54
739.817	22.54
739.841	-3.46
739.865	2.54
739.889	-9.46
739.912	15.54
739.936	6.54
739.96	-0.46
739.984	20.54
740.008	-4.46
740.032	1.54
740.056	-0.46
740.08	5.54
740.104	1.54
740.127	13.54
740.151	10.54
740.175	15.54
740.199	27.54
740.223	48.54
740.247	8.54
740.271	7.54
740.295	8.54
740.318	-6.46
740.342	6.54
740.366	11.54
740.39	0.54
740.414	1.54
740.438	3.54
740.461	9.54
740.485	-1.46
740.509	-6.46
740.533	2.54
740.557	0.54
740.581	1.54
740.604	0.54
740.628	-3.46
740.652	23.54
740.676	6.54
740.7	14.54
740.723	-9.46
740.747	-0.46
740.771	-2.46
740.795	-0.46
740.819	0.54
740.842	-9.46
740.866	6.54
740.89	3.54
740.914	8.54
740.938	-0.46
740.961	20.54
740.985	0.54
741.009	-7.46
741.033	12.54
741.056	-3.46
741.08	13.54
741.104	5.54
741.128	-0.46
741.151	24.54
741.175	7.54
741.199	8.54
741.223	15.54
741.246	9.54
741.27	13.54
741.294	10.54
741.318	-1.46
741.341	1.54
741.365	7.54
741.389	5.54
741.413	5.54
741.436	22.54
741.46	25.54
741.484	18.54
741.507	0.54
741.531	18.54
741.555	19.54
741.579	3.54
741.602	3.54
741.626	15.54
741.65	4.54
741.673	9.54
741.697	4.54
741.721	22.54
741.744	8.54
741.768	-5.46
741.792	0.54
741.815	5.54
741.839	15.54
741.863	12.54
741.886	17.54
741.91	26.54
741.934	9.54
741.957	-17.46
741.981	3.54
742.005	3.54
742.028	-4.46
742.052	-2.46
742.075	9.54
742.099	14.54
742.123	4.54
742.146	5.54
742.17	17.54
742.194	-5.46
742.217	4.54
742.241	3.54
742.264	4.54
742.288	16.54
742.312	15.54
742.335	2.54
742.359	17.54
742.382	21.54
742.406	9.54
742.43	-13.46
742.453	0.54
742.477	-7.46
742.5	-10.46
742.524	-5.46
742.548	-4.46
742.571	1.54
742.595	0.54
742.618	-1.46
742.642	1.54
742.665	3.54
742.689	-2.46
742.712	9.54
742.736	5.54
742.76	5.54
742.783	-3.46
742.807	12.54
742.83	19.54
742.854	1.54
742.877	12.54
742.901	2.54
742.924	16.54
742.948	15.54
742.971	8.54
742.995	-8.46
743.018	-27.46
743.042	-0.46
743.065	-10.46
743.089	4.54
743.112	6.54
743.136	10.54
743.159	-5.46
743.183	1.54
743.206	10.54
743.23	18.54
743.253	9.54
743.277	7.54
743.3	15.54
743.324	1.54
743.347	-5.46
743.371	18.54
743.394	30.54
743.418	8.54
743.441	1.54
743.465	10.54
743.488	16.54
743.512	-3.46
743.535	0.54
743.558	-13.46
743.582	6.54
743.605	0.54
743.629	20.54
743.652	23.54
743.676	19.54
743.699	20.54
743.723	-1.46
743.746	0.54
743.769	8.54
743.793	2.54
743.816	-4.46
743.84	28.54
743.863	2.54
743.886	16.54
743.91	20.54
743.933	7.54
743.957	8.54
743.98	-2.46
744.003	9.54
744.027	1.54
744.05	9.54
744.074	4.54
744.097	0.54
744.12	-1.46
744.144	-2.46
744.167	12.54
744.19	0.54
744.214	5.54
744.237	5.54
744.26	11.54
744.284	-6.46
744.307	-6.46
744.331	6.54
744.354	-4.46
744.377	-6.46
744.401	-12.46
744.424	8.54
744.447	3.54
744.471	-1.46
