Data from HighRes_H2D2_15_04_11_07_2024_HR4C61891__43__15-05-38-743.txt Node

Date: Thu Nov 07 15:05:38 EST 2024
User: crc00042
Spectrometer: HR4C6189
Trigger mode: 4
Integration Time (sec): 1.000000E-1
Scans to average: 1
Electric dark correction enabled: true
Nonlinearity correction enabled: false
Boxcar width: 0
XAxis mode: Wavelengths
Number of Pixels in Spectrum: 3648
>>>>>Begin Spectral Data<<<<<
639.567	-77.62
639.602	-77.62
639.636	-77.62
639.67	-47.62
639.704	-12.62
639.738	1.38
639.773	0.38
639.807	-6.62
639.841	5.38
639.875	0.38
639.909	9.38
639.943	-6.62
639.978	2.38
640.012	9.38
640.046	4.38
640.08	7.38
640.114	-2.62
640.148	-24.62
640.182	-17.62
640.217	-3.62
640.251	14.38
640.285	10.38
640.319	-4.62
640.353	-1.62
640.387	-0.62
640.421	4.38
640.455	15.38
640.49	3.38
640.524	8.38
640.558	-4.62
640.592	2.38
640.626	-11.62
640.66	6.38
640.694	-16.62
640.728	5.38
640.762	-11.62
640.796	-3.62
640.83	13.38
640.865	3.38
640.899	3.38
640.933	4.38
640.967	-6.62
641.001	12.38
641.035	-2.62
641.069	-6.62
641.103	5.38
641.137	7.38
641.171	-4.62
641.205	17.38
641.239	6.38
641.273	29.38
641.307	7.38
641.341	-2.62
641.375	-9.62
641.409	-23.62
641.443	-15.62
641.477	-7.62
641.511	-3.62
641.545	11.38
641.579	-12.62
641.614	16.38
641.648	11.38
641.682	4.38
641.716	16.38
641.75	6.38
641.784	3.38
641.818	-3.62
641.852	7.38
641.886	-1.62
641.919	28.38
641.953	5.38
641.987	-12.62
642.021	0.38
642.055	11.38
642.089	3.38
642.123	-22.62
642.157	4.38
642.191	-7.62
642.225	-7.62
642.259	-4.62
642.293	-0.62
642.327	-15.62
642.361	-9.62
642.395	4.38
642.429	5.38
642.463	14.38
642.497	10.38
642.531	2.38
642.565	0.38
642.599	13.38
642.633	-9.62
642.666	7.38
642.7	24.38
642.734	14.38
642.768	-0.62
642.802	3.38
642.836	21.38
642.87	2.38
642.904	-9.62
642.938	0.38
642.972	1.38
643.005	-11.62
643.039	11.38
643.073	-8.62
643.107	3.38
643.141	-7.62
643.175	11.38
643.209	-9.62
643.243	-8.62
643.276	2.38
643.31	-5.62
643.344	10.38
643.378	6.38
643.412	2.38
643.446	-5.62
643.48	-1.62
643.513	9.38
643.547	-3.62
643.581	-15.62
643.615	2.38
643.649	-1.62
643.683	3.38
643.716	8.38
643.75	0.38
643.784	-16.62
643.818	-9.62
643.852	-12.62
643.886	-4.62
643.919	5.38
643.953	-12.62
643.987	-8.62
644.021	-16.62
644.055	6.38
644.088	5.38
644.122	-10.62
644.156	-12.62
644.19	-2.62
644.224	-9.62
644.257	-4.62
644.291	2.38
644.325	-4.62
644.359	-16.62
644.392	10.38
644.426	3.38
644.46	0.38
644.494	11.38
644.527	0.38
644.561	-3.62
644.595	-3.62
644.629	-6.62
644.662	-9.62
644.696	3.38
644.73	8.38
644.764	-2.62
644.797	-18.62
644.831	-15.62
644.865	-10.62
644.899	-0.62
644.932	0.38
644.966	-10.62
645	22.38
645.033	22.38
645.067	-0.62
645.101	4.38
645.135	6.38
645.168	-9.62
645.202	-2.62
645.236	18.38
645.269	6.38
645.303	-4.62
645.337	-36.62
645.37	-18.62
645.404	2.38
645.438	-5.62
645.471	-13.62
645.505	11.38
645.539	-13.62
645.572	-23.62
645.606	2.38
645.64	8.38
645.673	-13.62
645.707	10.38
645.741	4.38
645.774	-17.62
645.808	8.38
645.842	7.38
645.875	10.38
645.909	-11.62
645.943	-8.62
645.976	-9.62
646.01	6.38
646.043	11.38
646.077	11.38
646.111	7.38
646.144	17.38
646.178	12.38
646.212	-3.62
646.245	-1.62
646.279	4.38
646.312	-9.62
646.346	-1.62
646.38	-5.62
646.413	9.38
646.447	-3.62
646.48	-7.62
646.514	3.38
646.547	-5.62
646.581	1.38
646.615	2.38
646.648	-7.62
646.682	0.38
646.715	7.38
646.749	14.38
646.782	-2.62
646.816	-3.62
646.85	-3.62
646.883	-0.62
646.917	7.38
646.95	7.38
646.984	6.38
647.017	-0.62
647.051	-4.62
647.084	-4.62
647.118	-20.62
647.151	-18.62
647.185	6.38
647.218	-8.62
647.252	8.38
647.285	-19.62
647.319	-0.62
647.353	7.38
647.386	11.38
647.42	-1.62
647.453	9.38
647.487	11.38
647.52	2.38
647.553	-5.62
647.587	-9.62
647.62	1.38
647.654	1.38
647.687	5.38
647.721	11.38
647.754	3.38
647.788	-5.62
647.821	-6.62
647.855	13.38
647.888	19.38
647.922	11.38
647.955	-8.62
647.989	-19.62
648.022	-8.62
648.055	4.38
648.089	-6.62
648.122	17.38
648.156	-6.62
648.189	3.38
648.223	6.38
648.256	22.38
648.29	4.38
648.323	1.38
648.356	-1.62
648.39	9.38
648.423	6.38
648.457	5.38
648.49	8.38
648.523	5.38
648.557	-13.62
648.59	5.38
648.624	5.38
648.657	-2.62
648.69	6.38
648.724	17.38
648.757	15.38
648.791	14.38
648.824	-0.62
648.857	-1.62
648.891	2.38
648.924	6.38
648.957	26.38
648.991	0.38
649.024	5.38
649.057	-4.62
649.091	3.38
649.124	-2.62
649.158	3.38
649.191	2.38
649.224	-4.62
649.258	5.38
649.291	0.38
649.324	9.38
649.358	4.38
649.391	3.38
649.424	-0.62
649.458	-1.62
649.491	12.38
649.524	-18.62
649.557	-10.62
649.591	-18.62
649.624	7.38
649.657	-4.62
649.691	9.38
649.724	-3.62
649.757	-7.62
649.791	-23.62
649.824	6.38
649.857	-8.62
649.89	1.38
649.924	-15.62
649.957	-1.62
649.99	-12.62
650.023	-4.62
650.057	1.38
650.09	9.38
650.123	-8.62
650.157	3.38
650.19	8.38
650.223	-0.62
650.256	-14.62
650.29	-12.62
650.323	5.38
650.356	8.38
650.389	-2.62
650.423	-9.62
650.456	-0.62
650.489	2.38
650.522	27.38
650.555	19.38
650.589	0.38
650.622	5.38
650.655	21.38
650.688	13.38
650.721	-5.62
650.755	-2.62
650.788	13.38
650.821	10.38
650.854	7.38
650.887	2.38
650.921	-3.62
650.954	-13.62
650.987	2.38
651.02	-4.62
651.053	-20.62
651.087	-15.62
651.12	17.38
651.153	10.38
651.186	2.38
651.219	-20.62
651.252	12.38
651.286	9.38
651.319	3.38
651.352	-0.62
651.385	-4.62
651.418	14.38
651.451	12.38
651.484	8.38
651.518	-2.62
651.551	9.38
651.584	-5.62
651.617	15.38
651.65	12.38
651.683	13.38
651.716	1.38
651.749	-9.62
651.783	7.38
651.816	14.38
651.849	13.38
651.882	7.38
651.915	-0.62
651.948	-5.62
651.981	-9.62
652.014	-24.62
652.047	-12.62
652.08	-6.62
652.114	13.38
652.147	-0.62
652.18	7.38
652.213	33.38
652.246	8.38
652.279	-2.62
652.312	7.38
652.345	-1.62
652.378	-7.62
652.411	18.38
652.444	8.38
652.477	12.38
652.51	-8.62
652.543	-14.62
652.576	-2.62
652.609	0.38
652.642	-0.62
652.675	1.38
652.709	0.38
652.742	29.38
652.775	11.38
652.808	2.38
652.841	-1.62
652.874	-11.62
652.907	-6.62
652.94	9.38
652.973	-10.62
653.006	9.38
653.039	-9.62
653.072	-2.62
653.105	0.38
653.138	-10.62
653.171	-6.62
653.204	-4.62
653.237	6.38
653.27	4.38
653.303	7.38
653.336	6.38
653.368	-4.62
653.401	7.38
653.434	-12.62
653.467	-9.62
653.5	-15.62
653.533	-20.62
653.566	-10.62
653.599	-5.62
653.632	-12.62
653.665	5.38
653.698	-6.62
653.731	9.38
653.764	-1.62
653.797	-21.62
653.83	13.38
653.863	4.38
653.896	-4.62
653.929	-10.62
653.961	18.38
653.994	-1.62
654.027	4.38
654.06	-2.62
654.093	-1.62
654.126	6.38
654.159	-6.62
654.192	3.38
654.225	1.38
654.258	-19.62
654.29	0.38
654.323	1.38
654.356	7.38
654.389	-1.62
654.422	0.38
654.455	9.38
654.488	-4.62
654.521	-23.62
654.553	-4.62
654.586	9.38
654.619	6.38
654.652	0.38
654.685	-8.62
654.718	4.38
654.751	5.38
654.783	-2.62
654.816	10.38
654.849	4.38
654.882	-15.62
654.915	-17.62
654.948	-1.62
654.98	5.38
655.013	-4.62
655.046	-10.62
655.079	-1.62
655.112	6.38
655.144	2.38
655.177	1.38
655.21	24.38
655.243	9.38
655.276	2.38
655.308	-7.62
655.341	5.38
655.374	2.38
655.407	0.38
655.44	-21.62
655.472	7.38
655.505	5.38
655.538	-12.62
655.571	18.38
655.603	5.38
655.636	20.38
655.669	13.38
655.702	8.38
655.734	-19.62
655.767	-13.62
655.8	1.38
655.833	11.38
655.865	15.38
655.898	13.38
655.931	22.38
655.964	20.38
655.996	10.38
656.029	37.38
656.062	36.38
656.095	35.38
656.127	91.38
656.16	203.38
656.193	609.38
656.225	971.38
656.258	549.38
656.291	214.38
656.324	177.38
656.356	340.38
656.389	771.38
656.422	674.38
656.454	223.38
656.487	73.38
656.52	38.38
656.552	14.38
656.585	22.38
656.618	21.38
656.65	15.38
656.683	11.38
656.716	12.38
656.748	-5.62
656.781	0.38
656.814	-11.62
656.846	13.38
656.879	-3.62
656.912	2.38
656.944	-19.62
656.977	-18.62
657.01	3.38
657.042	-4.62
657.075	6.38
657.108	-2.62
657.14	12.38
657.173	14.38
657.205	15.38
657.238	0.38
657.271	6.38
657.303	-22.62
657.336	0.38
657.369	4.38
657.401	8.38
657.434	-3.62
657.466	0.38
657.499	-6.62
657.532	-12.62
657.564	13.38
657.597	5.38
657.629	12.38
657.662	1.38
657.694	8.38
657.727	-9.62
657.76	17.38
657.792	-12.62
657.825	0.38
657.857	-10.62
657.89	-5.62
657.922	17.38
657.955	-6.62
657.987	-0.62
658.02	16.38
658.053	2.38
658.085	2.38
658.118	-6.62
658.15	1.38
658.183	15.38
658.215	-5.62
658.248	-1.62
658.28	-6.62
658.313	11.38
658.345	0.38
658.378	3.38
658.41	3.38
658.443	14.38
658.475	15.38
658.508	-7.62
658.54	9.38
658.573	4.38
658.605	4.38
658.638	-2.62
658.67	4.38
658.703	-0.62
658.735	-0.62
658.768	3.38
658.8	-9.62
658.833	25.38
658.865	-5.62
658.898	-8.62
658.93	-13.62
658.963	-3.62
658.995	-3.62
659.028	15.38
659.06	-3.62
659.092	-3.62
659.125	-7.62
659.157	7.38
659.19	6.38
659.222	-7.62
659.255	-3.62
659.287	-18.62
659.32	-3.62
659.352	-6.62
659.384	13.38
659.417	-12.62
659.449	5.38
659.482	12.38
659.514	4.38
659.546	-2.62
659.579	-2.62
659.611	-5.62
659.644	-1.62
659.676	-6.62
659.708	-4.62
659.741	-10.62
659.773	-4.62
659.806	-20.62
659.838	3.38
659.87	2.38
659.903	-16.62
659.935	10.38
659.967	-6.62
660	21.38
660.032	4.38
660.065	12.38
660.097	4.38
660.129	4.38
660.162	-13.62
660.194	-3.62
660.226	0.38
660.259	9.38
660.291	-1.62
660.323	2.38
660.356	5.38
660.388	-9.62
660.42	-16.62
660.453	2.38
660.485	8.38
660.517	10.38
660.55	17.38
660.582	-4.62
660.614	13.38
660.647	-3.62
660.679	-15.62
660.711	7.38
660.743	-19.62
660.776	-16.62
660.808	-0.62
660.84	11.38
660.873	-6.62
660.905	13.38
660.937	6.38
660.969	3.38
661.002	9.38
661.034	6.38
661.066	-1.62
661.099	13.38
661.131	12.38
661.163	8.38
661.195	-4.62
661.228	26.38
661.26	1.38
661.292	-0.62
661.324	-2.62
661.357	-0.62
661.389	-4.62
661.421	-16.62
661.453	-5.62
661.485	7.38
661.518	12.38
661.55	-4.62
661.582	-17.62
661.614	4.38
661.647	1.38
661.679	-16.62
661.711	-17.62
661.743	1.38
661.775	-4.62
661.808	19.38
661.84	-4.62
661.872	15.38
661.904	-3.62
661.936	-4.62
661.969	-12.62
662.001	-8.62
662.033	0.38
662.065	0.38
662.097	27.38
662.129	14.38
662.162	-8.62
662.194	8.38
662.226	11.38
662.258	8.38
662.29	7.38
662.322	6.38
662.355	0.38
662.387	9.38
662.419	0.38
662.451	6.38
662.483	19.38
662.515	12.38
662.547	-2.62
662.58	-2.62
662.612	-0.62
662.644	-21.62
662.676	-0.62
662.708	13.38
662.74	-5.62
662.772	-1.62
662.804	15.38
662.836	5.38
662.869	-4.62
662.901	4.38
662.933	-15.62
662.965	15.38
662.997	17.38
663.029	-6.62
663.061	-3.62
663.093	-6.62
663.125	-1.62
663.157	4.38
663.189	-7.62
663.221	-9.62
663.254	-11.62
663.286	8.38
663.318	-20.62
663.35	-17.62
663.382	-11.62
663.414	3.38
663.446	-5.62
663.478	-0.62
663.51	15.38
663.542	-12.62
663.574	5.38
663.606	6.38
663.638	-19.62
663.67	-8.62
663.702	-5.62
663.734	-3.62
663.766	2.38
663.798	-4.62
663.83	3.38
663.862	6.38
663.894	7.38
663.926	-7.62
663.958	-4.62
663.99	6.38
664.022	-16.62
664.054	-1.62
664.086	-21.62
664.118	-13.62
664.15	-10.62
664.182	4.38
664.214	9.38
664.246	14.38
664.278	-5.62
664.31	3.38
664.342	-6.62
664.374	-4.62
664.406	3.38
664.438	6.38
664.47	22.38
664.502	19.38
664.534	2.38
664.566	-12.62
664.598	3.38
664.63	-2.62
664.662	-6.62
664.693	-8.62
664.725	4.38
664.757	-5.62
664.789	7.38
664.821	-0.62
664.853	3.38
664.885	-7.62
664.917	-3.62
664.949	20.38
664.981	4.38
665.013	5.38
665.045	-7.62
665.076	-2.62
665.108	-0.62
665.14	2.38
665.172	-8.62
665.204	4.38
665.236	-2.62
665.268	9.38
665.3	-4.62
665.331	-0.62
665.363	-6.62
665.395	0.38
665.427	-1.62
665.459	3.38
665.491	-2.62
665.523	4.38
665.555	3.38
665.586	6.38
665.618	0.38
665.65	-4.62
665.682	-7.62
665.714	0.38
665.746	-4.62
665.777	5.38
665.809	2.38
665.841	3.38
665.873	-7.62
665.905	1.38
665.937	3.38
665.968	11.38
666	1.38
666.032	-6.62
666.064	-3.62
666.096	-7.62
666.127	0.38
666.159	13.38
666.191	2.38
666.223	8.38
666.255	7.38
666.286	-8.62
666.318	-2.62
666.35	5.38
666.382	5.38
666.413	-2.62
666.445	-4.62
666.477	11.38
666.509	2.38
666.54	7.38
666.572	0.38
666.604	-4.62
666.636	0.38
666.667	8.38
666.699	4.38
666.731	5.38
666.763	7.38
666.794	3.38
666.826	-9.62
666.858	-26.62
666.89	4.38
666.921	7.38
666.953	17.38
666.985	20.38
667.017	17.38
667.048	2.38
667.08	-4.62
667.112	-2.62
667.143	-17.62
667.175	5.38
667.207	2.38
667.238	-12.62
667.27	-7.62
667.302	-11.62
667.334	-13.62
667.365	7.38
667.397	-3.62
667.429	3.38
667.46	7.38
667.492	-11.62
667.524	-11.62
667.555	-2.62
667.587	3.38
667.619	20.38
667.65	5.38
667.682	-4.62
667.714	0.38
667.745	-11.62
667.777	-6.62
667.808	15.38
667.84	-4.62
667.872	-6.62
667.903	8.38
667.935	-3.62
667.967	-16.62
667.998	1.38
668.03	3.38
668.061	8.38
668.093	11.38
668.125	6.38
668.156	2.38
668.188	-6.62
668.22	-9.62
668.251	-9.62
668.283	8.38
668.314	12.38
668.346	5.38
668.377	1.38
668.409	9.38
668.441	3.38
668.472	6.38
668.504	11.38
668.535	12.38
668.567	9.38
668.599	-0.62
668.63	-0.62
668.662	-0.62
668.693	16.38
668.725	2.38
668.756	5.38
668.788	2.38
668.819	-11.62
668.851	-5.62
668.882	0.38
668.914	15.38
668.946	-1.62
668.977	-5.62
669.009	-1.62
669.04	-7.62
669.072	0.38
669.103	-10.62
669.135	0.38
669.166	-3.62
669.198	-2.62
669.229	14.38
669.261	1.38
669.292	6.38
669.324	3.38
669.355	28.38
669.387	-26.62
669.418	-1.62
669.45	-4.62
669.481	-1.62
669.513	3.38
669.544	8.38
669.576	-1.62
669.607	14.38
669.639	5.38
669.67	-13.62
669.701	4.38
669.733	-20.62
669.764	-10.62
669.796	-8.62
669.827	-10.62
669.859	-6.62
669.89	12.38
669.922	2.38
669.953	-4.62
669.985	10.38
670.016	13.38
670.047	6.38
670.079	-9.62
670.11	-11.62
670.142	0.38
670.173	-6.62
670.204	11.38
670.236	7.38
670.267	5.38
670.299	-14.62
670.33	-2.62
670.362	9.38
670.393	1.38
670.424	12.38
670.456	-22.62
670.487	6.38
670.518	3.38
670.55	4.38
670.581	1.38
670.613	13.38
670.644	-8.62
670.675	-9.62
670.707	5.38
670.738	12.38
670.769	3.38
670.801	-13.62
670.832	11.38
670.864	-16.62
670.895	0.38
670.926	-0.62
670.958	0.38
670.989	4.38
671.02	-6.62
671.052	-4.62
671.083	-4.62
671.114	-3.62
671.146	3.38
671.177	-0.62
671.208	-2.62
671.24	-13.62
671.271	-7.62
671.302	0.38
671.333	-4.62
671.365	-4.62
671.396	-14.62
671.427	20.38
671.459	-9.62
671.49	-7.62
671.521	1.38
671.553	8.38
671.584	2.38
671.615	14.38
671.646	15.38
671.678	3.38
671.709	-19.62
671.74	-23.62
671.771	-5.62
671.803	-14.62
671.834	4.38
671.865	-8.62
671.896	11.38
671.928	0.38
671.959	-7.62
671.99	-20.62
672.021	-4.62
672.053	-12.62
672.084	3.38
672.115	-15.62
672.146	-1.62
672.178	-13.62
672.209	1.38
672.24	11.38
672.271	10.38
672.303	7.38
672.334	-10.62
672.365	6.38
672.396	4.38
672.427	9.38
672.459	21.38
672.49	29.38
672.521	5.38
672.552	16.38
672.583	0.38
672.615	-6.62
672.646	16.38
672.677	-9.62
672.708	0.38
672.739	3.38
672.77	11.38
672.802	7.38
672.833	-13.62
672.864	12.38
672.895	-25.62
672.926	-9.62
672.957	-7.62
672.989	-1.62
673.02	11.38
673.051	-9.62
673.082	10.38
673.113	4.38
673.144	7.38
673.175	0.38
673.206	-11.62
673.238	-6.62
673.269	-7.62
673.3	-18.62
673.331	8.38
673.362	6.38
673.393	-6.62
673.424	-0.62
673.455	16.38
673.487	12.38
673.518	20.38
673.549	-1.62
673.58	-18.62
673.611	-3.62
673.642	-1.62
673.673	-6.62
673.704	-6.62
673.735	14.38
673.766	2.38
673.797	-11.62
673.828	1.38
673.86	-4.62
673.891	0.38
673.922	-30.62
673.953	-14.62
673.984	-0.62
674.015	6.38
674.046	-2.62
674.077	0.38
674.108	0.38
674.139	1.38
674.17	-2.62
674.201	6.38
674.232	-1.62
674.263	3.38
674.294	-1.62
674.325	-16.62
674.356	3.38
674.387	10.38
674.418	11.38
674.449	-16.62
674.48	-18.62
674.511	-0.62
674.542	1.38
674.573	-17.62
674.604	-12.62
674.635	-5.62
674.666	-0.62
674.697	-0.62
674.728	-10.62
674.759	-7.62
674.79	-10.62
674.821	3.38
674.852	0.38
674.883	-7.62
674.914	3.38
674.945	0.38
674.976	-5.62
675.007	-19.62
675.038	-4.62
675.069	-9.62
675.1	-0.62
675.131	-2.62
675.162	-8.62
675.193	0.38
675.224	-11.62
675.254	15.38
675.285	6.38
675.316	7.38
675.347	-4.62
675.378	-15.62
675.409	-10.62
675.44	9.38
675.471	0.38
675.502	-6.62
675.533	-1.62
675.564	-3.62
675.595	5.38
675.625	25.38
675.656	-11.62
675.687	-1.62
675.718	-5.62
675.749	-2.62
675.78	10.38
675.811	-3.62
675.842	12.38
675.873	-6.62
675.903	-9.62
675.934	13.38
675.965	2.38
675.996	-10.62
676.027	2.38
676.058	-15.62
676.089	-19.62
676.119	-10.62
676.15	0.38
676.181	-5.62
676.212	-4.62
676.243	8.38
676.274	-4.62
676.304	9.38
676.335	-18.62
676.366	6.38
676.397	-0.62
676.428	-4.62
676.459	0.38
676.489	11.38
676.52	5.38
676.551	-0.62
676.582	-8.62
676.613	10.38
676.643	-8.62
676.674	9.38
676.705	4.38
676.736	4.38
676.767	20.38
676.797	13.38
676.828	8.38
676.859	15.38
676.89	0.38
676.92	-7.62
676.951	2.38
676.982	-3.62
677.013	5.38
677.044	14.38
677.074	-4.62
677.105	-2.62
677.136	7.38
677.167	-2.62
677.197	13.38
677.228	1.38
677.259	-7.62
677.289	-9.62
677.32	-18.62
677.351	-19.62
677.382	-7.62
677.412	-12.62
677.443	-5.62
677.474	-5.62
677.505	-18.62
677.535	-1.62
677.566	-11.62
677.597	-14.62
677.627	-21.62
677.658	12.38
677.689	-22.62
677.72	1.38
677.75	-3.62
677.781	-6.62
677.812	-12.62
677.842	8.38
677.873	-6.62
677.904	-13.62
677.934	7.38
677.965	-16.62
677.996	-15.62
678.026	-6.62
678.057	8.38
678.088	-13.62
678.118	-0.62
678.149	5.38
678.18	4.38
678.21	6.38
678.241	17.38
678.272	22.38
678.302	2.38
678.333	-0.62
678.363	3.38
678.394	-2.62
678.425	1.38
678.455	-0.62
678.486	14.38
678.517	4.38
678.547	-8.62
678.578	-3.62
678.608	-13.62
678.639	-3.62
678.67	-2.62
678.7	-11.62
678.731	-11.62
678.761	-13.62
678.792	1.38
678.823	15.38
678.853	10.38
678.884	-4.62
678.914	-16.62
678.945	-5.62
678.975	-14.62
679.006	9.38
679.037	0.38
679.067	14.38
679.098	-12.62
679.128	-5.62
679.159	-9.62
679.189	6.38
679.22	-7.62
679.25	16.38
679.281	-4.62
679.312	-8.62
679.342	7.38
679.373	24.38
679.403	-4.62
679.434	6.38
679.464	3.38
679.495	1.38
679.525	1.38
679.556	-9.62
679.586	6.38
679.617	9.38
679.647	3.38
679.678	5.38
679.708	-5.62
679.739	2.38
679.769	5.38
679.8	1.38
679.83	10.38
679.861	6.38
679.891	-10.62
679.922	-12.62
679.952	-6.62
679.983	-4.62
680.013	7.38
680.044	-7.62
680.074	7.38
680.105	13.38
680.135	19.38
680.165	6.38
680.196	8.38
680.226	2.38
680.257	-0.62
680.287	4.38
680.318	6.38
680.348	-0.62
680.379	6.38
680.409	5.38
680.439	-8.62
680.47	6.38
680.5	-4.62
680.531	-0.62
680.561	-2.62
680.592	14.38
680.622	11.38
680.652	4.38
680.683	5.38
680.713	-5.62
680.744	-5.62
680.774	-4.62
680.804	27.38
680.835	-0.62
680.865	-16.62
680.896	14.38
680.926	18.38
680.956	7.38
680.987	0.38
681.017	-4.62
681.047	18.38
681.078	-15.62
681.108	7.38
681.139	3.38
681.169	10.38
681.199	9.38
681.23	6.38
681.26	-0.62
681.29	9.38
681.321	-13.62
681.351	2.38
681.381	-18.62
681.412	-2.62
681.442	7.38
681.472	11.38
681.503	-1.62
681.533	-8.62
681.563	0.38
681.594	6.38
681.624	6.38
681.654	9.38
681.685	1.38
681.715	-15.62
681.745	-21.62
681.775	-17.62
681.806	3.38
681.836	4.38
681.866	-23.62
681.897	11.38
681.927	-6.62
681.957	-6.62
681.987	-9.62
682.018	-15.62
682.048	-6.62
682.078	0.38
682.109	14.38
682.139	3.38
682.169	0.38
682.199	-2.62
682.23	5.38
682.26	10.38
682.29	-18.62
682.32	6.38
682.351	3.38
682.381	13.38
682.411	-9.62
682.441	-21.62
682.472	-7.62
682.502	-2.62
682.532	-6.62
682.562	-10.62
682.592	13.38
682.623	5.38
682.653	0.38
682.683	7.38
682.713	4.38
682.743	0.38
682.774	1.38
682.804	19.38
682.834	11.38
682.864	-10.62
682.894	-7.62
682.925	7.38
682.955	-1.62
682.985	2.38
683.015	10.38
683.045	11.38
683.076	-12.62
683.106	-8.62
683.136	-2.62
683.166	3.38
683.196	-1.62
683.226	2.38
683.257	-15.62
683.287	-10.62
683.317	-6.62
683.347	-5.62
683.377	-20.62
683.407	4.38
683.437	5.38
683.468	13.38
683.498	3.38
683.528	-6.62
683.558	2.38
683.588	-3.62
683.618	-4.62
683.648	-13.62
683.678	14.38
683.708	10.38
683.739	-5.62
683.769	4.38
683.799	7.38
683.829	-1.62
683.859	11.38
683.889	16.38
683.919	-1.62
683.949	10.38
683.979	-9.62
684.009	4.38
684.039	-2.62
684.07	-0.62
684.1	9.38
684.13	3.38
684.16	6.38
684.19	-19.62
684.22	1.38
684.25	0.38
684.28	-0.62
684.31	12.38
684.34	12.38
684.37	5.38
684.4	-15.62
684.43	3.38
684.46	-1.62
684.49	3.38
684.52	11.38
684.55	-0.62
684.58	-0.62
684.61	4.38
684.64	18.38
684.67	3.38
684.7	11.38
684.73	20.38
684.76	-7.62
684.79	15.38
684.82	3.38
684.85	-11.62
684.88	1.38
684.91	7.38
684.94	3.38
684.97	0.38
685	14.38
685.03	6.38
685.06	-4.62
685.09	-1.62
685.12	12.38
685.15	-6.62
685.18	4.38
685.21	-5.62
685.24	6.38
685.27	20.38
685.3	-2.62
685.33	-4.62
685.36	-4.62
685.39	4.38
685.42	-5.62
685.45	-4.62
685.48	14.38
685.51	7.38
685.54	8.38
685.569	8.38
685.599	25.38
685.629	11.38
685.659	3.38
685.689	10.38
685.719	-5.62
685.749	-2.62
685.779	-0.62
685.809	7.38
685.839	8.38
685.869	-1.62
685.898	6.38
685.928	-9.62
685.958	-17.62
685.988	4.38
686.018	2.38
686.048	6.38
686.078	12.38
686.108	6.38
686.137	14.38
686.167	12.38
686.197	-4.62
686.227	-8.62
686.257	32.38
686.287	3.38
686.317	-2.62
686.346	-14.62
686.376	-12.62
686.406	-12.62
686.436	4.38
686.466	-0.62
686.496	2.38
686.525	2.38
686.555	-0.62
686.585	11.38
686.615	25.38
686.645	2.38
686.675	16.38
686.704	7.38
686.734	13.38
686.764	-10.62
686.794	-10.62
686.824	-9.62
686.853	0.38
686.883	8.38
686.913	23.38
686.943	7.38
686.973	-8.62
687.002	-0.62
687.032	0.38
687.062	-3.62
687.092	7.38
687.121	9.38
687.151	22.38
687.181	16.38
687.211	11.38
687.24	14.38
687.27	10.38
687.3	1.38
687.33	-2.62
687.359	-11.62
687.389	13.38
687.419	-7.62
687.449	2.38
687.478	11.38
687.508	12.38
687.538	8.38
687.568	9.38
687.597	-4.62
687.627	23.38
687.657	15.38
687.686	2.38
687.716	12.38
687.746	-0.62
687.776	-6.62
687.805	21.38
687.835	6.38
687.865	11.38
687.894	14.38
687.924	-6.62
687.954	-1.62
687.983	5.38
688.013	0.38
688.043	9.38
688.072	2.38
688.102	-2.62
688.132	4.38
688.161	-0.62
688.191	8.38
688.221	14.38
688.25	2.38
688.28	8.38
688.31	3.38
688.339	5.38
688.369	-4.62
688.399	-0.62
688.428	-0.62
688.458	4.38
688.488	8.38
688.517	14.38
688.547	-4.62
688.576	26.38
688.606	19.38
688.636	2.38
688.665	-0.62
688.695	2.38
688.725	10.38
688.754	-0.62
688.784	-6.62
688.813	14.38
688.843	-6.62
688.873	-7.62
688.902	-12.62
688.932	-4.62
688.961	1.38
688.991	15.38
689.02	16.38
689.05	-16.62
689.08	19.38
689.109	5.38
689.139	4.38
689.168	-0.62
689.198	4.38
689.227	-5.62
689.257	10.38
689.287	6.38
689.316	5.38
689.346	-20.62
689.375	-8.62
689.405	15.38
689.434	6.38
689.464	15.38
689.493	6.38
689.523	-10.62
689.552	-6.62
689.582	2.38
689.611	6.38
689.641	6.38
689.67	0.38
689.7	4.38
689.73	13.38
689.759	2.38
689.789	5.38
689.818	-19.62
689.848	2.38
689.877	17.38
689.906	5.38
689.936	0.38
689.965	4.38
689.995	3.38
690.024	10.38
690.054	4.38
690.083	10.38
690.113	-10.62
690.142	-1.62
690.172	4.38
690.201	-0.62
690.231	-0.62
690.26	16.38
690.29	11.38
690.319	19.38
690.348	-2.62
690.378	7.38
690.407	3.38
690.437	-7.62
690.466	-0.62
690.496	19.38
690.525	12.38
690.555	-2.62
690.584	17.38
690.613	-10.62
690.643	3.38
690.672	15.38
690.702	16.38
690.731	-0.62
690.76	-6.62
690.79	5.38
690.819	-12.62
690.849	5.38
690.878	7.38
690.907	-9.62
690.937	-2.62
690.966	16.38
690.996	10.38
691.025	6.38
691.054	6.38
691.084	-0.62
691.113	-4.62
691.142	-11.62
691.172	4.38
691.201	10.38
691.23	4.38
691.26	-2.62
691.289	-6.62
691.319	2.38
691.348	5.38
691.377	16.38
691.407	3.38
691.436	6.38
691.465	2.38
691.495	-1.62
691.524	1.38
691.553	-5.62
691.583	-3.62
691.612	0.38
691.641	9.38
691.67	9.38
691.7	13.38
691.729	-6.62
691.758	-16.62
691.788	-8.62
691.817	9.38
691.846	-6.62
691.876	11.38
691.905	25.38
691.934	11.38
691.963	13.38
691.993	9.38
692.022	-4.62
692.051	-10.62
692.081	7.38
692.11	27.38
692.139	4.38
692.168	8.38
692.198	27.38
692.227	12.38
692.256	8.38
692.285	-9.62
692.315	7.38
692.344	4.38
692.373	7.38
692.402	15.38
692.432	10.38
692.461	4.38
692.49	-4.62
692.519	-14.62
692.548	-1.62
692.578	11.38
692.607	-2.62
692.636	1.38
692.665	14.38
692.694	-5.62
692.724	2.38
692.753	10.38
692.782	34.38
692.811	-2.62
692.84	-0.62
692.87	1.38
692.899	-2.62
692.928	-20.62
692.957	0.38
692.986	11.38
693.016	6.38
693.045	17.38
693.074	-6.62
693.103	5.38
693.132	3.38
693.161	0.38
693.191	2.38
693.22	-8.62
693.249	7.38
693.278	4.38
693.307	15.38
693.336	-9.62
693.365	-11.62
693.395	-3.62
693.424	3.38
693.453	10.38
693.482	5.38
693.511	8.38
693.54	25.38
693.569	8.38
693.598	-0.62
693.628	25.38
693.657	20.38
693.686	20.38
693.715	24.38
693.744	22.38
693.773	21.38
693.802	10.38
693.831	-7.62
693.86	13.38
693.889	-2.62
693.919	11.38
693.948	5.38
693.977	-5.62
694.006	-5.62
694.035	-1.62
694.064	12.38
694.093	-0.62
694.122	-12.62
694.151	-11.62
694.18	12.38
694.209	29.38
694.238	7.38
694.267	15.38
694.296	22.38
694.325	28.38
694.354	14.38
694.383	19.38
694.412	0.38
694.441	-4.62
694.471	-8.62
694.5	-11.62
694.529	-3.62
694.558	20.38
694.587	22.38
694.616	14.38
694.645	1.38
694.674	22.38
694.703	20.38
694.732	9.38
694.761	5.38
694.79	25.38
694.819	-3.62
694.848	-0.62
694.877	13.38
694.906	24.38
694.935	5.38
694.963	14.38
694.992	-1.62
695.021	2.38
695.05	3.38
695.079	4.38
695.108	8.38
695.137	17.38
695.166	9.38
695.195	-12.62
695.224	1.38
695.253	0.38
695.282	11.38
695.311	5.38
695.34	2.38
695.369	9.38
695.398	-3.62
695.427	19.38
695.456	3.38
695.485	-5.62
695.513	-3.62
695.542	-3.62
695.571	2.38
695.6	23.38
695.629	13.38
695.658	6.38
695.687	6.38
695.716	6.38
695.745	29.38
695.774	10.38
695.802	-13.62
695.831	18.38
695.86	10.38
695.889	14.38
695.918	10.38
695.947	6.38
695.976	5.38
696.005	3.38
696.033	-0.62
696.062	10.38
696.091	2.38
696.12	-5.62
696.149	13.38
696.178	6.38
696.207	7.38
696.235	-1.62
696.264	3.38
696.293	14.38
696.322	6.38
696.351	15.38
696.38	-10.62
696.408	6.38
696.437	4.38
696.466	3.38
696.495	34.38
696.524	22.38
696.553	6.38
696.581	2.38
696.61	0.38
696.639	3.38
696.668	7.38
696.697	-8.62
696.725	13.38
696.754	0.38
696.783	3.38
696.812	-4.62
696.84	15.38
696.869	12.38
696.898	-0.62
696.927	-2.62
696.956	11.38
696.984	16.38
697.013	14.38
697.042	3.38
697.071	8.38
697.099	14.38
697.128	13.38
697.157	18.38
697.186	5.38
697.214	2.38
697.243	14.38
697.272	16.38
697.301	11.38
697.329	6.38
697.358	11.38
697.387	11.38
697.415	13.38
697.444	-11.62
697.473	4.38
697.502	-10.62
697.53	8.38
697.559	3.38
697.588	-5.62
697.616	-0.62
697.645	1.38
697.674	8.38
697.703	1.38
697.731	4.38
697.76	24.38
697.789	7.38
697.817	2.38
697.846	5.38
697.875	-4.62
697.903	9.38
697.932	7.38
697.961	5.38
697.989	15.38
698.018	12.38
698.047	11.38
698.075	11.38
698.104	-11.62
698.133	-10.62
698.161	-9.62
698.19	-0.62
698.218	6.38
698.247	6.38
698.276	0.38
698.304	0.38
698.333	12.38
698.362	21.38
698.39	13.38
698.419	9.38
698.447	-4.62
698.476	-11.62
698.505	-1.62
698.533	10.38
698.562	14.38
698.591	6.38
698.619	5.38
698.648	-2.62
698.676	3.38
698.705	-0.62
698.733	-5.62
698.762	20.38
698.791	8.38
698.819	9.38
698.848	-1.62
698.876	4.38
698.905	-3.62
698.933	12.38
698.962	5.38
698.991	20.38
699.019	16.38
699.048	9.38
699.076	-3.62
699.105	-5.62
699.133	-9.62
699.162	12.38
699.19	33.38
699.219	9.38
699.248	6.38
699.276	-4.62
699.305	-10.62
699.333	-2.62
699.362	0.38
699.39	4.38
699.419	3.38
699.447	15.38
699.476	22.38
699.504	-0.62
699.533	-2.62
699.561	1.38
699.59	-12.62
699.618	-2.62
699.647	5.38
699.675	13.38
699.704	18.38
699.732	4.38
699.761	18.38
699.789	8.38
699.818	6.38
699.846	0.38
699.874	-3.62
699.903	2.38
699.931	-0.62
699.96	9.38
699.988	3.38
700.017	-2.62
700.045	-13.62
700.074	-3.62
700.102	0.38
700.13	-3.62
700.159	1.38
700.187	0.38
700.216	-7.62
700.244	1.38
700.273	-11.62
700.301	-6.62
700.329	-4.62
700.358	10.38
700.386	4.38
700.415	4.38
700.443	-11.62
700.472	-2.62
700.5	-6.62
700.528	7.38
700.557	18.38
700.585	4.38
700.614	-9.62
700.642	13.38
700.67	13.38
700.699	13.38
700.727	3.38
700.755	-2.62
700.784	0.38
700.812	-6.62
700.841	1.38
700.869	-6.62
700.897	-22.62
700.926	-8.62
700.954	11.38
700.982	8.38
701.011	1.38
701.039	4.38
701.067	11.38
701.096	1.38
701.124	-17.62
701.152	-7.62
701.181	-12.62
701.209	-6.62
701.237	-8.62
701.266	-3.62
701.294	-12.62
701.322	2.38
701.351	9.38
701.379	-13.62
701.407	-8.62
701.435	3.38
701.464	13.38
701.492	29.38
701.52	-1.62
701.549	-4.62
701.577	-27.62
701.605	-4.62
701.634	9.38
701.662	20.38
701.69	-18.62
701.718	-15.62
701.747	3.38
701.775	-11.62
701.803	-1.62
701.831	17.38
701.86	-6.62
701.888	6.38
701.916	12.38
701.944	3.38
701.973	-3.62
702.001	-17.62
702.029	-1.62
702.057	2.38
702.086	-13.62
702.114	-19.62
702.142	-8.62
702.17	-20.62
702.199	7.38
702.227	-5.62
702.255	2.38
702.283	-9.62
702.311	12.38
702.34	-7.62
702.368	-9.62
702.396	-3.62
702.424	2.38
702.452	-1.62
702.481	-11.62
702.509	-9.62
702.537	23.38
702.565	9.38
702.593	-17.62
702.621	-1.62
702.65	13.38
702.678	6.38
702.706	-1.62
702.734	-4.62
702.762	4.38
702.79	3.38
702.819	11.38
702.847	7.38
702.875	8.38
702.903	20.38
702.931	14.38
702.959	5.38
702.988	8.38
703.016	-0.62
703.044	3.38
703.072	-10.62
703.1	-12.62
703.128	5.38
703.156	15.38
703.184	-2.62
703.212	11.38
703.241	14.38
703.269	2.38
703.297	-6.62
703.325	19.38
703.353	-8.62
703.381	-6.62
703.409	-0.62
703.437	6.38
703.465	-13.62
703.493	-8.62
703.522	0.38
703.55	4.38
703.578	17.38
703.606	8.38
703.634	15.38
703.662	-0.62
703.69	13.38
703.718	0.38
703.746	10.38
703.774	1.38
703.802	-2.62
703.83	0.38
703.858	-0.62
703.886	-8.62
703.914	-2.62
703.942	14.38
703.97	-1.62
703.998	5.38
704.027	6.38
704.055	11.38
704.083	-1.62
704.111	-10.62
704.139	-5.62
704.167	3.38
704.195	6.38
704.223	-1.62
704.251	1.38
704.279	20.38
704.307	-0.62
704.335	-9.62
704.363	5.38
704.391	-0.62
704.419	-3.62
704.447	-4.62
704.475	-2.62
704.503	-15.62
704.531	13.38
704.558	7.38
704.586	-4.62
704.614	-1.62
704.642	-12.62
704.67	-16.62
704.698	8.38
704.726	-0.62
704.754	-13.62
704.782	2.38
704.81	4.38
704.838	14.38
704.866	3.38
704.894	-13.62
704.922	-2.62
704.95	-5.62
704.978	6.38
705.006	-0.62
705.034	14.38
705.061	-8.62
705.089	-9.62
705.117	-15.62
705.145	-4.62
705.173	-1.62
705.201	2.38
705.229	10.38
705.257	-3.62
705.285	13.38
705.313	-0.62
705.34	1.38
705.368	-9.62
705.396	-0.62
705.424	4.38
705.452	-2.62
705.48	2.38
705.508	-6.62
705.536	-2.62
705.563	-12.62
705.591	-3.62
705.619	-0.62
705.647	-8.62
705.675	3.38
705.703	8.38
705.731	3.38
705.758	-1.62
705.786	-2.62
705.814	8.38
705.842	6.38
705.87	11.38
705.898	2.38
705.925	-8.62
705.953	18.38
705.981	2.38
706.009	5.38
706.037	-0.62
706.065	2.38
706.092	-12.62
706.12	7.38
706.148	-3.62
706.176	-4.62
706.204	13.38
706.231	7.38
706.259	-3.62
706.287	9.38
706.315	7.38
706.342	6.38
706.37	0.38
706.398	11.38
706.426	-6.62
706.454	7.38
706.481	16.38
706.509	11.38
706.537	-17.62
706.565	-9.62
706.592	3.38
706.62	-3.62
706.648	5.38
706.676	4.38
706.703	4.38
706.731	-6.62
706.759	-19.62
706.787	18.38
706.814	4.38
706.842	-9.62
706.87	-2.62
706.897	3.38
706.925	-1.62
706.953	3.38
706.981	16.38
707.008	10.38
707.036	8.38
707.064	-2.62
707.091	-1.62
707.119	9.38
707.147	7.38
707.174	-1.62
707.202	7.38
707.23	-26.62
707.258	7.38
707.285	-6.62
707.313	4.38
707.341	-1.62
707.368	6.38
707.396	5.38
707.424	13.38
707.451	10.38
707.479	-5.62
707.507	0.38
707.534	-7.62
707.562	0.38
707.59	3.38
707.617	3.38
707.645	-3.62
707.672	-17.62
707.7	-18.62
707.728	10.38
707.755	2.38
707.783	2.38
707.811	-1.62
707.838	-4.62
707.866	-3.62
707.893	-6.62
707.921	-1.62
707.949	7.38
707.976	-2.62
708.004	-1.62
708.031	-6.62
708.059	0.38
708.087	-7.62
708.114	2.38
708.142	6.38
708.169	-9.62
708.197	-3.62
708.225	3.38
708.252	4.38
708.28	7.38
708.307	-13.62
708.335	0.38
708.362	-16.62
708.39	-16.62
708.418	-9.62
708.445	-2.62
708.473	-28.62
708.5	-12.62
708.528	11.38
708.555	-2.62
708.583	-3.62
708.61	0.38
708.638	3.38
708.665	-18.62
708.693	-13.62
708.72	-0.62
708.748	5.38
708.776	-6.62
708.803	20.38
708.831	4.38
708.858	14.38
708.886	-6.62
708.913	-2.62
708.941	21.38
708.968	15.38
708.996	-5.62
709.023	39.38
709.051	-6.62
709.078	-28.62
709.105	0.38
709.133	6.38
709.16	7.38
709.188	21.38
709.215	19.38
709.243	2.38
709.27	-5.62
709.298	-0.62
709.325	-17.62
709.353	5.38
709.38	3.38
709.408	12.38
709.435	-4.62
709.462	-1.62
709.49	9.38
709.517	2.38
709.545	-2.62
709.572	7.38
709.6	7.38
709.627	3.38
709.655	-4.62
709.682	-15.62
709.709	-4.62
709.737	5.38
709.764	5.38
709.792	18.38
709.819	4.38
709.846	3.38
709.874	4.38
709.901	11.38
709.929	18.38
709.956	2.38
709.983	-9.62
710.011	-4.62
710.038	-11.62
710.066	-1.62
710.093	9.38
710.12	-7.62
710.148	-12.62
710.175	-1.62
710.202	6.38
710.23	5.38
710.257	-3.62
710.284	0.38
710.312	-5.62
710.339	9.38
710.366	13.38
710.394	-5.62
710.421	5.38
710.448	-0.62
710.476	-1.62
710.503	-1.62
710.53	14.38
710.558	12.38
710.585	11.38
710.612	3.38
710.64	-1.62
710.667	-8.62
710.694	-0.62
710.722	5.38
710.749	-3.62
710.776	-2.62
710.804	14.38
710.831	6.38
710.858	7.38
710.885	-1.62
710.913	-3.62
710.94	7.38
710.967	1.38
710.995	2.38
711.022	-2.62
711.049	7.38
711.076	-4.62
711.104	4.38
711.131	-2.62
711.158	-5.62
711.185	5.38
711.213	-27.62
711.24	-3.62
711.267	-13.62
711.294	0.38
711.322	10.38
711.349	-0.62
711.376	-3.62
711.403	8.38
711.431	-9.62
711.458	5.38
711.485	-19.62
711.512	-6.62
711.54	6.38
711.567	4.38
711.594	3.38
711.621	-0.62
711.648	4.38
711.676	2.38
711.703	5.38
711.73	-9.62
711.757	6.38
711.784	-4.62
711.812	-11.62
711.839	2.38
711.866	-19.62
711.893	-15.62
711.92	10.38
711.947	3.38
711.975	8.38
712.002	4.38
712.029	18.38
712.056	10.38
712.083	5.38
712.11	-21.62
712.138	9.38
712.165	17.38
712.192	0.38
712.219	-4.62
712.246	-16.62
712.273	-9.62
712.3	-5.62
712.328	20.38
712.355	10.38
712.382	7.38
712.409	11.38
712.436	-3.62
712.463	18.38
712.49	18.38
712.517	0.38
712.544	-6.62
712.572	-8.62
712.599	-22.62
712.626	-2.62
712.653	-0.62
712.68	-7.62
712.707	13.38
712.734	11.38
712.761	2.38
712.788	5.38
712.815	-4.62
712.842	13.38
712.87	7.38
712.897	-6.62
712.924	-1.62
712.951	21.38
712.978	27.38
713.005	19.38
713.032	2.38
713.059	-4.62
713.086	2.38
713.113	-18.62
713.14	-20.62
713.167	-6.62
713.194	6.38
713.221	6.38
713.248	8.38
713.275	0.38
713.302	-15.62
713.329	4.38
713.356	17.38
713.383	8.38
713.41	2.38
713.437	-9.62
713.464	13.38
713.491	16.38
713.518	6.38
713.545	2.38
713.572	3.38
713.599	20.38
713.626	-4.62
713.653	2.38
713.68	10.38
713.707	18.38
713.734	7.38
713.761	3.38
713.788	2.38
713.815	5.38
713.842	-4.62
713.869	-3.62
713.896	7.38
713.923	-5.62
713.95	-2.62
713.977	-1.62
714.004	4.38
714.031	-2.62
714.058	-17.62
714.085	-8.62
714.112	2.38
714.139	0.38
714.165	5.38
714.192	-10.62
714.219	5.38
714.246	1.38
714.273	-3.62
714.3	2.38
714.327	3.38
714.354	8.38
714.381	-5.62
714.408	0.38
714.435	-5.62
714.461	-4.62
714.488	11.38
714.515	-1.62
714.542	-14.62
714.569	-9.62
714.596	-2.62
714.623	-6.62
714.65	-11.62
714.677	-0.62
714.703	1.38
714.73	17.38
714.757	2.38
714.784	9.38
714.811	-7.62
714.838	-3.62
714.865	-16.62
714.891	13.38
714.918	-13.62
714.945	-11.62
714.972	-1.62
714.999	-6.62
715.026	0.38
715.052	17.38
715.079	-3.62
715.106	14.38
715.133	19.38
715.16	-5.62
715.187	14.38
715.213	11.38
715.24	-9.62
715.267	11.38
715.294	12.38
715.321	-8.62
715.347	-4.62
715.374	-3.62
715.401	-1.62
715.428	2.38
715.455	-7.62
715.481	2.38
715.508	-2.62
715.535	2.38
715.562	3.38
715.588	14.38
715.615	-2.62
715.642	-5.62
715.669	22.38
715.695	3.38
715.722	-9.62
715.749	12.38
715.776	-1.62
715.802	8.38
715.829	-1.62
715.856	-15.62
715.883	3.38
715.909	-2.62
715.936	-10.62
715.963	2.38
715.99	-3.62
716.016	6.38
716.043	-1.62
716.07	-5.62
716.096	-3.62
716.123	-7.62
716.15	3.38
716.177	2.38
716.203	12.38
716.23	14.38
716.257	-0.62
716.283	11.38
716.31	7.38
716.337	1.38
716.363	-3.62
716.39	2.38
716.417	8.38
716.443	7.38
716.47	13.38
716.497	14.38
716.523	3.38
716.55	-4.62
716.577	4.38
716.603	-5.62
716.63	6.38
716.657	20.38
716.683	6.38
716.71	-3.62
716.737	-12.62
716.763	10.38
716.79	8.38
716.817	2.38
716.843	-3.62
716.87	2.38
716.897	8.38
716.923	27.38
716.95	-13.62
716.976	-1.62
717.003	-2.62
717.03	0.38
717.056	-4.62
717.083	0.38
717.109	4.38
717.136	11.38
717.163	-1.62
717.189	11.38
717.216	-1.62
717.242	-8.62
717.269	-0.62
717.296	21.38
717.322	22.38
717.349	14.38
717.375	16.38
717.402	-6.62
717.428	-1.62
717.455	9.38
717.481	-1.62
717.508	-8.62
717.535	0.38
717.561	10.38
717.588	3.38
717.614	4.38
717.641	0.38
717.667	-5.62
717.694	-1.62
717.72	-2.62
717.747	15.38
717.773	-15.62
717.8	9.38
717.826	1.38
717.853	-11.62
717.88	3.38
717.906	14.38
717.933	12.38
717.959	10.38
717.986	3.38
718.012	-9.62
718.039	-3.62
718.065	16.38
718.092	4.38
718.118	-20.62
718.144	-20.62
718.171	16.38
718.197	4.38
718.224	14.38
718.25	5.38
718.277	8.38
718.303	13.38
718.33	2.38
718.356	-1.62
718.383	-10.62
718.409	-1.62
718.436	5.38
718.462	0.38
718.489	-10.62
718.515	23.38
718.541	13.38
718.568	5.38
718.594	-3.62
718.621	-4.62
718.647	-3.62
718.674	4.38
718.7	-9.62
718.726	-10.62
718.753	-2.62
718.779	3.38
718.806	6.38
718.832	4.38
718.858	-4.62
718.885	-24.62
718.911	-1.62
718.938	15.38
718.964	-3.62
718.99	-2.62
719.017	-5.62
719.043	11.38
719.07	18.38
719.096	-19.62
719.122	6.38
719.149	6.38
719.175	8.38
719.201	12.38
719.228	-4.62
719.254	10.38
719.281	7.38
719.307	-8.62
719.333	5.38
719.36	15.38
719.386	-0.62
719.412	-1.62
719.439	-2.62
719.465	11.38
719.491	-15.62
719.518	-1.62
719.544	2.38
719.57	-3.62
719.597	-15.62
719.623	-2.62
719.649	3.38
719.675	7.38
719.702	3.38
719.728	8.38
719.754	-8.62
719.781	-4.62
719.807	4.38
719.833	3.38
719.86	-7.62
719.886	6.38
719.912	6.38
719.938	0.38
719.965	4.38
719.991	3.38
720.017	-2.62
720.044	-9.62
720.07	-12.62
720.096	16.38
720.122	20.38
720.149	7.38
720.175	16.38
720.201	12.38
720.227	3.38
720.254	12.38
720.28	-2.62
720.306	-7.62
720.332	16.38
720.359	-4.62
720.385	10.38
720.411	12.38
720.437	6.38
720.463	-12.62
720.49	22.38
720.516	-12.62
720.542	-5.62
720.568	-7.62
720.595	-1.62
720.621	10.38
720.647	12.38
720.673	7.38
720.699	-0.62
720.725	-0.62
720.752	4.38
720.778	3.38
720.804	4.38
720.83	4.38
720.856	-11.62
720.883	0.38
720.909	-7.62
720.935	9.38
720.961	13.38
720.987	0.38
721.013	8.38
721.04	-3.62
721.066	-4.62
721.092	-17.62
721.118	12.38
721.144	-7.62
721.17	-4.62
721.196	1.38
721.223	-17.62
721.249	-0.62
721.275	13.38
721.301	-2.62
721.327	23.38
721.353	6.38
721.379	4.38
721.405	9.38
721.432	6.38
721.458	5.38
721.484	15.38
721.51	-13.62
721.536	-18.62
721.562	-0.62
721.588	4.38
721.614	-2.62
721.64	0.38
721.666	2.38
721.693	-5.62
721.719	-9.62
721.745	-4.62
721.771	-9.62
721.797	4.38
721.823	-5.62
721.849	11.38
721.875	14.38
721.901	24.38
721.927	18.38
721.953	9.38
721.979	19.38
722.005	16.38
722.031	-1.62
722.057	8.38
722.083	1.38
722.109	10.38
722.135	11.38
722.161	8.38
722.187	-1.62
722.214	-5.62
722.24	-4.62
722.266	-5.62
722.292	8.38
722.318	5.38
722.344	2.38
722.37	12.38
722.396	7.38
722.422	10.38
722.448	-9.62
722.474	-5.62
722.5	13.38
722.526	8.38
722.552	2.38
722.578	-4.62
722.603	9.38
722.629	-3.62
722.655	7.38
722.681	-5.62
722.707	7.38
722.733	9.38
722.759	-19.62
722.785	-15.62
722.811	-0.62
722.837	2.38
722.863	1.38
722.889	14.38
722.915	-7.62
722.941	-0.62
722.967	5.38
722.993	7.38
723.019	-5.62
723.045	3.38
723.071	6.38
723.097	5.38
723.122	7.38
723.148	5.38
723.174	-1.62
723.2	4.38
723.226	-1.62
723.252	-3.62
723.278	-8.62
723.304	-4.62
723.33	-6.62
723.356	-5.62
723.381	-4.62
723.407	-6.62
723.433	16.38
723.459	-12.62
723.485	-1.62
723.511	13.38
723.537	-0.62
723.563	3.38
723.588	-0.62
723.614	2.38
723.64	-3.62
723.666	-4.62
723.692	-0.62
723.718	3.38
723.744	0.38
723.769	4.38
723.795	-16.62
723.821	-9.62
723.847	-0.62
723.873	5.38
723.899	-13.62
723.924	-5.62
723.95	-5.62
723.976	-19.62
724.002	5.38
724.028	-0.62
724.053	-2.62
724.079	-1.62
724.105	-2.62
724.131	4.38
724.157	0.38
724.182	10.38
724.208	2.38
724.234	-3.62
724.26	8.38
724.286	1.38
724.311	-9.62
724.337	-11.62
724.363	-15.62
724.389	3.38
724.415	-5.62
724.44	19.38
724.466	6.38
724.492	0.38
724.518	14.38
724.543	3.38
724.569	-6.62
724.595	-4.62
724.621	-3.62
724.646	-1.62
724.672	-9.62
724.698	0.38
724.723	7.38
724.749	5.38
724.775	-3.62
724.801	10.38
724.826	-17.62
724.852	-11.62
724.878	-11.62
724.904	-13.62
724.929	-3.62
724.955	-3.62
724.981	11.38
725.006	-0.62
725.032	5.38
725.058	3.38
725.083	-3.62
725.109	-21.62
725.135	-4.62
725.161	0.38
725.186	6.38
725.212	2.38
725.238	-0.62
725.263	4.38
725.289	-19.62
725.315	-6.62
725.34	13.38
725.366	7.38
725.392	-13.62
725.417	-5.62
725.443	10.38
725.468	10.38
725.494	17.38
725.52	14.38
725.545	-0.62
725.571	-11.62
725.597	-7.62
725.622	-0.62
725.648	2.38
725.674	13.38
725.699	-0.62
725.725	0.38
725.75	14.38
725.776	-10.62
725.802	3.38
725.827	12.38
725.853	-2.62
725.878	-6.62
725.904	4.38
725.93	-13.62
725.955	-12.62
725.981	-0.62
726.006	2.38
726.032	21.38
726.057	-11.62
726.083	-4.62
726.109	4.38
726.134	-4.62
726.16	-2.62
726.185	-7.62
726.211	11.38
726.236	4.38
726.262	9.38
726.288	9.38
726.313	11.38
726.339	25.38
726.364	0.38
726.39	-3.62
726.415	-10.62
726.441	-6.62
726.466	-1.62
726.492	4.38
726.517	5.38
726.543	3.38
726.568	-1.62
726.594	3.38
726.619	10.38
726.645	0.38
726.67	-4.62
726.696	-9.62
726.721	-2.62
726.747	-0.62
726.772	6.38
726.798	5.38
726.823	11.38
726.849	-1.62
726.874	2.38
726.9	31.38
726.925	-1.62
726.951	-7.62
726.976	-2.62
727.002	-4.62
727.027	8.38
727.053	11.38
727.078	3.38
727.104	12.38
727.129	-17.62
727.155	-0.62
727.18	1.38
727.205	-3.62
727.231	-1.62
727.256	3.38
727.282	7.38
727.307	14.38
727.333	0.38
727.358	-3.62
727.383	0.38
727.409	-3.62
727.434	11.38
727.46	-5.62
727.485	-1.62
727.511	12.38
727.536	-5.62
727.561	7.38
727.587	12.38
727.612	7.38
727.637	-3.62
727.663	-9.62
727.688	19.38
727.714	-5.62
727.739	-0.62
727.764	-7.62
727.79	-3.62
727.815	-0.62
727.841	-0.62
727.866	-1.62
727.891	-2.62
727.917	-20.62
727.942	-12.62
727.967	-9.62
727.993	-9.62
728.018	1.38
728.043	8.38
728.069	10.38
728.094	8.38
728.119	-1.62
728.145	16.38
728.17	10.38
728.195	8.38
728.221	-2.62
728.246	-0.62
728.271	-7.62
728.297	-1.62
728.322	12.38
728.347	5.38
728.373	0.38
728.398	12.38
728.423	-17.62
728.448	3.38
728.474	-0.62
728.499	-4.62
728.524	-1.62
728.55	-25.62
728.575	5.38
728.6	10.38
728.625	-13.62
728.651	-0.62
728.676	-7.62
728.701	-11.62
728.727	6.38
728.752	3.38
728.777	-6.62
728.802	8.38
728.828	6.38
728.853	-12.62
728.878	-1.62
728.903	4.38
728.929	-20.62
728.954	-16.62
728.979	2.38
729.004	-4.62
729.03	-2.62
729.055	22.38
729.08	-10.62
729.105	-2.62
729.13	14.38
729.156	-3.62
729.181	-10.62
729.206	-17.62
729.231	-21.62
729.256	-1.62
729.282	5.38
729.307	-12.62
729.332	-15.62
729.357	-2.62
729.382	-6.62
729.408	-12.62
729.433	10.38
729.458	12.38
729.483	4.38
729.508	17.38
729.533	8.38
729.559	3.38
729.584	-7.62
729.609	-3.62
729.634	-3.62
729.659	-2.62
729.684	-4.62
729.71	17.38
729.735	6.38
729.76	-3.62
729.785	1.38
729.81	1.38
729.835	-6.62
729.86	-24.62
729.886	12.38
729.911	-8.62
729.936	-4.62
729.961	2.38
729.986	-13.62
730.011	6.38
730.036	-2.62
730.061	9.38
730.086	14.38
730.112	-4.62
730.137	27.38
730.162	-5.62
730.187	-4.62
730.212	2.38
730.237	1.38
730.262	2.38
730.287	0.38
730.312	16.38
730.337	4.38
730.362	7.38
730.387	-3.62
730.413	-10.62
730.438	-9.62
730.463	-1.62
730.488	14.38
730.513	6.38
730.538	-9.62
730.563	19.38
730.588	13.38
730.613	4.38
730.638	-17.62
730.663	-0.62
730.688	13.38
730.713	14.38
730.738	7.38
730.763	-2.62
730.788	-16.62
730.813	-2.62
730.838	-7.62
730.863	-12.62
730.888	4.38
730.913	3.38
730.938	3.38
730.963	7.38
730.988	7.38
731.013	19.38
731.038	-5.62
731.063	-21.62
731.088	13.38
731.113	-11.62
731.138	-3.62
731.163	10.38
731.188	6.38
731.213	11.38
731.238	3.38
731.263	3.38
731.288	-1.62
731.313	7.38
731.338	9.38
731.363	9.38
731.388	11.38
731.413	1.38
731.438	2.38
731.463	3.38
731.487	11.38
731.512	-1.62
731.537	4.38
731.562	15.38
731.587	12.38
731.612	0.38
731.637	-7.62
731.662	13.38
731.687	4.38
731.712	-4.62
731.737	1.38
731.762	2.38
731.786	12.38
731.811	6.38
731.836	-1.62
731.861	7.38
731.886	-8.62
731.911	12.38
731.936	10.38
731.961	-5.62
731.986	2.38
732.01	0.38
732.035	10.38
732.06	14.38
732.085	-1.62
732.11	9.38
732.135	0.38
732.16	7.38
732.184	-13.62
732.209	13.38
732.234	-5.62
732.259	-9.62
732.284	11.38
732.309	8.38
732.334	-9.62
732.358	-11.62
732.383	-4.62
732.408	-7.62
732.433	-2.62
732.458	-3.62
732.482	-1.62
732.507	-10.62
732.532	-4.62
732.557	4.38
732.582	12.38
732.607	-0.62
732.631	-25.62
732.656	-8.62
732.681	3.38
732.706	0.38
732.73	-3.62
732.755	-9.62
732.78	-27.62
732.805	-5.62
732.83	-3.62
732.854	2.38
732.879	4.38
732.904	8.38
732.929	7.38
732.953	23.38
732.978	-8.62
733.003	2.38
733.028	-0.62
733.052	11.38
733.077	4.38
733.102	6.38
733.127	-6.62
733.151	4.38
733.176	-2.62
733.201	-8.62
733.226	-7.62
733.25	7.38
733.275	-0.62
733.3	-4.62
733.324	12.38
733.349	-5.62
733.374	8.38
733.399	-9.62
733.423	4.38
733.448	3.38
733.473	8.38
733.497	3.38
733.522	-2.62
733.547	11.38
733.571	22.38
733.596	9.38
733.621	7.38
733.646	-7.62
733.67	11.38
733.695	0.38
733.72	2.38
733.744	17.38
733.769	13.38
733.794	12.38
733.818	-6.62
733.843	-7.62
733.867	-22.62
733.892	-4.62
733.917	2.38
733.941	13.38
733.966	5.38
733.991	-7.62
734.015	16.38
734.04	-4.62
734.065	11.38
734.089	5.38
734.114	-4.62
734.138	4.38
734.163	1.38
734.188	12.38
734.212	22.38
734.237	-6.62
734.261	-0.62
734.286	-1.62
734.311	-1.62
734.335	-4.62
734.36	3.38
734.384	0.38
734.409	5.38
734.434	-6.62
734.458	2.38
734.483	2.38
734.507	-7.62
734.532	2.38
734.556	-1.62
734.581	-12.62
734.606	-5.62
734.63	-14.62
734.655	10.38
734.679	1.38
734.704	-0.62
734.728	5.38
734.753	-6.62
734.777	4.38
734.802	3.38
734.826	11.38
734.851	4.38
734.876	6.38
734.9	14.38
734.925	10.38
734.949	20.38
734.974	4.38
734.998	0.38
735.023	-1.62
735.047	-5.62
735.072	21.38
735.096	12.38
735.121	4.38
735.145	7.38
735.17	5.38
735.194	7.38
735.219	-0.62
735.243	-2.62
735.268	-0.62
735.292	5.38
735.317	1.38
735.341	-4.62
735.365	-22.62
735.39	7.38
735.414	2.38
735.439	-5.62
735.463	-0.62
735.488	16.38
735.512	8.38
735.537	14.38
735.561	2.38
735.586	-3.62
735.61	3.38
735.634	-5.62
735.659	3.38
735.683	19.38
735.708	-6.62
735.732	2.38
735.757	-2.62
735.781	10.38
735.805	4.38
735.83	-7.62
735.854	8.38
735.879	1.38
735.903	18.38
735.927	10.38
735.952	24.38
735.976	4.38
736.001	1.38
736.025	-2.62
736.049	-4.62
736.074	-3.62
736.098	-6.62
736.123	7.38
736.147	3.38
736.171	-5.62
736.196	13.38
736.22	-7.62
736.244	-4.62
736.269	4.38
736.293	-5.62
736.317	7.38
736.342	8.38
736.366	26.38
736.39	16.38
736.415	-0.62
736.439	10.38
736.463	-7.62
736.488	0.38
736.512	-4.62
736.536	-0.62
736.561	19.38
736.585	7.38
736.609	14.38
736.634	-1.62
736.658	-7.62
736.682	-7.62
736.707	-3.62
736.731	4.38
736.755	2.38
736.78	10.38
736.804	-3.62
736.828	6.38
736.852	4.38
736.877	-4.62
736.901	7.38
736.925	8.38
736.949	15.38
736.974	-3.62
736.998	-10.62
737.022	2.38
737.047	3.38
737.071	-12.62
737.095	3.38
737.119	23.38
737.144	11.38
737.168	-0.62
737.192	3.38
737.216	1.38
737.241	-1.62
737.265	10.38
737.289	13.38
737.313	-2.62
737.337	3.38
737.362	-0.62
737.386	7.38
737.41	-15.62
737.434	-0.62
737.459	10.38
737.483	10.38
737.507	1.38
737.531	18.38
737.555	8.38
737.58	7.38
737.604	21.38
737.628	-13.62
737.652	10.38
737.676	-4.62
737.701	3.38
737.725	20.38
737.749	8.38
737.773	-5.62
737.797	2.38
737.821	2.38
737.846	-0.62
737.87	14.38
737.894	10.38
737.918	10.38
737.942	-10.62
737.966	-0.62
737.99	11.38
738.015	7.38
738.039	3.38
738.063	-13.62
738.087	-1.62
738.111	-15.62
738.135	15.38
738.159	4.38
738.184	-5.62
738.208	6.38
738.232	7.38
738.256	41.38
738.28	2.38
738.304	13.38
738.328	-6.62
738.352	11.38
738.376	-3.62
738.4	0.38
738.425	19.38
738.449	2.38
738.473	27.38
738.497	-0.62
738.521	15.38
738.545	2.38
738.569	3.38
738.593	11.38
738.617	11.38
738.641	-1.62
738.665	-3.62
738.689	-10.62
738.713	3.38
738.737	1.38
738.762	12.38
738.786	-1.62
738.81	-22.62
738.834	-0.62
738.858	5.38
738.882	12.38
738.906	-0.62
738.93	8.38
738.954	-1.62
738.978	3.38
739.002	3.38
739.026	12.38
739.05	-0.62
739.074	-17.62
739.098	24.38
739.122	25.38
739.146	17.38
739.17	13.38
739.194	22.38
739.218	-5.62
739.242	3.38
739.266	-5.62
739.29	-0.62
739.314	-3.62
739.338	-3.62
739.362	-2.62
739.386	-6.62
739.41	-1.62
739.434	-10.62
739.458	13.38
739.482	6.38
739.506	11.38
739.53	-4.62
739.554	17.38
739.577	-1.62
739.601	-4.62
739.625	-15.62
739.649	-8.62
739.673	3.38
739.697	15.38
739.721	7.38
739.745	13.38
739.769	3.38
739.793	7.38
739.817	6.38
739.841	-12.62
739.865	-0.62
739.889	-16.62
739.912	-2.62
739.936	-0.62
739.96	3.38
739.984	3.38
740.008	8.38
740.032	-16.62
740.056	-16.62
740.08	-2.62
740.104	-7.62
740.127	12.38
740.151	11.38
740.175	1.38
740.199	21.38
740.223	34.38
740.247	13.38
740.271	7.38
740.295	-4.62
740.318	-10.62
740.342	-6.62
740.366	7.38
740.39	7.38
740.414	3.38
740.438	-7.62
740.461	8.38
740.485	6.38
740.509	0.38
740.533	5.38
740.557	-6.62
740.581	9.38
740.604	-3.62
740.628	5.38
740.652	0.38
740.676	2.38
740.7	2.38
740.723	2.38
740.747	-8.62
740.771	-5.62
740.795	-13.62
740.819	19.38
740.842	7.38
740.866	5.38
740.89	3.38
740.914	-10.62
740.938	-19.62
740.961	5.38
740.985	5.38
741.009	-4.62
741.033	14.38
741.056	10.38
741.08	-1.62
741.104	-4.62
741.128	3.38
741.151	15.38
741.175	22.38
741.199	-3.62
741.223	14.38
741.246	-2.62
741.27	22.38
741.294	8.38
741.318	-4.62
741.341	-4.62
741.365	3.38
741.389	20.38
741.413	17.38
741.436	34.38
741.46	11.38
741.484	16.38
741.507	-0.62
741.531	7.38
741.555	9.38
741.579	11.38
741.602	10.38
741.626	-5.62
741.65	0.38
741.673	-2.62
741.697	3.38
741.721	3.38
741.744	-9.62
741.768	-6.62
741.792	-0.62
741.815	-7.62
741.839	14.38
741.863	16.38
741.886	15.38
741.91	16.38
741.934	0.38
741.957	0.38
741.981	12.38
742.005	-0.62
742.028	-21.62
742.052	2.38
742.075	7.38
742.099	22.38
742.123	6.38
742.146	11.38
742.17	2.38
742.194	-26.62
742.217	-1.62
742.241	-5.62
742.264	2.38
742.288	18.38
742.312	6.38
742.335	7.38
742.359	0.38
742.382	2.38
742.406	6.38
742.43	-13.62
742.453	17.38
742.477	-2.62
742.5	2.38
742.524	-0.62
742.548	0.38
742.571	3.38
742.595	6.38
742.618	-0.62
742.642	-6.62
742.665	9.38
742.689	-1.62
742.712	17.38
742.736	14.38
742.76	13.38
742.783	3.38
742.807	-0.62
742.83	21.38
742.854	-0.62
742.877	-2.62
742.901	-4.62
742.924	-3.62
742.948	-1.62
742.971	-1.62
742.995	10.38
743.018	-3.62
743.042	-2.62
743.065	-8.62
743.089	0.38
743.112	8.38
743.136	0.38
743.159	3.38
743.183	0.38
743.206	10.38
743.23	-8.62
743.253	20.38
743.277	18.38
743.3	-7.62
743.324	-8.62
743.347	-4.62
743.371	14.38
743.394	-0.62
743.418	11.38
743.441	16.38
743.465	-1.62
743.488	14.38
743.512	2.38
743.535	-7.62
743.558	-17.62
743.582	2.38
743.605	1.38
743.629	20.38
743.652	8.38
743.676	0.38
743.699	2.38
743.723	0.38
743.746	10.38
743.769	-8.62
743.793	4.38
743.816	-1.62
743.84	30.38
743.863	11.38
743.886	15.38
743.91	7.38
743.933	10.38
743.957	-0.62
743.98	-3.62
744.003	-8.62
744.027	5.38
744.05	-2.62
744.074	-9.62
744.097	-9.62
744.12	-0.62
744.144	-1.62
744.167	0.38
744.19	-4.62
744.214	-13.62
744.237	-25.62
744.26	7.38
744.284	3.38
744.307	-11.62
744.331	0.38
744.354	-10.62
744.377	-9.62
744.401	11.38
744.424	3.38
744.447	-16.62
744.471	-10.62
