Data from HighRes_H2D2_15_04_11_07_2024_HR4C61891__93__15-05-43-742.txt Node

Date: Thu Nov 07 15:05:43 EST 2024
User: crc00042
Spectrometer: HR4C6189
Trigger mode: 4
Integration Time (sec): 1.000000E-1
Scans to average: 1
Electric dark correction enabled: true
Nonlinearity correction enabled: false
Boxcar width: 0
XAxis mode: Wavelengths
Number of Pixels in Spectrum: 3648
>>>>>Begin Spectral Data<<<<<
639.567	-70.38
639.602	-70.38
639.636	-70.38
639.67	-41.38
639.704	-7.38
639.738	9.62
639.773	6.62
639.807	-14.38
639.841	7.62
639.875	8.62
639.909	4.62
639.943	-10.38
639.978	-12.38
640.012	4.62
640.046	3.62
640.08	9.62
640.114	-5.38
640.148	-12.38
640.182	-15.38
640.217	9.62
640.251	23.62
640.285	15.62
640.319	-12.38
640.353	-9.38
640.387	14.62
640.421	-4.38
640.455	-0.38
640.49	7.62
640.524	-1.38
640.558	14.62
640.592	-1.38
640.626	5.62
640.66	7.62
640.694	0.62
640.728	16.62
640.762	13.62
640.796	20.62
640.83	29.62
640.865	14.62
640.899	9.62
640.933	15.62
640.967	-6.38
641.001	3.62
641.035	12.62
641.069	19.62
641.103	-9.38
641.137	-1.38
641.171	1.62
641.205	-1.38
641.239	-1.38
641.273	17.62
641.307	15.62
641.341	15.62
641.375	8.62
641.409	5.62
641.443	6.62
641.477	4.62
641.511	7.62
641.545	9.62
641.579	14.62
641.614	16.62
641.648	15.62
641.682	-7.38
641.716	15.62
641.75	15.62
641.784	-10.38
641.818	8.62
641.852	0.62
641.886	14.62
641.919	10.62
641.953	9.62
641.987	-27.38
642.021	3.62
642.055	4.62
642.089	-0.38
642.123	-25.38
642.157	10.62
642.191	-3.38
642.225	15.62
642.259	13.62
642.293	22.62
642.327	7.62
642.361	4.62
642.395	12.62
642.429	15.62
642.463	16.62
642.497	32.62
642.531	6.62
642.565	7.62
642.599	7.62
642.633	-0.38
642.666	5.62
642.7	14.62
642.734	14.62
642.768	-3.38
642.802	-8.38
642.836	17.62
642.87	6.62
642.904	6.62
642.938	8.62
642.972	1.62
643.005	8.62
643.039	32.62
643.073	12.62
643.107	18.62
643.141	5.62
643.175	14.62
643.209	15.62
643.243	14.62
643.276	21.62
643.31	-1.38
643.344	11.62
643.378	-5.38
643.412	9.62
643.446	23.62
643.48	7.62
643.513	29.62
643.547	3.62
643.581	-3.38
643.615	-0.38
643.649	13.62
643.683	9.62
643.716	-3.38
643.75	14.62
643.784	-13.38
643.818	-0.38
643.852	10.62
643.886	-2.38
643.919	0.62
643.953	-5.38
643.987	6.62
644.021	11.62
644.055	7.62
644.088	-2.38
644.122	-7.38
644.156	12.62
644.19	9.62
644.224	0.62
644.257	-0.38
644.291	20.62
644.325	2.62
644.359	2.62
644.392	24.62
644.426	30.62
644.46	2.62
644.494	12.62
644.527	1.62
644.561	-15.38
644.595	-3.38
644.629	-13.38
644.662	1.62
644.696	12.62
644.73	5.62
644.764	15.62
644.797	9.62
644.831	6.62
644.865	12.62
644.899	-6.38
644.932	17.62
644.966	-0.38
645	3.62
645.033	16.62
645.067	1.62
645.101	18.62
645.135	14.62
645.168	5.62
645.202	-10.38
645.236	1.62
645.269	28.62
645.303	3.62
645.337	7.62
645.37	-5.38
645.404	1.62
645.438	10.62
645.471	1.62
645.505	20.62
645.539	17.62
645.572	4.62
645.606	5.62
645.64	15.62
645.673	17.62
645.707	30.62
645.741	4.62
645.774	-1.38
645.808	13.62
645.842	2.62
645.875	22.62
645.909	-0.38
645.943	6.62
645.976	2.62
646.01	27.62
646.043	20.62
646.077	14.62
646.111	13.62
646.144	22.62
646.178	14.62
646.212	4.62
646.245	10.62
646.279	13.62
646.312	14.62
646.346	14.62
646.38	8.62
646.413	22.62
646.447	3.62
646.48	0.62
646.514	17.62
646.547	4.62
646.581	-10.38
646.615	4.62
646.648	1.62
646.682	3.62
646.715	13.62
646.749	11.62
646.782	13.62
646.816	12.62
646.85	20.62
646.883	5.62
646.917	16.62
646.95	18.62
646.984	2.62
647.017	-1.38
647.051	22.62
647.084	17.62
647.118	-5.38
647.151	1.62
647.185	9.62
647.218	10.62
647.252	12.62
647.285	-5.38
647.319	-0.38
647.353	1.62
647.386	10.62
647.42	17.62
647.453	5.62
647.487	15.62
647.52	-1.38
647.553	6.62
647.587	1.62
647.62	6.62
647.654	7.62
647.687	2.62
647.721	14.62
647.754	1.62
647.788	-3.38
647.821	-3.38
647.855	19.62
647.888	18.62
647.922	15.62
647.955	6.62
647.989	10.62
648.022	8.62
648.055	3.62
648.089	-5.38
648.122	46.62
648.156	5.62
648.189	-6.38
648.223	-1.38
648.256	25.62
648.29	6.62
648.323	-5.38
648.356	-1.38
648.39	27.62
648.423	17.62
648.457	5.62
648.49	26.62
648.523	10.62
648.557	9.62
648.59	12.62
648.624	1.62
648.657	29.62
648.69	7.62
648.724	20.62
648.757	12.62
648.791	29.62
648.824	9.62
648.857	16.62
648.891	1.62
648.924	20.62
648.957	37.62
648.991	-5.38
649.024	18.62
649.057	9.62
649.091	-13.38
649.124	18.62
649.158	-5.38
649.191	16.62
649.224	12.62
649.258	15.62
649.291	15.62
649.324	15.62
649.358	14.62
649.391	2.62
649.424	11.62
649.458	2.62
649.491	7.62
649.524	0.62
649.557	1.62
649.591	-2.38
649.624	1.62
649.657	-12.38
649.691	-0.38
649.724	-2.38
649.757	7.62
649.791	6.62
649.824	15.62
649.857	8.62
649.89	-1.38
649.924	-2.38
649.957	0.62
649.99	-21.38
650.023	-0.38
650.057	3.62
650.09	7.62
650.123	10.62
650.157	17.62
650.19	39.62
650.223	11.62
650.256	4.62
650.29	-1.38
650.323	12.62
650.356	8.62
650.389	-4.38
650.423	-1.38
650.456	0.62
650.489	-4.38
650.522	8.62
650.555	20.62
650.589	28.62
650.622	18.62
650.655	13.62
650.688	15.62
650.721	13.62
650.755	11.62
650.788	31.62
650.821	6.62
650.854	16.62
650.887	-2.38
650.921	0.62
650.954	-1.38
650.987	-6.38
651.02	5.62
651.053	-5.38
651.087	-8.38
651.12	30.62
651.153	17.62
651.186	0.62
651.219	-3.38
651.252	13.62
651.286	7.62
651.319	-8.38
651.352	-0.38
651.385	6.62
651.418	4.62
651.451	31.62
651.484	11.62
651.518	-1.38
651.551	35.62
651.584	6.62
651.617	39.62
651.65	20.62
651.683	36.62
651.716	4.62
651.749	-0.38
651.783	13.62
651.816	8.62
651.849	6.62
651.882	12.62
651.915	-0.38
651.948	22.62
651.981	-2.38
652.014	-0.38
652.047	-1.38
652.08	5.62
652.114	0.62
652.147	-10.38
652.18	14.62
652.213	35.62
652.246	8.62
652.279	18.62
652.312	35.62
652.345	22.62
652.378	16.62
652.411	24.62
652.444	14.62
652.477	12.62
652.51	-0.38
652.543	-9.38
652.576	4.62
652.609	7.62
652.642	27.62
652.675	30.62
652.709	6.62
652.742	10.62
652.775	3.62
652.808	14.62
652.841	21.62
652.874	11.62
652.907	3.62
652.94	1.62
652.973	-16.38
653.006	-6.38
653.039	14.62
653.072	4.62
653.105	14.62
653.138	-17.38
653.171	-2.38
653.204	13.62
653.237	18.62
653.27	-2.38
653.303	19.62
653.336	13.62
653.368	22.62
653.401	12.62
653.434	2.62
653.467	13.62
653.5	-0.38
653.533	-1.38
653.566	-7.38
653.599	3.62
653.632	-13.38
653.665	12.62
653.698	-12.38
653.731	-3.38
653.764	22.62
653.797	5.62
653.83	-2.38
653.863	2.62
653.896	0.62
653.929	15.62
653.961	8.62
653.994	-11.38
654.027	2.62
654.06	7.62
654.093	11.62
654.126	12.62
654.159	-1.38
654.192	9.62
654.225	8.62
654.258	13.62
654.29	2.62
654.323	13.62
654.356	-0.38
654.389	-1.38
654.422	14.62
654.455	6.62
654.488	8.62
654.521	-3.38
654.553	-4.38
654.586	17.62
654.619	-7.38
654.652	4.62
654.685	4.62
654.718	16.62
654.751	7.62
654.783	-0.38
654.816	31.62
654.849	12.62
654.882	-1.38
654.915	-20.38
654.948	9.62
654.98	5.62
655.013	11.62
655.046	-15.38
655.079	-7.38
655.112	11.62
655.144	-5.38
655.177	24.62
655.21	38.62
655.243	35.62
655.276	20.62
655.308	4.62
655.341	5.62
655.374	30.62
655.407	3.62
655.44	-7.38
655.472	24.62
655.505	11.62
655.538	-1.38
655.571	16.62
655.603	13.62
655.636	10.62
655.669	24.62
655.702	18.62
655.734	-1.38
655.767	19.62
655.8	22.62
655.833	15.62
655.865	13.62
655.898	14.62
655.931	27.62
655.964	43.62
655.996	39.62
656.029	43.62
656.062	27.62
656.095	49.62
656.127	79.62
656.16	229.62
656.193	630.62
656.225	954.62
656.258	574.62
656.291	237.62
656.324	183.62
656.356	354.62
656.389	777.62
656.422	678.62
656.454	240.62
656.487	84.62
656.52	40.62
656.552	27.62
656.585	19.62
656.618	13.62
656.65	27.62
656.683	-2.38
656.716	4.62
656.748	-0.38
656.781	-9.38
656.814	-10.38
656.846	14.62
656.879	9.62
656.912	14.62
656.944	-6.38
656.977	-13.38
657.01	6.62
657.042	11.62
657.075	5.62
657.108	10.62
657.14	9.62
657.173	17.62
657.205	45.62
657.238	16.62
657.271	-1.38
657.303	2.62
657.336	9.62
657.369	2.62
657.401	5.62
657.434	5.62
657.466	12.62
657.499	4.62
657.532	13.62
657.564	3.62
657.597	6.62
657.629	18.62
657.662	12.62
657.694	-0.38
657.727	0.62
657.76	21.62
657.792	-0.38
657.825	8.62
657.857	7.62
657.89	8.62
657.922	-2.38
657.955	4.62
657.987	2.62
658.02	17.62
658.053	22.62
658.085	6.62
658.118	5.62
658.15	18.62
658.183	10.62
658.215	-2.38
658.248	3.62
658.28	-5.38
658.313	26.62
658.345	16.62
658.378	0.62
658.41	3.62
658.443	26.62
658.475	14.62
658.508	3.62
658.54	1.62
658.573	-0.38
658.605	6.62
658.638	8.62
658.67	15.62
658.703	19.62
658.735	10.62
658.768	11.62
658.8	-3.38
658.833	21.62
658.865	2.62
658.898	2.62
658.93	-5.38
658.963	6.62
658.995	4.62
659.028	11.62
659.06	3.62
659.092	-7.38
659.125	1.62
659.157	8.62
659.19	-4.38
659.222	20.62
659.255	-3.38
659.287	12.62
659.32	1.62
659.352	6.62
659.384	3.62
659.417	0.62
659.449	6.62
659.482	12.62
659.514	-14.38
659.546	10.62
659.579	13.62
659.611	5.62
659.644	7.62
659.676	-12.38
659.708	3.62
659.741	-12.38
659.773	12.62
659.806	30.62
659.838	12.62
659.87	19.62
659.903	-11.38
659.935	9.62
659.967	-11.38
660	14.62
660.032	11.62
660.065	20.62
660.097	12.62
660.129	7.62
660.162	10.62
660.194	32.62
660.226	6.62
660.259	17.62
660.291	-2.38
660.323	-9.38
660.356	-17.38
660.388	-7.38
660.42	16.62
660.453	7.62
660.485	10.62
660.517	15.62
660.55	20.62
660.582	4.62
660.614	0.62
660.647	-9.38
660.679	-12.38
660.711	32.62
660.743	-0.38
660.776	-6.38
660.808	-2.38
660.84	6.62
660.873	14.62
660.905	-8.38
660.937	6.62
660.969	3.62
661.002	-9.38
661.034	17.62
661.066	4.62
661.099	12.62
661.131	3.62
661.163	18.62
661.195	3.62
661.228	14.62
661.26	5.62
661.292	-4.38
661.324	-6.38
661.357	21.62
661.389	15.62
661.421	14.62
661.453	2.62
661.485	8.62
661.518	15.62
661.55	1.62
661.582	-14.38
661.614	-3.38
661.647	18.62
661.679	19.62
661.711	32.62
661.743	14.62
661.775	10.62
661.808	25.62
661.84	-10.38
661.872	13.62
661.904	4.62
661.936	13.62
661.969	-13.38
662.001	6.62
662.033	-3.38
662.065	5.62
662.097	16.62
662.129	20.62
662.162	9.62
662.194	14.62
662.226	5.62
662.258	4.62
662.29	10.62
662.322	-9.38
662.355	-14.38
662.387	6.62
662.419	6.62
662.451	11.62
662.483	9.62
662.515	-7.38
662.547	7.62
662.58	-3.38
662.612	10.62
662.644	9.62
662.676	-11.38
662.708	5.62
662.74	-13.38
662.772	13.62
662.804	14.62
662.836	25.62
662.869	4.62
662.901	13.62
662.933	12.62
662.965	15.62
662.997	16.62
663.029	5.62
663.061	5.62
663.093	-5.38
663.125	10.62
663.157	5.62
663.189	12.62
663.221	4.62
663.254	22.62
663.286	15.62
663.318	-3.38
663.35	-6.38
663.382	-0.38
663.414	-18.38
663.446	28.62
663.478	10.62
663.51	19.62
663.542	-12.38
663.574	-2.38
663.606	19.62
663.638	3.62
663.67	5.62
663.702	-0.38
663.734	16.62
663.766	-7.38
663.798	-15.38
663.83	1.62
663.862	9.62
663.894	19.62
663.926	14.62
663.958	14.62
663.99	3.62
664.022	5.62
664.054	14.62
664.086	4.62
664.118	-7.38
664.15	-12.38
664.182	17.62
664.214	22.62
664.246	4.62
664.278	3.62
664.31	17.62
664.342	4.62
664.374	1.62
664.406	20.62
664.438	-1.38
664.47	13.62
664.502	1.62
664.534	1.62
664.566	-18.38
664.598	13.62
664.63	-9.38
664.662	13.62
664.693	12.62
664.725	4.62
664.757	12.62
664.789	-5.38
664.821	5.62
664.853	21.62
664.885	0.62
664.917	7.62
664.949	23.62
664.981	18.62
665.013	34.62
665.045	8.62
665.076	3.62
665.108	18.62
665.14	6.62
665.172	5.62
665.204	2.62
665.236	17.62
665.268	17.62
665.3	-9.38
665.331	-6.38
665.363	6.62
665.395	11.62
665.427	6.62
665.459	1.62
665.491	-14.38
665.523	17.62
665.555	15.62
665.586	6.62
665.618	1.62
665.65	14.62
665.682	20.62
665.714	23.62
665.746	0.62
665.777	18.62
665.809	-0.38
665.841	11.62
665.873	-17.38
665.905	0.62
665.937	12.62
665.968	10.62
666	6.62
666.032	10.62
666.064	13.62
666.096	8.62
666.127	16.62
666.159	22.62
666.191	8.62
666.223	4.62
666.255	10.62
666.286	8.62
666.318	8.62
666.35	10.62
666.382	18.62
666.413	5.62
666.445	-9.38
666.477	-8.38
666.509	-8.38
666.54	14.62
666.572	7.62
666.604	-3.38
666.636	-4.38
666.667	35.62
666.699	12.62
666.731	8.62
666.763	7.62
666.794	0.62
666.826	15.62
666.858	-11.38
666.89	19.62
666.921	0.62
666.953	2.62
666.985	27.62
667.017	32.62
667.048	0.62
667.08	6.62
667.112	-8.38
667.143	-5.38
667.175	7.62
667.207	24.62
667.238	14.62
667.27	7.62
667.302	20.62
667.334	3.62
667.365	13.62
667.397	19.62
667.429	0.62
667.46	19.62
667.492	31.62
667.524	13.62
667.555	-1.38
667.587	15.62
667.619	1.62
667.65	-2.38
667.682	12.62
667.714	18.62
667.745	7.62
667.777	15.62
667.808	21.62
667.84	13.62
667.872	1.62
667.903	27.62
667.935	7.62
667.967	1.62
667.998	11.62
668.03	1.62
668.061	2.62
668.093	0.62
668.125	14.62
668.156	-3.38
668.188	13.62
668.22	3.62
668.251	4.62
668.283	13.62
668.314	14.62
668.346	-18.38
668.377	0.62
668.409	-12.38
668.441	8.62
668.472	11.62
668.504	13.62
668.535	13.62
668.567	20.62
668.599	3.62
668.63	2.62
668.662	1.62
668.693	15.62
668.725	9.62
668.756	14.62
668.788	1.62
668.819	4.62
668.851	18.62
668.882	6.62
668.914	8.62
668.946	5.62
668.977	-10.38
669.009	3.62
669.04	-19.38
669.072	-4.38
669.103	-4.38
669.135	9.62
669.166	1.62
669.198	21.62
669.229	19.62
669.261	3.62
669.292	1.62
669.324	12.62
669.355	24.62
669.387	-2.38
669.418	18.62
669.45	1.62
669.481	9.62
669.513	26.62
669.544	23.62
669.576	-0.38
669.607	25.62
669.639	17.62
669.67	6.62
669.701	0.62
669.733	-2.38
669.764	7.62
669.796	-1.38
669.827	6.62
669.859	-4.38
669.89	27.62
669.922	11.62
669.953	17.62
669.985	7.62
670.016	10.62
670.047	5.62
670.079	-4.38
670.11	1.62
670.142	11.62
670.173	-8.38
670.204	7.62
670.236	3.62
670.267	1.62
670.299	18.62
670.33	16.62
670.362	10.62
670.393	-13.38
670.424	0.62
670.456	-16.38
670.487	6.62
670.518	12.62
670.55	19.62
670.581	8.62
670.613	13.62
670.644	13.62
670.675	11.62
670.707	-7.38
670.738	13.62
670.769	0.62
670.801	-5.38
670.832	13.62
670.864	-11.38
670.895	10.62
670.926	9.62
670.958	4.62
670.989	4.62
671.02	2.62
671.052	-9.38
671.083	6.62
671.114	0.62
671.146	21.62
671.177	28.62
671.208	16.62
671.24	6.62
671.271	-15.38
671.302	10.62
671.333	-15.38
671.365	-4.38
671.396	-1.38
671.427	15.62
671.459	15.62
671.49	11.62
671.521	-7.38
671.553	6.62
671.584	32.62
671.615	21.62
671.646	9.62
671.678	2.62
671.709	-9.38
671.74	1.62
671.771	-0.38
671.803	-6.38
671.834	20.62
671.865	12.62
671.896	17.62
671.928	9.62
671.959	-2.38
671.99	4.62
672.021	4.62
672.053	15.62
672.084	16.62
672.115	8.62
672.146	18.62
672.178	5.62
672.209	13.62
672.24	24.62
672.271	16.62
672.303	25.62
672.334	6.62
672.365	11.62
672.396	18.62
672.427	5.62
672.459	-1.38
672.49	23.62
672.521	24.62
672.552	24.62
672.583	13.62
672.615	19.62
672.646	25.62
672.677	12.62
672.708	-5.38
672.739	6.62
672.77	21.62
672.802	9.62
672.833	0.62
672.864	-4.38
672.895	9.62
672.926	14.62
672.957	2.62
672.989	13.62
673.02	17.62
673.051	5.62
673.082	24.62
673.113	14.62
673.144	6.62
673.175	1.62
673.206	-3.38
673.238	12.62
673.269	3.62
673.3	-4.38
673.331	22.62
673.362	7.62
673.393	0.62
673.424	11.62
673.455	19.62
673.487	9.62
673.518	12.62
673.549	9.62
673.58	-1.38
673.611	1.62
673.642	-2.38
673.673	-5.38
673.704	-1.38
673.735	3.62
673.766	4.62
673.797	-10.38
673.828	7.62
673.86	-21.38
673.891	-0.38
673.922	-5.38
673.953	-5.38
673.984	0.62
674.015	16.62
674.046	24.62
674.077	6.62
674.108	4.62
674.139	4.62
674.17	-0.38
674.201	-1.38
674.232	11.62
674.263	5.62
674.294	0.62
674.325	0.62
674.356	6.62
674.387	21.62
674.418	19.62
674.449	11.62
674.48	4.62
674.511	7.62
674.542	18.62
674.573	-10.38
674.604	14.62
674.635	20.62
674.666	6.62
674.697	2.62
674.728	3.62
674.759	-1.38
674.79	-1.38
674.821	4.62
674.852	15.62
674.883	-4.38
674.914	7.62
674.945	7.62
674.976	3.62
675.007	-5.38
675.038	6.62
675.069	-3.38
675.1	1.62
675.131	11.62
675.162	-1.38
675.193	-1.38
675.224	-1.38
675.254	14.62
675.285	10.62
675.316	10.62
675.347	2.62
675.378	-0.38
675.409	-12.38
675.44	7.62
675.471	14.62
675.502	-1.38
675.533	-9.38
675.564	3.62
675.595	0.62
675.625	29.62
675.656	13.62
675.687	18.62
675.718	-1.38
675.749	14.62
675.78	13.62
675.811	6.62
675.842	15.62
675.873	3.62
675.903	4.62
675.934	-1.38
675.965	-5.38
675.996	15.62
676.027	19.62
676.058	12.62
676.089	-1.38
676.119	10.62
676.15	7.62
676.181	12.62
676.212	22.62
676.243	11.62
676.274	-1.38
676.304	1.62
676.335	7.62
676.366	11.62
676.397	6.62
676.428	7.62
676.459	0.62
676.489	9.62
676.52	11.62
676.551	-13.38
676.582	0.62
676.613	-3.38
676.643	5.62
676.674	26.62
676.705	8.62
676.736	16.62
676.767	17.62
676.797	17.62
676.828	4.62
676.859	-5.38
676.89	-3.38
676.92	-3.38
676.951	-4.38
676.982	9.62
677.013	1.62
677.044	29.62
677.074	17.62
677.105	-7.38
677.136	13.62
677.167	14.62
677.197	13.62
677.228	11.62
677.259	17.62
677.289	5.62
677.32	-0.38
677.351	2.62
677.382	-0.38
677.412	-6.38
677.443	14.62
677.474	-1.38
677.505	7.62
677.535	12.62
677.566	2.62
677.597	-4.38
677.627	5.62
677.658	7.62
677.689	4.62
677.72	6.62
677.75	13.62
677.781	-3.38
677.812	5.62
677.842	13.62
677.873	10.62
677.904	6.62
677.934	3.62
677.965	-0.38
677.996	-12.38
678.026	-2.38
678.057	18.62
678.088	1.62
678.118	1.62
678.149	9.62
678.18	10.62
678.21	8.62
678.241	3.62
678.272	11.62
678.302	14.62
678.333	2.62
678.363	22.62
678.394	5.62
678.425	5.62
678.455	-11.38
678.486	8.62
678.517	12.62
678.547	-4.38
678.578	3.62
678.608	0.62
678.639	20.62
678.67	12.62
678.7	-1.38
678.731	1.62
678.761	10.62
678.792	3.62
678.823	4.62
678.853	10.62
678.884	2.62
678.914	22.62
678.945	11.62
678.975	-3.38
679.006	18.62
679.037	14.62
679.067	19.62
679.098	-4.38
679.128	-5.38
679.159	21.62
679.189	29.62
679.22	-0.38
679.25	24.62
679.281	-9.38
679.312	3.62
679.342	17.62
679.373	36.62
679.403	13.62
679.434	14.62
679.464	10.62
679.495	6.62
679.525	7.62
679.556	4.62
679.586	7.62
679.617	7.62
679.647	-6.38
679.678	-0.38
679.708	9.62
679.739	6.62
679.769	-12.38
679.8	-8.38
679.83	12.62
679.861	13.62
679.891	4.62
679.922	-19.38
679.952	12.62
679.983	14.62
680.013	19.62
680.044	-0.38
680.074	7.62
680.105	19.62
680.135	15.62
680.165	29.62
680.196	9.62
680.226	18.62
680.257	11.62
680.287	15.62
680.318	16.62
680.348	3.62
680.379	4.62
680.409	9.62
680.439	-9.38
680.47	-5.38
680.5	1.62
680.531	21.62
680.561	16.62
680.592	10.62
680.622	28.62
680.652	14.62
680.683	13.62
680.713	6.62
680.744	-6.38
680.774	1.62
680.804	23.62
680.835	-1.38
680.865	-2.38
680.896	18.62
680.926	25.62
680.956	1.62
680.987	1.62
681.017	9.62
681.047	-0.38
681.078	-3.38
681.108	23.62
681.139	5.62
681.169	-0.38
681.199	-4.38
681.23	8.62
681.26	9.62
681.29	6.62
681.321	11.62
681.351	1.62
681.381	-2.38
681.412	4.62
681.442	12.62
681.472	30.62
681.503	3.62
681.533	14.62
681.563	1.62
681.594	7.62
681.624	10.62
681.654	-2.38
681.685	13.62
681.715	21.62
681.745	15.62
681.775	5.62
681.806	7.62
681.836	5.62
681.866	9.62
681.897	3.62
681.927	-5.38
681.957	-17.38
681.987	12.62
682.018	8.62
682.048	-0.38
682.078	16.62
682.109	31.62
682.139	14.62
682.169	9.62
682.199	8.62
682.23	5.62
682.26	15.62
682.29	9.62
682.32	7.62
682.351	11.62
682.381	11.62
682.411	9.62
682.441	4.62
682.472	12.62
682.502	-15.38
682.532	-8.38
682.562	0.62
682.592	14.62
682.623	5.62
682.653	5.62
682.683	-5.38
682.713	6.62
682.743	6.62
682.774	6.62
682.804	5.62
682.834	11.62
682.864	-0.38
682.894	3.62
682.925	-0.38
682.955	13.62
682.985	-2.38
683.015	6.62
683.045	19.62
683.076	-9.38
683.106	13.62
683.136	10.62
683.166	-1.38
683.196	3.62
683.226	-3.38
683.257	2.62
683.287	18.62
683.317	-3.38
683.347	2.62
683.377	-1.38
683.407	2.62
683.437	-0.38
683.468	17.62
683.498	-2.38
683.528	13.62
683.558	11.62
683.588	0.62
683.618	-6.38
683.648	2.62
683.678	18.62
683.708	6.62
683.739	10.62
683.769	11.62
683.799	7.62
683.829	19.62
683.859	8.62
683.889	22.62
683.919	-1.38
683.949	10.62
683.979	-2.38
684.009	6.62
684.039	-0.38
684.07	1.62
684.1	23.62
684.13	16.62
684.16	11.62
684.19	6.62
684.22	-5.38
684.25	1.62
684.28	-0.38
684.31	14.62
684.34	9.62
684.37	28.62
684.4	1.62
684.43	14.62
684.46	13.62
684.49	19.62
684.52	23.62
684.55	6.62
684.58	10.62
684.61	6.62
684.64	15.62
684.67	22.62
684.7	10.62
684.73	9.62
684.76	6.62
684.79	30.62
684.82	10.62
684.85	-5.38
684.88	13.62
684.91	0.62
684.94	8.62
684.97	6.62
685	13.62
685.03	4.62
685.06	2.62
685.09	-5.38
685.12	10.62
685.15	-10.38
685.18	18.62
685.21	9.62
685.24	2.62
685.27	21.62
685.3	11.62
685.33	24.62
685.36	16.62
685.39	18.62
685.42	-1.38
685.45	10.62
685.48	8.62
685.51	9.62
685.54	16.62
685.569	20.62
685.599	16.62
685.629	16.62
685.659	13.62
685.689	15.62
685.719	14.62
685.749	8.62
685.779	14.62
685.809	14.62
685.839	16.62
685.869	2.62
685.898	18.62
685.928	17.62
685.958	-2.38
685.988	11.62
686.018	8.62
686.048	16.62
686.078	22.62
686.108	17.62
686.137	20.62
686.167	2.62
686.197	1.62
686.227	7.62
686.257	26.62
686.287	34.62
686.317	17.62
686.346	5.62
686.376	2.62
686.406	-5.38
686.436	11.62
686.466	5.62
686.496	6.62
686.525	17.62
686.555	-2.38
686.585	15.62
686.615	22.62
686.645	18.62
686.675	6.62
686.704	11.62
686.734	2.62
686.764	9.62
686.794	-8.38
686.824	-15.38
686.853	11.62
686.883	27.62
686.913	11.62
686.943	3.62
686.973	9.62
687.002	13.62
687.032	17.62
687.062	6.62
687.092	20.62
687.121	8.62
687.151	3.62
687.181	9.62
687.211	20.62
687.24	6.62
687.27	-9.38
687.3	18.62
687.33	5.62
687.359	-9.38
687.389	7.62
687.419	6.62
687.449	14.62
687.478	20.62
687.508	17.62
687.538	14.62
687.568	20.62
687.597	7.62
687.627	16.62
687.657	20.62
687.686	14.62
687.716	10.62
687.746	-10.38
687.776	6.62
687.805	14.62
687.835	4.62
687.865	25.62
687.894	22.62
687.924	-5.38
687.954	4.62
687.983	3.62
688.013	21.62
688.043	7.62
688.072	8.62
688.102	1.62
688.132	-1.38
688.161	-3.38
688.191	10.62
688.221	18.62
688.25	-5.38
688.28	9.62
688.31	-7.38
688.339	7.62
688.369	-3.38
688.399	5.62
688.428	-1.38
688.458	3.62
688.488	11.62
688.517	11.62
688.547	0.62
688.576	27.62
688.606	12.62
688.636	1.62
688.665	25.62
688.695	28.62
688.725	20.62
688.754	-0.38
688.784	24.62
688.813	14.62
688.843	9.62
688.873	6.62
688.902	3.62
688.932	-3.38
688.961	3.62
688.991	27.62
689.02	29.62
689.05	4.62
689.08	12.62
689.109	10.62
689.139	16.62
689.168	12.62
689.198	15.62
689.227	-0.38
689.257	10.62
689.287	15.62
689.316	2.62
689.346	-0.38
689.375	-3.38
689.405	8.62
689.434	13.62
689.464	12.62
689.493	-2.38
689.523	-4.38
689.552	-0.38
689.582	9.62
689.611	4.62
689.641	11.62
689.67	6.62
689.7	0.62
689.73	29.62
689.759	4.62
689.789	18.62
689.818	17.62
689.848	14.62
689.877	14.62
689.906	-5.38
689.936	18.62
689.965	3.62
689.995	15.62
690.024	15.62
690.054	16.62
690.083	3.62
690.113	11.62
690.142	13.62
690.172	15.62
690.201	23.62
690.231	12.62
690.26	25.62
690.29	10.62
690.319	9.62
690.348	3.62
690.378	11.62
690.407	11.62
690.437	16.62
690.466	16.62
690.496	-3.38
690.525	-9.38
690.555	1.62
690.584	5.62
690.613	5.62
690.643	14.62
690.672	20.62
690.702	13.62
690.731	2.62
690.76	7.62
690.79	-1.38
690.819	5.62
690.849	5.62
690.878	9.62
690.907	-2.38
690.937	2.62
690.966	-0.38
690.996	3.62
691.025	7.62
691.054	12.62
691.084	3.62
691.113	1.62
691.142	27.62
691.172	14.62
691.201	10.62
691.23	0.62
691.26	12.62
691.289	20.62
691.319	5.62
691.348	3.62
691.377	26.62
691.407	13.62
691.436	12.62
691.465	1.62
691.495	-1.38
691.524	10.62
691.553	-13.38
691.583	14.62
691.612	22.62
691.641	15.62
691.67	18.62
691.7	4.62
691.729	-5.38
691.758	1.62
691.788	7.62
691.817	-0.38
691.846	7.62
691.876	5.62
691.905	22.62
691.934	6.62
691.963	16.62
691.993	6.62
692.022	0.62
692.051	-22.38
692.081	8.62
692.11	23.62
692.139	15.62
692.168	3.62
692.198	30.62
692.227	11.62
692.256	17.62
692.285	18.62
692.315	25.62
692.344	11.62
692.373	14.62
692.402	-13.38
692.432	-3.38
692.461	7.62
692.49	3.62
692.519	5.62
692.548	17.62
692.578	18.62
692.607	-9.38
692.636	-2.38
692.665	13.62
692.694	-0.38
692.724	20.62
692.753	7.62
692.782	-0.38
692.811	3.62
692.84	5.62
692.87	6.62
692.899	-7.38
692.928	3.62
692.957	18.62
692.986	18.62
693.016	13.62
693.045	22.62
693.074	17.62
693.103	11.62
693.132	25.62
693.161	13.62
693.191	-0.38
693.22	13.62
693.249	13.62
693.278	17.62
693.307	19.62
693.336	-2.38
693.365	-3.38
693.395	16.62
693.424	10.62
693.453	26.62
693.482	3.62
693.511	14.62
693.54	16.62
693.569	16.62
693.598	5.62
693.628	28.62
693.657	16.62
693.686	26.62
693.715	17.62
693.744	6.62
693.773	29.62
693.802	30.62
693.831	5.62
693.86	21.62
693.889	-3.38
693.919	10.62
693.948	19.62
693.977	1.62
694.006	16.62
694.035	18.62
694.064	9.62
694.093	19.62
694.122	12.62
694.151	14.62
694.18	16.62
694.209	23.62
694.238	13.62
694.267	38.62
694.296	17.62
694.325	11.62
694.354	21.62
694.383	5.62
694.412	2.62
694.441	2.62
694.471	2.62
694.5	-9.38
694.529	15.62
694.558	26.62
694.587	11.62
694.616	2.62
694.645	0.62
694.674	19.62
694.703	23.62
694.732	10.62
694.761	13.62
694.79	17.62
694.819	6.62
694.848	2.62
694.877	32.62
694.906	24.62
694.935	14.62
694.963	38.62
694.992	11.62
695.021	8.62
695.05	22.62
695.079	7.62
695.108	20.62
695.137	41.62
695.166	15.62
695.195	-6.38
695.224	19.62
695.253	12.62
695.282	2.62
695.311	14.62
695.34	13.62
695.369	8.62
695.398	18.62
695.427	28.62
695.456	14.62
695.485	11.62
695.513	19.62
695.542	24.62
695.571	17.62
695.6	34.62
695.629	6.62
695.658	14.62
695.687	5.62
695.716	10.62
695.745	23.62
695.774	-14.38
695.802	1.62
695.831	16.62
695.86	24.62
695.889	20.62
695.918	-5.38
695.947	7.62
695.976	13.62
696.005	11.62
696.033	-0.38
696.062	22.62
696.091	5.62
696.12	5.62
696.149	22.62
696.178	8.62
696.207	12.62
696.235	1.62
696.264	11.62
696.293	9.62
696.322	32.62
696.351	25.62
696.38	0.62
696.408	16.62
696.437	13.62
696.466	9.62
696.495	29.62
696.524	28.62
696.553	20.62
696.581	19.62
696.61	8.62
696.639	10.62
696.668	17.62
696.697	11.62
696.725	-0.38
696.754	9.62
696.783	4.62
696.812	14.62
696.84	19.62
696.869	25.62
696.898	6.62
696.927	18.62
696.956	26.62
696.984	-10.38
697.013	6.62
697.042	11.62
697.071	14.62
697.099	7.62
697.128	17.62
697.157	11.62
697.186	-1.38
697.214	9.62
697.243	5.62
697.272	12.62
697.301	16.62
697.329	13.62
697.358	9.62
697.387	30.62
697.415	18.62
697.444	21.62
697.473	6.62
697.502	8.62
697.53	12.62
697.559	16.62
697.588	13.62
697.616	2.62
697.645	1.62
697.674	21.62
697.703	-2.38
697.731	21.62
697.76	14.62
697.789	2.62
697.817	5.62
697.846	23.62
697.875	14.62
697.903	17.62
697.932	25.62
697.961	5.62
697.989	26.62
698.018	10.62
698.047	20.62
698.075	17.62
698.104	1.62
698.133	0.62
698.161	-1.38
698.19	5.62
698.218	7.62
698.247	22.62
698.276	6.62
698.304	11.62
698.333	-2.38
698.362	6.62
698.39	11.62
698.419	9.62
698.447	12.62
698.476	10.62
698.505	21.62
698.533	8.62
698.562	15.62
698.591	10.62
698.619	19.62
698.648	22.62
698.676	18.62
698.705	-8.38
698.733	6.62
698.762	16.62
698.791	8.62
698.819	20.62
698.848	4.62
698.876	26.62
698.905	14.62
698.933	13.62
698.962	3.62
698.991	6.62
699.019	32.62
699.048	14.62
699.076	17.62
699.105	-12.38
699.133	17.62
699.162	14.62
699.19	21.62
699.219	1.62
699.248	11.62
699.276	8.62
699.305	3.62
699.333	11.62
699.362	14.62
699.39	16.62
699.419	-2.38
699.447	9.62
699.476	28.62
699.504	15.62
699.533	19.62
699.561	-1.38
699.59	13.62
699.618	3.62
699.647	20.62
699.675	24.62
699.704	17.62
699.732	5.62
699.761	24.62
699.789	18.62
699.818	27.62
699.846	1.62
699.874	-1.38
699.903	8.62
699.931	2.62
699.96	4.62
699.988	13.62
700.017	13.62
700.045	17.62
700.074	2.62
700.102	9.62
700.13	-3.38
700.159	11.62
700.187	9.62
700.216	-6.38
700.244	-5.38
700.273	9.62
700.301	4.62
700.329	14.62
700.358	15.62
700.386	21.62
700.415	16.62
700.443	0.62
700.472	10.62
700.5	13.62
700.528	10.62
700.557	-0.38
700.585	3.62
700.614	17.62
700.642	38.62
700.67	22.62
700.699	17.62
700.727	21.62
700.755	15.62
700.784	15.62
700.812	2.62
700.841	10.62
700.869	16.62
700.897	-2.38
700.926	-8.38
700.954	16.62
700.982	21.62
701.011	6.62
701.039	24.62
701.067	17.62
701.096	-1.38
701.124	9.62
701.152	19.62
701.181	-0.38
701.209	-4.38
701.237	2.62
701.266	3.62
701.294	-0.38
701.322	15.62
701.351	6.62
701.379	-5.38
701.407	-0.38
701.435	5.62
701.464	18.62
701.492	25.62
701.52	-9.38
701.549	6.62
701.577	3.62
701.605	5.62
701.634	-9.38
701.662	24.62
701.69	4.62
701.718	-13.38
701.747	7.62
701.775	14.62
701.803	8.62
701.831	22.62
701.86	-20.38
701.888	5.62
701.916	0.62
701.944	16.62
701.973	7.62
702.001	-0.38
702.029	-6.38
702.057	5.62
702.086	-4.38
702.114	2.62
702.142	6.62
702.17	-1.38
702.199	8.62
702.227	4.62
702.255	11.62
702.283	-2.38
702.311	11.62
702.34	6.62
702.368	-6.38
702.396	12.62
702.424	-0.38
702.452	-2.38
702.481	7.62
702.509	5.62
702.537	21.62
702.565	11.62
702.593	0.62
702.621	14.62
702.65	23.62
702.678	15.62
702.706	16.62
702.734	7.62
702.762	13.62
702.79	16.62
702.819	7.62
702.847	13.62
702.875	8.62
702.903	11.62
702.931	-0.38
702.959	7.62
702.988	9.62
703.016	10.62
703.044	6.62
703.072	20.62
703.1	11.62
703.128	-3.38
703.156	16.62
703.184	7.62
703.212	23.62
703.241	10.62
703.269	13.62
703.297	11.62
703.325	0.62
703.353	-3.38
703.381	-0.38
703.409	5.62
703.437	-18.38
703.465	18.62
703.493	4.62
703.522	22.62
703.55	5.62
703.578	9.62
703.606	4.62
703.634	7.62
703.662	0.62
703.69	8.62
703.718	16.62
703.746	24.62
703.774	12.62
703.802	13.62
703.83	-3.38
703.858	-2.38
703.886	5.62
703.914	4.62
703.942	24.62
703.97	13.62
703.998	9.62
704.027	23.62
704.055	22.62
704.083	19.62
704.111	-4.38
704.139	5.62
704.167	24.62
704.195	-0.38
704.223	3.62
704.251	4.62
704.279	10.62
704.307	4.62
704.335	4.62
704.363	2.62
704.391	-15.38
704.419	-3.38
704.447	-5.38
704.475	11.62
704.503	3.62
704.531	21.62
704.558	-0.38
704.586	16.62
704.614	18.62
704.642	8.62
704.67	10.62
704.698	23.62
704.726	20.62
704.754	10.62
704.782	15.62
704.81	9.62
704.838	38.62
704.866	22.62
704.894	-0.38
704.922	3.62
704.95	3.62
704.978	15.62
705.006	7.62
705.034	20.62
705.061	-8.38
705.089	-0.38
705.117	11.62
705.145	2.62
705.173	14.62
705.201	14.62
705.229	26.62
705.257	9.62
705.285	10.62
705.313	9.62
705.34	6.62
705.368	8.62
705.396	11.62
705.424	11.62
705.452	-12.38
705.48	-5.38
705.508	0.62
705.536	9.62
705.563	0.62
705.591	2.62
705.619	-0.38
705.647	-5.38
705.675	15.62
705.703	10.62
705.731	9.62
705.758	34.62
705.786	14.62
705.814	21.62
705.842	14.62
705.87	10.62
705.898	21.62
705.925	9.62
705.953	1.62
705.981	11.62
706.009	8.62
706.037	22.62
706.065	-5.38
706.092	3.62
706.12	-0.38
706.148	-1.38
706.176	5.62
706.204	15.62
706.231	3.62
706.259	-1.38
706.287	10.62
706.315	16.62
706.342	15.62
706.37	33.62
706.398	5.62
706.426	-6.38
706.454	9.62
706.481	18.62
706.509	-0.38
706.537	5.62
706.565	0.62
706.592	12.62
706.62	19.62
706.648	25.62
706.676	-13.38
706.703	6.62
706.731	-2.38
706.759	10.62
706.787	18.62
706.814	0.62
706.842	10.62
706.87	9.62
706.897	11.62
706.925	3.62
706.953	16.62
706.981	19.62
707.008	25.62
707.036	15.62
707.064	12.62
707.091	5.62
707.119	21.62
707.147	18.62
707.174	10.62
707.202	12.62
707.23	5.62
707.258	14.62
707.285	-5.38
707.313	1.62
707.341	-2.38
707.368	5.62
707.396	0.62
707.424	13.62
707.451	7.62
707.479	9.62
707.507	16.62
707.534	-3.38
707.562	6.62
707.59	-8.38
707.617	-0.38
707.645	18.62
707.672	5.62
707.7	5.62
707.728	16.62
707.755	11.62
707.783	9.62
707.811	19.62
707.838	3.62
707.866	5.62
707.893	-6.38
707.921	5.62
707.949	9.62
707.976	5.62
708.004	3.62
708.031	-12.38
708.059	-8.38
708.087	12.62
708.114	6.62
708.142	6.62
708.169	10.62
708.197	5.62
708.225	13.62
708.252	3.62
708.28	7.62
708.307	-6.38
708.335	0.62
708.362	4.62
708.39	3.62
708.418	2.62
708.445	-5.38
708.473	14.62
708.5	2.62
708.528	10.62
708.555	-2.38
708.583	5.62
708.61	3.62
708.638	17.62
708.665	-6.38
708.693	10.62
708.72	-5.38
708.748	4.62
708.776	3.62
708.803	25.62
708.831	13.62
708.858	22.62
708.886	14.62
708.913	21.62
708.941	-2.38
708.968	18.62
708.996	-9.38
709.023	24.62
709.051	-4.38
709.078	-2.38
709.105	5.62
709.133	6.62
709.16	17.62
709.188	8.62
709.215	-0.38
709.243	5.62
709.27	-2.38
709.298	-1.38
709.325	-10.38
709.353	-5.38
709.38	0.62
709.408	21.62
709.435	1.62
709.462	-1.38
709.49	-1.38
709.517	-6.38
709.545	-3.38
709.572	3.62
709.6	12.62
709.627	-3.38
709.655	-4.38
709.682	6.62
709.709	14.62
709.737	15.62
709.764	-5.38
709.792	10.62
709.819	12.62
709.846	7.62
709.874	1.62
709.901	11.62
709.929	28.62
709.956	5.62
709.983	-3.38
710.011	4.62
710.038	-17.38
710.066	2.62
710.093	17.62
710.12	14.62
710.148	-2.38
710.175	-2.38
710.202	1.62
710.23	17.62
710.257	5.62
710.284	13.62
710.312	-3.38
710.339	5.62
710.366	11.62
710.394	8.62
710.421	1.62
710.448	17.62
710.476	-13.38
710.503	16.62
710.53	23.62
710.558	26.62
710.585	10.62
710.612	9.62
710.64	-1.38
710.667	5.62
710.694	2.62
710.722	-5.38
710.749	0.62
710.776	4.62
710.804	32.62
710.831	17.62
710.858	7.62
710.885	21.62
710.913	5.62
710.94	24.62
710.967	16.62
710.995	12.62
711.022	8.62
711.049	15.62
711.076	-5.38
711.104	-6.38
711.131	-8.38
711.158	13.62
711.185	18.62
711.213	-10.38
711.24	-7.38
711.267	4.62
711.294	6.62
711.322	16.62
711.349	1.62
711.376	8.62
711.403	10.62
711.431	7.62
711.458	-8.38
711.485	-2.38
711.512	27.62
711.54	-5.38
711.567	0.62
711.594	3.62
711.621	5.62
711.648	3.62
711.676	-6.38
711.703	10.62
711.73	-18.38
711.757	6.62
711.784	18.62
711.812	7.62
711.839	12.62
711.866	8.62
711.893	5.62
711.92	7.62
711.947	21.62
711.975	14.62
712.002	-5.38
712.029	23.62
712.056	-2.38
712.083	9.62
712.11	-8.38
712.138	14.62
712.165	22.62
712.192	18.62
712.219	20.62
712.246	4.62
712.273	-5.38
712.3	3.62
712.328	4.62
712.355	8.62
712.382	-0.38
712.409	16.62
712.436	-9.38
712.463	6.62
712.49	12.62
712.517	-3.38
712.544	6.62
712.572	3.62
712.599	7.62
712.626	7.62
712.653	0.62
712.68	-1.38
712.707	15.62
712.734	5.62
712.761	-10.38
712.788	12.62
712.815	5.62
712.842	10.62
712.87	10.62
712.897	6.62
712.924	3.62
712.951	10.62
712.978	20.62
713.005	23.62
713.032	8.62
713.059	6.62
713.086	11.62
713.113	7.62
713.14	3.62
713.167	16.62
713.194	21.62
713.221	11.62
713.248	18.62
713.275	-0.38
713.302	-14.38
713.329	-6.38
713.356	14.62
713.383	15.62
713.41	13.62
713.437	-7.38
713.464	10.62
713.491	15.62
713.518	16.62
713.545	-9.38
713.572	-2.38
713.599	36.62
713.626	11.62
713.653	13.62
713.68	5.62
713.707	17.62
713.734	27.62
713.761	15.62
713.788	6.62
713.815	9.62
713.842	6.62
713.869	2.62
713.896	10.62
713.923	14.62
713.95	10.62
713.977	11.62
714.004	3.62
714.031	3.62
714.058	10.62
714.085	6.62
714.112	2.62
714.139	9.62
714.165	2.62
714.192	6.62
714.219	14.62
714.246	10.62
714.273	8.62
714.3	11.62
714.327	20.62
714.354	26.62
714.381	2.62
714.408	9.62
714.435	-3.38
714.461	15.62
714.488	9.62
714.515	1.62
714.542	13.62
714.569	-1.38
714.596	-1.38
714.623	12.62
714.65	6.62
714.677	12.62
714.703	14.62
714.73	24.62
714.757	22.62
714.784	13.62
714.811	5.62
714.838	14.62
714.865	2.62
714.891	9.62
714.918	14.62
714.945	2.62
714.972	5.62
714.999	22.62
715.026	3.62
715.052	38.62
715.079	14.62
715.106	33.62
715.133	17.62
715.16	4.62
715.187	15.62
715.213	18.62
715.24	3.62
715.267	-5.38
715.294	-2.38
715.321	11.62
715.347	10.62
715.374	-2.38
715.401	-6.38
715.428	4.62
715.455	8.62
715.481	-5.38
715.508	14.62
715.535	1.62
715.562	19.62
715.588	22.62
715.615	1.62
715.642	4.62
715.669	22.62
715.695	8.62
715.722	-3.38
715.749	9.62
715.776	23.62
715.802	0.62
715.829	-9.38
715.856	8.62
715.883	21.62
715.909	-1.38
715.936	10.62
715.963	9.62
715.99	5.62
716.016	5.62
716.043	-1.38
716.07	-1.38
716.096	-0.38
716.123	-2.38
716.15	26.62
716.177	10.62
716.203	10.62
716.23	19.62
716.257	11.62
716.283	13.62
716.31	12.62
716.337	5.62
716.363	0.62
716.39	14.62
716.417	17.62
716.443	2.62
716.47	3.62
716.497	12.62
716.523	13.62
716.55	8.62
716.577	19.62
716.603	12.62
716.63	6.62
716.657	7.62
716.683	3.62
716.71	0.62
716.737	5.62
716.763	12.62
716.79	5.62
716.817	23.62
716.843	12.62
716.87	8.62
716.897	11.62
716.923	25.62
716.95	-1.38
716.976	-9.38
717.003	0.62
717.03	14.62
717.056	25.62
717.083	17.62
717.109	11.62
717.136	7.62
717.163	-2.38
717.189	-4.38
717.216	5.62
717.242	4.62
717.269	9.62
717.296	10.62
717.322	21.62
717.349	22.62
717.375	19.62
717.402	-6.38
717.428	-9.38
717.455	18.62
717.481	-3.38
717.508	4.62
717.535	21.62
717.561	0.62
717.588	9.62
717.614	7.62
717.641	-1.38
717.667	34.62
717.694	14.62
717.72	24.62
717.747	8.62
717.773	0.62
717.8	-1.38
717.826	23.62
717.853	13.62
717.88	20.62
717.906	26.62
717.933	15.62
717.959	17.62
717.986	18.62
718.012	7.62
718.039	36.62
718.065	8.62
718.092	21.62
718.118	12.62
718.144	10.62
718.171	24.62
718.197	18.62
718.224	11.62
718.25	7.62
718.277	6.62
718.303	18.62
718.33	5.62
718.356	-6.38
718.383	3.62
718.409	-0.38
718.436	1.62
718.462	18.62
718.489	15.62
718.515	33.62
718.541	22.62
718.568	21.62
718.594	21.62
718.621	17.62
718.647	23.62
718.674	28.62
718.7	27.62
718.726	6.62
718.753	9.62
718.779	20.62
718.806	11.62
718.832	7.62
718.858	8.62
718.885	-0.38
718.911	15.62
718.938	10.62
718.964	-7.38
718.99	11.62
719.017	16.62
719.043	9.62
719.07	20.62
719.096	-3.38
719.122	15.62
719.149	16.62
719.175	8.62
719.201	1.62
719.228	-5.38
719.254	0.62
719.281	2.62
719.307	2.62
719.333	4.62
719.36	14.62
719.386	10.62
719.412	21.62
719.439	13.62
719.465	16.62
719.491	13.62
719.518	17.62
719.544	9.62
719.57	15.62
719.597	5.62
719.623	4.62
719.649	18.62
719.675	5.62
719.702	23.62
719.728	13.62
719.754	-5.38
719.781	8.62
719.807	0.62
719.833	-3.38
719.86	17.62
719.886	8.62
719.912	22.62
719.938	8.62
719.965	14.62
719.991	17.62
720.017	17.62
720.044	2.62
720.07	11.62
720.096	15.62
720.122	24.62
720.149	17.62
720.175	20.62
720.201	13.62
720.227	14.62
720.254	-7.38
720.28	-2.38
720.306	7.62
720.332	24.62
720.359	11.62
720.385	7.62
720.411	3.62
720.437	10.62
720.463	10.62
720.49	15.62
720.516	20.62
720.542	-1.38
720.568	9.62
720.595	17.62
720.621	8.62
720.647	9.62
720.673	17.62
720.699	12.62
720.725	21.62
720.752	16.62
720.778	25.62
720.804	21.62
720.83	17.62
720.856	-4.38
720.883	-9.38
720.909	8.62
720.935	26.62
720.961	19.62
720.987	15.62
721.013	12.62
721.04	-3.38
721.066	1.62
721.092	0.62
721.118	22.62
721.144	4.62
721.17	13.62
721.196	5.62
721.223	1.62
721.249	17.62
721.275	31.62
721.301	20.62
721.327	13.62
721.353	9.62
721.379	-1.38
721.405	19.62
721.432	28.62
721.458	15.62
721.484	18.62
721.51	-6.38
721.536	7.62
721.562	11.62
721.588	8.62
721.614	8.62
721.64	18.62
721.666	21.62
721.693	2.62
721.719	15.62
721.745	13.62
721.771	6.62
721.797	9.62
721.823	31.62
721.849	10.62
721.875	5.62
721.901	33.62
721.927	13.62
721.953	22.62
721.979	25.62
722.005	8.62
722.031	11.62
722.057	10.62
722.083	21.62
722.109	34.62
722.135	22.62
722.161	24.62
722.187	2.62
722.214	-4.38
722.24	-5.38
722.266	1.62
722.292	6.62
722.318	6.62
722.344	11.62
722.37	16.62
722.396	10.62
722.422	-1.38
722.448	-2.38
722.474	-6.38
722.5	22.62
722.526	7.62
722.552	0.62
722.578	-4.38
722.603	15.62
722.629	6.62
722.655	7.62
722.681	7.62
722.707	18.62
722.733	13.62
722.759	0.62
722.785	15.62
722.811	10.62
722.837	16.62
722.863	8.62
722.889	17.62
722.915	2.62
722.941	7.62
722.967	3.62
722.993	32.62
723.019	24.62
723.045	8.62
723.071	12.62
723.097	7.62
723.122	16.62
723.148	-1.38
723.174	-8.38
723.2	29.62
723.226	2.62
723.252	10.62
723.278	6.62
723.304	5.62
723.33	22.62
723.356	15.62
723.381	-1.38
723.407	11.62
723.433	19.62
723.459	9.62
723.485	13.62
723.511	0.62
723.537	12.62
723.563	-0.38
723.588	5.62
723.614	-0.38
723.64	5.62
723.666	-2.38
723.692	11.62
723.718	-5.38
723.744	5.62
723.769	0.62
723.795	6.62
723.821	20.62
723.847	8.62
723.873	16.62
723.899	14.62
723.924	17.62
723.95	5.62
723.976	-19.38
724.002	17.62
724.028	2.62
724.053	0.62
724.079	11.62
724.105	17.62
724.131	21.62
724.157	13.62
724.182	8.62
724.208	3.62
724.234	6.62
724.26	-1.38
724.286	7.62
724.311	3.62
724.337	-6.38
724.363	5.62
724.389	25.62
724.415	10.62
724.44	32.62
724.466	11.62
724.492	6.62
724.518	8.62
724.543	-2.38
724.569	16.62
724.595	15.62
724.621	-6.38
724.646	-2.38
724.672	-8.38
724.698	6.62
724.723	9.62
724.749	16.62
724.775	29.62
724.801	-0.38
724.826	-3.38
724.852	-5.38
724.878	4.62
724.904	-2.38
724.929	10.62
724.955	-2.38
724.981	2.62
725.006	15.62
725.032	24.62
725.058	15.62
725.083	11.62
725.109	3.62
725.135	-0.38
725.161	-2.38
725.186	4.62
725.212	-6.38
725.238	3.62
725.263	6.62
725.289	-0.38
725.315	10.62
725.34	14.62
725.366	28.62
725.392	10.62
725.417	5.62
725.443	22.62
725.468	33.62
725.494	27.62
725.52	13.62
725.545	10.62
725.571	-0.38
725.597	4.62
725.622	16.62
725.648	5.62
725.674	21.62
725.699	14.62
725.725	8.62
725.75	39.62
725.776	13.62
725.802	14.62
725.827	6.62
725.853	15.62
725.878	10.62
725.904	6.62
725.93	6.62
725.955	2.62
725.981	2.62
726.006	21.62
726.032	26.62
726.057	1.62
726.083	5.62
726.109	11.62
726.134	7.62
726.16	18.62
726.185	5.62
726.211	-1.38
726.236	-0.38
726.262	2.62
726.288	25.62
726.313	19.62
726.339	23.62
726.364	13.62
726.39	25.62
726.415	3.62
726.441	14.62
726.466	11.62
726.492	13.62
726.517	17.62
726.543	3.62
726.568	8.62
726.594	16.62
726.619	19.62
726.645	5.62
726.67	2.62
726.696	7.62
726.721	11.62
726.747	-16.38
726.772	-8.38
726.798	16.62
726.823	16.62
726.849	-1.38
726.874	7.62
726.9	17.62
726.925	13.62
726.951	10.62
726.976	10.62
727.002	9.62
727.027	13.62
727.053	17.62
727.078	3.62
727.104	10.62
727.129	4.62
727.155	3.62
727.18	15.62
727.205	7.62
727.231	1.62
727.256	7.62
727.282	2.62
727.307	23.62
727.333	-0.38
727.358	0.62
727.383	2.62
727.409	2.62
727.434	11.62
727.46	1.62
727.485	-0.38
727.511	12.62
727.536	-1.38
727.561	-17.38
727.587	-1.38
727.612	-0.38
727.637	11.62
727.663	1.62
727.688	34.62
727.714	5.62
727.739	1.62
727.764	2.62
727.79	10.62
727.815	-3.38
727.841	13.62
727.866	21.62
727.891	10.62
727.917	6.62
727.942	2.62
727.967	-3.38
727.993	-9.38
728.018	1.62
728.043	-9.38
728.069	4.62
728.094	16.62
728.119	12.62
728.145	33.62
728.17	0.62
728.195	8.62
728.221	17.62
728.246	-0.38
728.271	5.62
728.297	-10.38
728.322	1.62
728.347	-5.38
728.373	10.62
728.398	7.62
728.423	4.62
728.448	11.62
728.474	12.62
728.499	21.62
728.524	9.62
728.55	6.62
728.575	-6.38
728.6	19.62
728.625	10.62
728.651	9.62
728.676	10.62
728.701	1.62
728.727	9.62
728.752	-3.38
728.777	12.62
728.802	16.62
728.828	12.62
728.853	3.62
728.878	5.62
728.903	10.62
728.929	-2.38
728.954	15.62
728.979	21.62
729.004	3.62
729.03	-10.38
729.055	17.62
729.08	13.62
729.105	3.62
729.13	13.62
729.156	11.62
729.181	22.62
729.206	0.62
729.231	-3.38
729.256	14.62
729.282	10.62
729.307	-12.38
729.332	-11.38
729.357	5.62
729.382	-2.38
729.408	17.62
729.433	12.62
729.458	24.62
729.483	12.62
729.508	19.62
729.533	28.62
729.559	14.62
729.584	3.62
729.609	-4.38
729.634	19.62
729.659	-5.38
729.684	6.62
729.71	33.62
729.735	-5.38
729.76	18.62
729.785	8.62
729.81	30.62
729.835	11.62
729.86	-2.38
729.886	17.62
729.911	12.62
729.936	7.62
729.961	-0.38
729.986	-12.38
730.011	10.62
730.036	6.62
730.061	6.62
730.086	6.62
730.112	8.62
730.137	24.62
730.162	13.62
730.187	-10.38
730.212	21.62
730.237	12.62
730.262	-0.38
730.287	4.62
730.312	13.62
730.337	14.62
730.362	38.62
730.387	7.62
730.413	-21.38
730.438	8.62
730.463	13.62
730.488	-14.38
730.513	-2.38
730.538	-1.38
730.563	21.62
730.588	13.62
730.613	14.62
730.638	5.62
730.663	13.62
730.688	23.62
730.713	10.62
730.738	13.62
730.763	14.62
730.788	5.62
730.813	11.62
730.838	9.62
730.863	8.62
730.888	1.62
730.913	-5.38
730.938	-2.38
730.963	6.62
730.988	21.62
731.013	30.62
731.038	0.62
731.063	0.62
731.088	15.62
731.113	7.62
731.138	6.62
731.163	20.62
731.188	1.62
731.213	23.62
731.238	30.62
731.263	8.62
731.288	9.62
731.313	17.62
731.338	9.62
731.363	6.62
731.388	25.62
731.413	21.62
731.438	29.62
731.463	14.62
731.487	18.62
731.512	-0.38
731.537	-0.38
731.562	-3.38
731.587	6.62
731.612	-6.38
731.637	-9.38
731.662	4.62
731.687	-12.38
731.712	-31.38
731.737	11.62
731.762	9.62
731.786	19.62
731.811	4.62
731.836	20.62
731.861	11.62
731.886	7.62
731.911	14.62
731.936	22.62
731.961	9.62
731.986	-0.38
732.01	14.62
732.035	19.62
732.06	30.62
732.085	11.62
732.11	2.62
732.135	-0.38
732.16	2.62
732.184	4.62
732.209	8.62
732.234	26.62
732.259	10.62
732.284	29.62
732.309	-5.38
732.334	5.62
732.358	0.62
732.383	-1.38
732.408	8.62
732.433	1.62
732.458	10.62
732.482	4.62
732.507	-4.38
732.532	9.62
732.557	15.62
732.582	18.62
732.607	6.62
732.631	3.62
732.656	4.62
732.681	0.62
732.706	8.62
732.73	5.62
732.755	4.62
732.78	10.62
732.805	1.62
732.83	3.62
732.854	3.62
732.879	14.62
732.904	2.62
732.929	2.62
732.953	9.62
732.978	15.62
733.003	1.62
733.028	9.62
733.052	8.62
733.077	15.62
733.102	22.62
733.127	13.62
733.151	14.62
733.176	13.62
733.201	7.62
733.226	-0.38
733.25	12.62
733.275	7.62
733.3	9.62
733.324	23.62
733.349	18.62
733.374	25.62
733.399	2.62
733.423	4.62
733.448	10.62
733.473	9.62
733.497	9.62
733.522	6.62
733.547	21.62
733.571	33.62
733.596	22.62
733.621	16.62
733.646	-4.38
733.67	2.62
733.695	6.62
733.72	23.62
733.744	22.62
733.769	21.62
733.794	29.62
733.818	16.62
733.843	3.62
733.867	-9.38
733.892	0.62
733.917	12.62
733.941	5.62
733.966	9.62
733.991	20.62
734.015	17.62
734.04	9.62
734.065	19.62
734.089	29.62
734.114	-1.38
734.138	3.62
734.163	11.62
734.188	17.62
734.212	26.62
734.237	16.62
734.261	18.62
734.286	-3.38
734.311	5.62
734.335	10.62
734.36	11.62
734.384	5.62
734.409	8.62
734.434	-6.38
734.458	2.62
734.483	-2.38
734.507	-6.38
734.532	7.62
734.556	7.62
734.581	6.62
734.606	7.62
734.63	17.62
734.655	18.62
734.679	6.62
734.704	7.62
734.728	0.62
734.753	-0.38
734.777	27.62
734.802	-2.38
734.826	6.62
734.851	9.62
734.876	13.62
734.9	17.62
734.925	15.62
734.949	6.62
734.974	17.62
734.998	18.62
735.023	6.62
735.047	-5.38
735.072	8.62
735.096	6.62
735.121	14.62
735.145	23.62
735.17	-10.38
735.194	4.62
735.219	2.62
735.243	7.62
735.268	10.62
735.292	21.62
735.317	1.62
735.341	4.62
735.365	-4.38
735.39	3.62
735.414	10.62
735.439	2.62
735.463	10.62
735.488	6.62
735.512	1.62
735.537	5.62
735.561	11.62
735.586	-5.38
735.61	14.62
735.634	0.62
735.659	1.62
735.683	27.62
735.708	5.62
735.732	22.62
735.757	1.62
735.781	14.62
735.805	26.62
735.83	8.62
735.854	7.62
735.879	13.62
735.903	25.62
735.927	17.62
735.952	12.62
735.976	1.62
736.001	10.62
736.025	14.62
736.049	5.62
736.074	3.62
736.098	31.62
736.123	8.62
736.147	7.62
736.171	9.62
736.196	12.62
736.22	-4.38
736.244	13.62
736.269	10.62
736.293	6.62
736.317	13.62
736.342	4.62
736.366	25.62
736.39	17.62
736.415	5.62
736.439	6.62
736.463	34.62
736.488	19.62
736.512	8.62
736.536	15.62
736.561	22.62
736.585	-4.38
736.609	8.62
736.634	1.62
736.658	10.62
736.682	0.62
736.707	-0.38
736.731	2.62
736.755	1.62
736.78	15.62
736.804	20.62
736.828	16.62
736.852	2.62
736.877	7.62
736.901	10.62
736.925	15.62
736.949	10.62
736.974	9.62
736.998	-12.38
737.022	4.62
737.047	-2.38
737.071	4.62
737.095	30.62
737.119	29.62
737.144	17.62
737.168	11.62
737.192	8.62
737.216	19.62
737.241	11.62
737.265	17.62
737.289	12.62
737.313	8.62
737.337	23.62
737.362	18.62
737.386	15.62
737.41	13.62
737.434	30.62
737.459	9.62
737.483	27.62
737.507	32.62
737.531	18.62
737.555	12.62
737.58	7.62
737.604	4.62
737.628	1.62
737.652	9.62
737.676	12.62
737.701	15.62
737.725	16.62
737.749	18.62
737.773	9.62
737.797	10.62
737.821	20.62
737.846	13.62
737.87	21.62
737.894	2.62
737.918	10.62
737.942	12.62
737.966	6.62
737.99	25.62
738.015	13.62
738.039	-2.38
738.063	4.62
738.087	20.62
738.111	-1.38
738.135	20.62
738.159	2.62
738.184	9.62
738.208	22.62
738.232	17.62
738.256	14.62
738.28	21.62
738.304	34.62
738.328	2.62
738.352	6.62
738.376	3.62
738.4	-0.38
738.425	13.62
738.449	-6.38
738.473	8.62
738.497	14.62
738.521	10.62
738.545	20.62
738.569	13.62
738.593	18.62
738.617	24.62
738.641	9.62
738.665	13.62
738.689	14.62
738.713	3.62
738.737	10.62
738.762	28.62
738.786	7.62
738.81	-0.38
738.834	15.62
738.858	-0.38
738.882	14.62
738.906	-7.38
738.93	5.62
738.954	-0.38
738.978	-0.38
739.002	3.62
739.026	14.62
739.05	11.62
739.074	10.62
739.098	33.62
739.122	25.62
739.146	11.62
739.17	29.62
739.194	12.62
739.218	6.62
739.242	11.62
739.266	1.62
739.29	7.62
739.314	11.62
739.338	20.62
739.362	15.62
739.386	9.62
739.41	3.62
739.434	9.62
739.458	21.62
739.482	17.62
739.506	25.62
739.53	11.62
739.554	19.62
739.577	9.62
739.601	30.62
739.625	7.62
739.649	5.62
739.673	-0.38
739.697	7.62
739.721	-1.38
739.745	17.62
739.769	8.62
739.793	6.62
739.817	25.62
739.841	-1.38
739.865	7.62
739.889	-5.38
739.912	2.62
739.936	-4.38
739.96	17.62
739.984	11.62
740.008	0.62
740.032	3.62
740.056	15.62
740.08	13.62
740.104	7.62
740.127	18.62
740.151	15.62
740.175	21.62
740.199	16.62
740.223	57.62
740.247	18.62
740.271	10.62
740.295	4.62
740.318	5.62
740.342	2.62
740.366	22.62
740.39	4.62
740.414	12.62
740.438	3.62
740.461	19.62
740.485	16.62
740.509	1.62
740.533	5.62
740.557	-4.38
740.581	2.62
740.604	-11.38
740.628	2.62
740.652	10.62
740.676	6.62
740.7	17.62
740.723	-7.38
740.747	11.62
740.771	2.62
740.795	-3.38
740.819	2.62
740.842	-2.38
740.866	1.62
740.89	21.62
740.914	-5.38
740.938	-13.38
740.961	16.62
740.985	16.62
741.009	12.62
741.033	14.62
741.056	13.62
741.08	22.62
741.104	13.62
741.128	19.62
741.151	13.62
741.175	15.62
741.199	6.62
741.223	13.62
741.246	-6.38
741.27	12.62
741.294	22.62
741.318	9.62
741.341	7.62
741.365	10.62
741.389	8.62
741.413	10.62
741.436	19.62
741.46	17.62
741.484	14.62
741.507	-1.38
741.531	31.62
741.555	27.62
741.579	27.62
741.602	17.62
741.626	10.62
741.65	1.62
741.673	1.62
741.697	10.62
741.721	19.62
741.744	-12.38
741.768	-1.38
741.792	15.62
741.815	6.62
741.839	24.62
741.863	22.62
741.886	21.62
741.91	32.62
741.934	1.62
741.957	-11.38
741.981	17.62
742.005	13.62
742.028	-6.38
742.052	-5.38
742.075	15.62
742.099	22.62
742.123	-3.38
742.146	13.62
742.17	36.62
742.194	8.62
742.217	6.62
742.241	5.62
742.264	3.62
742.288	12.62
742.312	21.62
742.335	-1.38
742.359	2.62
742.382	14.62
742.406	13.62
742.43	12.62
742.453	10.62
742.477	9.62
742.5	19.62
742.524	9.62
742.548	8.62
742.571	9.62
742.595	5.62
742.618	9.62
742.642	11.62
742.665	17.62
742.689	7.62
742.712	23.62
742.736	1.62
742.76	16.62
742.783	7.62
742.807	18.62
742.83	20.62
742.854	3.62
742.877	2.62
742.901	6.62
742.924	4.62
742.948	23.62
742.971	15.62
742.995	14.62
743.018	-8.38
743.042	5.62
743.065	14.62
743.089	0.62
743.112	20.62
743.136	-2.38
743.159	9.62
743.183	9.62
743.206	19.62
743.23	10.62
743.253	6.62
743.277	9.62
743.3	6.62
743.324	10.62
743.347	6.62
743.371	27.62
743.394	5.62
743.418	29.62
743.441	10.62
743.465	6.62
743.488	5.62
743.512	-2.38
743.535	-7.38
743.558	21.62
743.582	23.62
743.605	11.62
743.629	21.62
743.652	17.62
743.676	9.62
743.699	19.62
743.723	3.62
743.746	-0.38
743.769	10.62
743.793	20.62
743.816	2.62
743.84	13.62
743.863	10.62
743.886	6.62
743.91	6.62
743.933	8.62
743.957	4.62
743.98	2.62
744.003	5.62
744.027	20.62
744.05	1.62
744.074	18.62
744.097	12.62
744.12	13.62
744.144	-9.38
744.167	23.62
744.19	6.62
744.214	2.62
744.237	-18.38
744.26	12.62
744.284	-11.38
744.307	-3.38
744.331	5.62
744.354	-11.38
744.377	-0.38
744.401	6.62
744.424	7.62
744.447	-12.38
744.471	-9.38
