Data from HighRes_H2D2_15_04_11_07_2024_HR4C61891__13__15-05-35-743.txt Node

Date: Thu Nov 07 15:05:35 EST 2024
User: crc00042
Spectrometer: HR4C6189
Trigger mode: 4
Integration Time (sec): 1.000000E-1
Scans to average: 1
Electric dark correction enabled: true
Nonlinearity correction enabled: false
Boxcar width: 0
XAxis mode: Wavelengths
Number of Pixels in Spectrum: 3648
>>>>>Begin Spectral Data<<<<<
639.567	-96.23
639.602	-96.23
639.636	-96.23
639.67	-56.23
639.704	-20.23
639.738	2.77
639.773	12.77
639.807	-21.23
639.841	8.77
639.875	11.77
639.909	-4.23
639.943	-14.23
639.978	11.77
640.012	-5.23
640.046	6.77
640.08	1.77
640.114	4.77
640.148	-16.23
640.182	-3.23
640.217	3.77
640.251	24.77
640.285	8.77
640.319	-4.23
640.353	-3.23
640.387	-7.23
640.421	-19.23
640.455	-18.23
640.49	-4.23
640.524	-2.23
640.558	-4.23
640.592	-7.23
640.626	0.77
640.66	10.77
640.694	-2.23
640.728	1.77
640.762	17.77
640.796	22.77
640.83	20.77
640.865	1.77
640.899	0.77
640.933	-7.23
640.967	-3.23
641.001	1.77
641.035	-5.23
641.069	3.77
641.103	-3.23
641.137	-11.23
641.171	1.77
641.205	4.77
641.239	5.77
641.273	8.77
641.307	7.77
641.341	13.77
641.375	7.77
641.409	-17.23
641.443	-9.23
641.477	7.77
641.511	15.77
641.545	3.77
641.579	-13.23
641.614	11.77
641.648	-4.23
641.682	-9.23
641.716	6.77
641.75	25.77
641.784	5.77
641.818	13.77
641.852	5.77
641.886	4.77
641.919	22.77
641.953	-7.23
641.987	-7.23
642.021	8.77
642.055	19.77
642.089	8.77
642.123	-24.23
642.157	-5.23
642.191	-5.23
642.225	7.77
642.259	-2.23
642.293	1.77
642.327	-6.23
642.361	-15.23
642.395	15.77
642.429	13.77
642.463	3.77
642.497	5.77
642.531	-14.23
642.565	-14.23
642.599	-6.23
642.633	-2.23
642.666	24.77
642.7	22.77
642.734	32.77
642.768	0.77
642.802	-8.23
642.836	-1.23
642.87	20.77
642.904	10.77
642.938	5.77
642.972	-17.23
643.005	1.77
643.039	16.77
643.073	-7.23
643.107	7.77
643.141	-12.23
643.175	0.77
643.209	-6.23
643.243	-6.23
643.276	-1.23
643.31	-17.23
643.344	-0.23
643.378	-1.23
643.412	5.77
643.446	14.77
643.48	-14.23
643.513	7.77
643.547	-9.23
643.581	-18.23
643.615	3.77
643.649	-12.23
643.683	3.77
643.716	-0.23
643.75	6.77
643.784	-15.23
643.818	0.77
643.852	-3.23
643.886	-8.23
643.919	-4.23
643.953	-17.23
643.987	1.77
644.021	9.77
644.055	2.77
644.088	0.77
644.122	0.77
644.156	-11.23
644.19	-0.23
644.224	13.77
644.257	-4.23
644.291	4.77
644.325	-0.23
644.359	-6.23
644.392	2.77
644.426	13.77
644.46	5.77
644.494	-1.23
644.527	-2.23
644.561	9.77
644.595	-8.23
644.629	-14.23
644.662	-5.23
644.696	12.77
644.73	1.77
644.764	5.77
644.797	-1.23
644.831	1.77
644.865	5.77
644.899	-3.23
644.932	10.77
644.966	-2.23
645	7.77
645.033	27.77
645.067	-13.23
645.101	-9.23
645.135	15.77
645.168	-7.23
645.202	-31.23
645.236	-2.23
645.269	4.77
645.303	-1.23
645.337	3.77
645.37	-1.23
645.404	-6.23
645.438	9.77
645.471	-24.23
645.505	4.77
645.539	-14.23
645.572	-20.23
645.606	-1.23
645.64	-4.23
645.673	-0.23
645.707	13.77
645.741	6.77
645.774	-10.23
645.808	7.77
645.842	-0.23
645.875	6.77
645.909	-6.23
645.943	-5.23
645.976	3.77
646.01	22.77
646.043	13.77
646.077	5.77
646.111	-7.23
646.144	2.77
646.178	6.77
646.212	-15.23
646.245	2.77
646.279	10.77
646.312	10.77
646.346	10.77
646.38	-3.23
646.413	-3.23
646.447	0.77
646.48	11.77
646.514	23.77
646.547	1.77
646.581	-3.23
646.615	-5.23
646.648	-10.23
646.682	8.77
646.715	-7.23
646.749	-0.23
646.782	-9.23
646.816	-19.23
646.85	6.77
646.883	-6.23
646.917	5.77
646.95	-3.23
646.984	0.77
647.017	-9.23
647.051	9.77
647.084	0.77
647.118	-15.23
647.151	-3.23
647.185	2.77
647.218	5.77
647.252	18.77
647.285	-23.23
647.319	-6.23
647.353	11.77
647.386	16.77
647.42	2.77
647.453	-2.23
647.487	5.77
647.52	-1.23
647.553	14.77
647.587	7.77
647.62	-3.23
647.654	6.77
647.687	-4.23
647.721	-4.23
647.754	1.77
647.788	6.77
647.821	-0.23
647.855	4.77
647.888	10.77
647.922	10.77
647.955	5.77
647.989	-1.23
648.022	10.77
648.055	6.77
648.089	-3.23
648.122	16.77
648.156	-2.23
648.189	-2.23
648.223	15.77
648.256	31.77
648.29	11.77
648.323	-1.23
648.356	2.77
648.39	-3.23
648.423	4.77
648.457	8.77
648.49	2.77
648.523	12.77
648.557	-11.23
648.59	-6.23
648.624	1.77
648.657	12.77
648.69	24.77
648.724	-1.23
648.757	11.77
648.791	20.77
648.824	12.77
648.857	8.77
648.891	12.77
648.924	-1.23
648.957	14.77
648.991	-20.23
649.024	5.77
649.057	-0.23
649.091	-8.23
649.124	7.77
649.158	6.77
649.191	22.77
649.224	-5.23
649.258	16.77
649.291	18.77
649.324	28.77
649.358	6.77
649.391	10.77
649.424	8.77
649.458	0.77
649.491	-0.23
649.524	-7.23
649.557	-0.23
649.591	-0.23
649.624	-3.23
649.657	1.77
649.691	-12.23
649.724	3.77
649.757	8.77
649.791	4.77
649.824	21.77
649.857	24.77
649.89	6.77
649.924	-29.23
649.957	-2.23
649.99	-20.23
650.023	-6.23
650.057	0.77
650.09	-8.23
650.123	-10.23
650.157	12.77
650.19	12.77
650.223	-16.23
650.256	-16.23
650.29	-3.23
650.323	-0.23
650.356	9.77
650.389	0.77
650.423	-6.23
650.456	5.77
650.489	-6.23
650.522	7.77
650.555	29.77
650.589	13.77
650.622	14.77
650.655	21.77
650.688	0.77
650.721	-10.23
650.755	0.77
650.788	20.77
650.821	12.77
650.854	9.77
650.887	14.77
650.921	0.77
650.954	-24.23
650.987	4.77
651.02	6.77
651.053	-24.23
651.087	-9.23
651.12	13.77
651.153	11.77
651.186	-6.23
651.219	-8.23
651.252	7.77
651.286	8.77
651.319	8.77
651.352	13.77
651.385	10.77
651.418	-3.23
651.451	14.77
651.484	11.77
651.518	-19.23
651.551	11.77
651.584	0.77
651.617	3.77
651.65	5.77
651.683	10.77
651.716	6.77
651.749	-18.23
651.783	-0.23
651.816	12.77
651.849	13.77
651.882	11.77
651.915	-2.23
651.948	8.77
651.981	-7.23
652.014	-8.23
652.047	-12.23
652.08	-0.23
652.114	8.77
652.147	-15.23
652.18	0.77
652.213	28.77
652.246	-6.23
652.279	-10.23
652.312	15.77
652.345	0.77
652.378	-0.23
652.411	11.77
652.444	18.77
652.477	6.77
652.51	-2.23
652.543	-22.23
652.576	2.77
652.609	-8.23
652.642	9.77
652.675	24.77
652.709	0.77
652.742	16.77
652.775	2.77
652.808	6.77
652.841	-2.23
652.874	-10.23
652.907	18.77
652.94	-1.23
652.973	-4.23
653.006	-0.23
653.039	10.77
653.072	19.77
653.105	7.77
653.138	8.77
653.171	-3.23
653.204	-18.23
653.237	9.77
653.27	3.77
653.303	12.77
653.336	13.77
653.368	-5.23
653.401	8.77
653.434	-11.23
653.467	13.77
653.5	-0.23
653.533	-1.23
653.566	5.77
653.599	11.77
653.632	-5.23
653.665	-4.23
653.698	-11.23
653.731	-12.23
653.764	8.77
653.797	3.77
653.83	12.77
653.863	2.77
653.896	8.77
653.929	4.77
653.961	-8.23
653.994	10.77
654.027	1.77
654.06	0.77
654.093	2.77
654.126	-8.23
654.159	2.77
654.192	7.77
654.225	-0.23
654.258	-20.23
654.29	3.77
654.323	8.77
654.356	-3.23
654.389	2.77
654.422	6.77
654.455	1.77
654.488	13.77
654.521	-12.23
654.553	-7.23
654.586	15.77
654.619	25.77
654.652	3.77
654.685	-6.23
654.718	5.77
654.751	11.77
654.783	8.77
654.816	12.77
654.849	13.77
654.882	-11.23
654.915	-12.23
654.948	-11.23
654.98	-2.23
655.013	8.77
655.046	-5.23
655.079	-3.23
655.112	0.77
655.144	-19.23
655.177	-3.23
655.21	0.77
655.243	14.77
655.276	13.77
655.308	-9.23
655.341	3.77
655.374	16.77
655.407	-12.23
655.44	0.77
655.472	8.77
655.505	13.77
655.538	12.77
655.571	2.77
655.603	6.77
655.636	-0.23
655.669	4.77
655.702	-0.23
655.734	0.77
655.767	4.77
655.8	0.77
655.833	6.77
655.865	24.77
655.898	24.77
655.931	9.77
655.964	20.77
655.996	22.77
656.029	13.77
656.062	23.77
656.095	45.77
656.127	81.77
656.16	224.77
656.193	651.77
656.225	940.77
656.258	552.77
656.291	219.77
656.324	170.77
656.356	370.77
656.389	783.77
656.422	690.77
656.454	249.77
656.487	90.77
656.52	27.77
656.552	15.77
656.585	32.77
656.618	9.77
656.65	8.77
656.683	4.77
656.716	8.77
656.748	-6.23
656.781	-15.23
656.814	-6.23
656.846	-0.23
656.879	7.77
656.912	7.77
656.944	-6.23
656.977	-20.23
657.01	-13.23
657.042	5.77
657.075	15.77
657.108	-7.23
657.14	-2.23
657.173	10.77
657.205	35.77
657.238	20.77
657.271	1.77
657.303	-15.23
657.336	7.77
657.369	2.77
657.401	6.77
657.434	2.77
657.466	14.77
657.499	9.77
657.532	-3.23
657.564	8.77
657.597	3.77
657.629	4.77
657.662	7.77
657.694	9.77
657.727	-10.23
657.76	18.77
657.792	-8.23
657.825	2.77
657.857	-3.23
657.89	8.77
657.922	8.77
657.955	-5.23
657.987	1.77
658.02	8.77
658.053	18.77
658.085	12.77
658.118	9.77
658.15	14.77
658.183	20.77
658.215	2.77
658.248	2.77
658.28	-7.23
658.313	11.77
658.345	11.77
658.378	-2.23
658.41	8.77
658.443	3.77
658.475	2.77
658.508	-8.23
658.54	1.77
658.573	-6.23
658.605	13.77
658.638	-8.23
658.67	-5.23
658.703	-5.23
658.735	1.77
658.768	9.77
658.8	-9.23
658.833	17.77
658.865	21.77
658.898	0.77
658.93	-18.23
658.963	5.77
658.995	-26.23
659.028	7.77
659.06	0.77
659.092	-1.23
659.125	0.77
659.157	0.77
659.19	-5.23
659.222	4.77
659.255	2.77
659.287	3.77
659.32	-9.23
659.352	8.77
659.384	15.77
659.417	-6.23
659.449	-3.23
659.482	0.77
659.514	-9.23
659.546	7.77
659.579	-0.23
659.611	-6.23
659.644	4.77
659.676	-15.23
659.708	-15.23
659.741	-2.23
659.773	17.77
659.806	-4.23
659.838	3.77
659.87	-3.23
659.903	-5.23
659.935	2.77
659.967	3.77
660	3.77
660.032	-11.23
660.065	24.77
660.097	12.77
660.129	10.77
660.162	-21.23
660.194	-16.23
660.226	5.77
660.259	8.77
660.291	4.77
660.323	-0.23
660.356	-7.23
660.388	7.77
660.42	2.77
660.453	8.77
660.485	9.77
660.517	18.77
660.55	30.77
660.582	-1.23
660.614	12.77
660.647	-2.23
660.679	-24.23
660.711	-8.23
660.743	-6.23
660.776	-6.23
660.808	5.77
660.84	0.77
660.873	-4.23
660.905	-14.23
660.937	-9.23
660.969	-8.23
661.002	-14.23
661.034	8.77
661.066	8.77
661.099	0.77
661.131	13.77
661.163	8.77
661.195	-1.23
661.228	13.77
661.26	-7.23
661.292	0.77
661.324	11.77
661.357	14.77
661.389	0.77
661.421	3.77
661.453	-10.23
661.485	-3.23
661.518	-2.23
661.55	-11.23
661.582	-18.23
661.614	-7.23
661.647	-4.23
661.679	7.77
661.711	9.77
661.743	-3.23
661.775	-5.23
661.808	17.77
661.84	-26.23
661.872	4.77
661.904	-0.23
661.936	-5.23
661.969	-22.23
662.001	-14.23
662.033	-4.23
662.065	-17.23
662.097	0.77
662.129	3.77
662.162	-11.23
662.194	-0.23
662.226	-4.23
662.258	-2.23
662.29	-1.23
662.322	-15.23
662.355	-14.23
662.387	1.77
662.419	5.77
662.451	6.77
662.483	7.77
662.515	2.77
662.547	8.77
662.58	-15.23
662.612	-18.23
662.644	-12.23
662.676	2.77
662.708	12.77
662.74	-16.23
662.772	0.77
662.804	6.77
662.836	8.77
662.869	-10.23
662.901	2.77
662.933	8.77
662.965	17.77
662.997	23.77
663.029	1.77
663.061	-7.23
663.093	6.77
663.125	2.77
663.157	3.77
663.189	16.77
663.221	13.77
663.254	3.77
663.286	16.77
663.318	-13.23
663.35	-12.23
663.382	-2.23
663.414	-2.23
663.446	-0.23
663.478	-20.23
663.51	4.77
663.542	0.77
663.574	-15.23
663.606	0.77
663.638	-10.23
663.67	-6.23
663.702	-0.23
663.734	-5.23
663.766	0.77
663.798	-22.23
663.83	-5.23
663.862	-1.23
663.894	4.77
663.926	-12.23
663.958	2.77
663.99	-11.23
664.022	-5.23
664.054	10.77
664.086	-17.23
664.118	-3.23
664.15	-4.23
664.182	1.77
664.214	-8.23
664.246	8.77
664.278	6.77
664.31	16.77
664.342	-6.23
664.374	3.77
664.406	-2.23
664.438	3.77
664.47	19.77
664.502	-2.23
664.534	14.77
664.566	-6.23
664.598	14.77
664.63	-2.23
664.662	4.77
664.693	2.77
664.725	-6.23
664.757	-5.23
664.789	-24.23
664.821	-5.23
664.853	11.77
664.885	-0.23
664.917	-7.23
664.949	9.77
664.981	4.77
665.013	-5.23
665.045	-11.23
665.076	11.77
665.108	-4.23
665.14	-9.23
665.172	5.77
665.204	-6.23
665.236	-6.23
665.268	12.77
665.3	-12.23
665.331	-17.23
665.363	9.77
665.395	-10.23
665.427	-3.23
665.459	3.77
665.491	-5.23
665.523	-10.23
665.555	-6.23
665.586	4.77
665.618	-14.23
665.65	-16.23
665.682	4.77
665.714	7.77
665.746	-12.23
665.777	-1.23
665.809	-3.23
665.841	4.77
665.873	-6.23
665.905	7.77
665.937	11.77
665.968	9.77
666	-2.23
666.032	10.77
666.064	-10.23
666.096	-4.23
666.127	-4.23
666.159	18.77
666.191	10.77
666.223	-17.23
666.255	0.77
666.286	-2.23
666.318	6.77
666.35	14.77
666.382	8.77
666.413	-6.23
666.445	-12.23
666.477	-6.23
666.509	6.77
666.54	9.77
666.572	-3.23
666.604	-6.23
666.636	2.77
666.667	1.77
666.699	17.77
666.731	-9.23
666.763	-0.23
666.794	10.77
666.826	9.77
666.858	-12.23
666.89	4.77
666.921	5.77
666.953	-0.23
666.985	7.77
667.017	32.77
667.048	8.77
667.08	-7.23
667.112	-14.23
667.143	-17.23
667.175	-5.23
667.207	11.77
667.238	5.77
667.27	11.77
667.302	10.77
667.334	-1.23
667.365	4.77
667.397	15.77
667.429	-3.23
667.46	10.77
667.492	-10.23
667.524	14.77
667.555	-1.23
667.587	18.77
667.619	10.77
667.65	-11.23
667.682	6.77
667.714	15.77
667.745	11.77
667.777	9.77
667.808	3.77
667.84	5.77
667.872	-2.23
667.903	5.77
667.935	-18.23
667.967	1.77
667.998	-3.23
668.03	-20.23
668.061	3.77
668.093	-8.23
668.125	5.77
668.156	-2.23
668.188	-7.23
668.22	-5.23
668.251	12.77
668.283	8.77
668.314	11.77
668.346	7.77
668.377	10.77
668.409	-12.23
668.441	10.77
668.472	0.77
668.504	3.77
668.535	0.77
668.567	12.77
668.599	-3.23
668.63	-8.23
668.662	-15.23
668.693	16.77
668.725	0.77
668.756	5.77
668.788	-8.23
668.819	-2.23
668.851	4.77
668.882	6.77
668.914	10.77
668.946	-1.23
668.977	4.77
669.009	0.77
669.04	-22.23
669.072	1.77
669.103	12.77
669.135	14.77
669.166	5.77
669.198	-3.23
669.229	7.77
669.261	-1.23
669.292	9.77
669.324	0.77
669.355	2.77
669.387	-24.23
669.418	-7.23
669.45	5.77
669.481	9.77
669.513	-2.23
669.544	9.77
669.576	-0.23
669.607	5.77
669.639	16.77
669.67	-17.23
669.701	0.77
669.733	-7.23
669.764	-1.23
669.796	-3.23
669.827	-15.23
669.859	14.77
669.89	14.77
669.922	3.77
669.953	10.77
669.985	12.77
670.016	17.77
670.047	0.77
670.079	-7.23
670.11	-10.23
670.142	7.77
670.173	15.77
670.204	-4.23
670.236	4.77
670.267	-5.23
670.299	0.77
670.33	-3.23
670.362	8.77
670.393	-10.23
670.424	4.77
670.456	-5.23
670.487	-9.23
670.518	7.77
670.55	21.77
670.581	15.77
670.613	-1.23
670.644	-8.23
670.675	-28.23
670.707	4.77
670.738	8.77
670.769	-3.23
670.801	-11.23
670.832	14.77
670.864	-15.23
670.895	3.77
670.926	-5.23
670.958	3.77
670.989	-9.23
671.02	-1.23
671.052	6.77
671.083	6.77
671.114	-9.23
671.146	-11.23
671.177	4.77
671.208	0.77
671.24	-14.23
671.271	-1.23
671.302	6.77
671.333	1.77
671.365	-19.23
671.396	-14.23
671.427	3.77
671.459	20.77
671.49	9.77
671.521	-0.23
671.553	10.77
671.584	21.77
671.615	-1.23
671.646	-5.23
671.678	12.77
671.709	3.77
671.74	-9.23
671.771	-12.23
671.803	-19.23
671.834	-4.23
671.865	-7.23
671.896	4.77
671.928	2.77
671.959	-8.23
671.99	-12.23
672.021	1.77
672.053	-1.23
672.084	11.77
672.115	6.77
672.146	-8.23
672.178	-19.23
672.209	-13.23
672.24	-23.23
672.271	24.77
672.303	-9.23
672.334	-9.23
672.365	-1.23
672.396	-4.23
672.427	-6.23
672.459	-7.23
672.49	23.77
672.521	9.77
672.552	5.77
672.583	-5.23
672.615	-4.23
672.646	7.77
672.677	9.77
672.708	-4.23
672.739	-11.23
672.77	9.77
672.802	9.77
672.833	1.77
672.864	-7.23
672.895	-9.23
672.926	1.77
672.957	-9.23
672.989	-2.23
673.02	-10.23
673.051	-10.23
673.082	3.77
673.113	0.77
673.144	1.77
673.175	-3.23
673.206	-4.23
673.238	-1.23
673.269	-5.23
673.3	-6.23
673.331	-1.23
673.362	16.77
673.393	11.77
673.424	5.77
673.455	29.77
673.487	12.77
673.518	12.77
673.549	-7.23
673.58	3.77
673.611	2.77
673.642	14.77
673.673	-9.23
673.704	14.77
673.735	9.77
673.766	-7.23
673.797	-8.23
673.828	6.77
673.86	4.77
673.891	-15.23
673.922	2.77
673.953	-17.23
673.984	2.77
674.015	9.77
674.046	-1.23
674.077	6.77
674.108	-3.23
674.139	-0.23
674.17	5.77
674.201	-12.23
674.232	-1.23
674.263	3.77
674.294	-15.23
674.325	8.77
674.356	5.77
674.387	18.77
674.418	7.77
674.449	14.77
674.48	-6.23
674.511	2.77
674.542	-8.23
674.573	-5.23
674.604	20.77
674.635	16.77
674.666	11.77
674.697	10.77
674.728	6.77
674.759	-5.23
674.79	-2.23
674.821	4.77
674.852	12.77
674.883	-10.23
674.914	-7.23
674.945	1.77
674.976	-6.23
675.007	-7.23
675.038	8.77
675.069	-5.23
675.1	-1.23
675.131	-0.23
675.162	-4.23
675.193	0.77
675.224	-13.23
675.254	1.77
675.285	19.77
675.316	14.77
675.347	-11.23
675.378	-9.23
675.409	-6.23
675.44	-3.23
675.471	2.77
675.502	0.77
675.533	-1.23
675.564	-14.23
675.595	-6.23
675.625	18.77
675.656	14.77
675.687	6.77
675.718	-18.23
675.749	16.77
675.78	8.77
675.811	0.77
675.842	-0.23
675.873	-2.23
675.903	-4.23
675.934	-9.23
675.965	5.77
675.996	-5.23
676.027	6.77
676.058	-4.23
676.089	-1.23
676.119	6.77
676.15	-4.23
676.181	6.77
676.212	-0.23
676.243	12.77
676.274	-22.23
676.304	21.77
676.335	-14.23
676.366	0.77
676.397	-10.23
676.428	-6.23
676.459	-3.23
676.489	7.77
676.52	10.77
676.551	-1.23
676.582	6.77
676.613	-6.23
676.643	-8.23
676.674	21.77
676.705	8.77
676.736	9.77
676.767	10.77
676.797	0.77
676.828	2.77
676.859	-2.23
676.89	-3.23
676.92	-7.23
676.951	9.77
676.982	7.77
677.013	12.77
677.044	-0.23
677.074	14.77
677.105	4.77
677.136	2.77
677.167	-3.23
677.197	5.77
677.228	-9.23
677.259	-8.23
677.289	7.77
677.32	-8.23
677.351	-3.23
677.382	11.77
677.412	-4.23
677.443	-4.23
677.474	7.77
677.505	-3.23
677.535	3.77
677.566	-2.23
677.597	-0.23
677.627	-7.23
677.658	-0.23
677.689	6.77
677.72	4.77
677.75	1.77
677.781	11.77
677.812	9.77
677.842	9.77
677.873	7.77
677.904	-1.23
677.934	8.77
677.965	6.77
677.996	-17.23
678.026	4.77
678.057	3.77
678.088	-21.23
678.118	9.77
678.149	-6.23
678.18	-1.23
678.21	7.77
678.241	4.77
678.272	5.77
678.302	-5.23
678.333	4.77
678.363	-6.23
678.394	2.77
678.425	6.77
678.455	-4.23
678.486	1.77
678.517	-0.23
678.547	-5.23
678.578	6.77
678.608	-13.23
678.639	9.77
678.67	2.77
678.7	-17.23
678.731	-8.23
678.761	0.77
678.792	17.77
678.823	2.77
678.853	5.77
678.884	1.77
678.914	21.77
678.945	20.77
678.975	-9.23
679.006	7.77
679.037	-2.23
679.067	14.77
679.098	3.77
679.128	-2.23
679.159	-2.23
679.189	9.77
679.22	-18.23
679.25	4.77
679.281	-6.23
679.312	-0.23
679.342	-6.23
679.373	26.77
679.403	0.77
679.434	0.77
679.464	-4.23
679.495	-0.23
679.525	3.77
679.556	-1.23
679.586	-7.23
679.617	4.77
679.647	8.77
679.678	3.77
679.708	-11.23
679.739	-8.23
679.769	8.77
679.8	1.77
679.83	2.77
679.861	6.77
679.891	4.77
679.922	-18.23
679.952	-5.23
679.983	16.77
680.013	15.77
680.044	13.77
680.074	21.77
680.105	13.77
680.135	0.77
680.165	12.77
680.196	-4.23
680.226	7.77
680.257	11.77
680.287	7.77
680.318	-8.23
680.348	-2.23
680.379	2.77
680.409	14.77
680.439	-0.23
680.47	-7.23
680.5	-1.23
680.531	4.77
680.561	4.77
680.592	7.77
680.622	14.77
680.652	3.77
680.683	16.77
680.713	-6.23
680.744	-0.23
680.774	-16.23
680.804	21.77
680.835	-5.23
680.865	-2.23
680.896	11.77
680.926	10.77
680.956	7.77
680.987	-5.23
681.017	-2.23
681.047	8.77
681.078	4.77
681.108	8.77
681.139	13.77
681.169	3.77
681.199	11.77
681.23	-1.23
681.26	-11.23
681.29	5.77
681.321	-19.23
681.351	1.77
681.381	-9.23
681.412	20.77
681.442	11.77
681.472	18.77
681.503	10.77
681.533	11.77
681.563	-15.23
681.594	8.77
681.624	3.77
681.654	-5.23
681.685	-1.23
681.715	-12.23
681.745	2.77
681.775	0.77
681.806	3.77
681.836	-3.23
681.866	-16.23
681.897	4.77
681.927	3.77
681.957	-22.23
681.987	0.77
682.018	-2.23
682.048	4.77
682.078	1.77
682.109	11.77
682.139	8.77
682.169	5.77
682.199	1.77
682.23	5.77
682.26	6.77
682.29	13.77
682.32	2.77
682.351	-9.23
682.381	0.77
682.411	-1.23
682.441	-7.23
682.472	-14.23
682.502	-3.23
682.532	-3.23
682.562	-4.23
682.592	16.77
682.623	16.77
682.653	6.77
682.683	-8.23
682.713	18.77
682.743	3.77
682.774	-4.23
682.804	-1.23
682.834	29.77
682.864	1.77
682.894	-18.23
682.925	-3.23
682.955	-14.23
682.985	0.77
683.015	7.77
683.045	16.77
683.076	-16.23
683.106	-11.23
683.136	1.77
683.166	-12.23
683.196	0.77
683.226	-10.23
683.257	-7.23
683.287	-0.23
683.317	-15.23
683.347	-3.23
683.377	-9.23
683.407	-6.23
683.437	2.77
683.468	16.77
683.498	-10.23
683.528	12.77
683.558	3.77
683.588	-11.23
683.618	-9.23
683.648	-2.23
683.678	2.77
683.708	10.77
683.739	3.77
683.769	3.77
683.799	3.77
683.829	-1.23
683.859	-4.23
683.889	6.77
683.919	12.77
683.949	11.77
683.979	-5.23
684.009	3.77
684.039	5.77
684.07	-1.23
684.1	18.77
684.13	-2.23
684.16	-0.23
684.19	-6.23
684.22	-1.23
684.25	18.77
684.28	12.77
684.31	21.77
684.34	6.77
684.37	3.77
684.4	-3.23
684.43	2.77
684.46	0.77
684.49	17.77
684.52	7.77
684.55	4.77
684.58	-3.23
684.61	-6.23
684.64	-2.23
684.67	6.77
684.7	-4.23
684.73	-8.23
684.76	-13.23
684.79	12.77
684.82	-3.23
684.85	-14.23
684.88	5.77
684.91	-11.23
684.94	13.77
684.97	-0.23
685	-2.23
685.03	-2.23
685.06	1.77
685.09	10.77
685.12	13.77
685.15	-10.23
685.18	-12.23
685.21	-3.23
685.24	13.77
685.27	19.77
685.3	-4.23
685.33	7.77
685.36	-4.23
685.39	7.77
685.42	11.77
685.45	-6.23
685.48	-8.23
685.51	-9.23
685.54	11.77
685.569	9.77
685.599	6.77
685.629	4.77
685.659	0.77
685.689	-15.23
685.719	-0.23
685.749	-6.23
685.779	5.77
685.809	2.77
685.839	0.77
685.869	7.77
685.898	19.77
685.928	6.77
685.958	-10.23
685.988	12.77
686.018	-10.23
686.048	-0.23
686.078	12.77
686.108	0.77
686.137	-10.23
686.167	23.77
686.197	-17.23
686.227	2.77
686.257	26.77
686.287	11.77
686.317	4.77
686.346	0.77
686.376	2.77
686.406	-1.23
686.436	5.77
686.466	-7.23
686.496	0.77
686.525	4.77
686.555	-4.23
686.585	23.77
686.615	36.77
686.645	-2.23
686.675	-4.23
686.704	21.77
686.734	20.77
686.764	6.77
686.794	-7.23
686.824	-14.23
686.853	4.77
686.883	13.77
686.913	19.77
686.943	2.77
686.973	-8.23
687.002	1.77
687.032	5.77
687.062	1.77
687.092	13.77
687.121	3.77
687.151	5.77
687.181	-4.23
687.211	10.77
687.24	-5.23
687.27	0.77
687.3	-4.23
687.33	-7.23
687.359	-7.23
687.389	7.77
687.419	-6.23
687.449	-6.23
687.478	8.77
687.508	-2.23
687.538	1.77
687.568	-2.23
687.597	-17.23
687.627	11.77
687.657	7.77
687.686	17.77
687.716	28.77
687.746	-8.23
687.776	-4.23
687.805	2.77
687.835	0.77
687.865	23.77
687.894	-5.23
687.924	2.77
687.954	4.77
687.983	11.77
688.013	6.77
688.043	24.77
688.072	-2.23
688.102	-3.23
688.132	-3.23
688.161	-1.23
688.191	-1.23
688.221	14.77
688.25	-2.23
688.28	20.77
688.31	-0.23
688.339	4.77
688.369	-7.23
688.399	-5.23
688.428	1.77
688.458	16.77
688.488	-2.23
688.517	-0.23
688.547	-0.23
688.576	18.77
688.606	10.77
688.636	-10.23
688.665	0.77
688.695	-5.23
688.725	5.77
688.754	-3.23
688.784	-1.23
688.813	25.77
688.843	8.77
688.873	5.77
688.902	23.77
688.932	3.77
688.961	-10.23
688.991	8.77
689.02	16.77
689.05	-7.23
689.08	13.77
689.109	6.77
689.139	-6.23
689.168	2.77
689.198	12.77
689.227	5.77
689.257	4.77
689.287	4.77
689.316	-7.23
689.346	-1.23
689.375	-3.23
689.405	13.77
689.434	-5.23
689.464	2.77
689.493	16.77
689.523	-3.23
689.552	-1.23
689.582	15.77
689.611	-2.23
689.641	-4.23
689.67	9.77
689.7	3.77
689.73	7.77
689.759	-4.23
689.789	19.77
689.818	7.77
689.848	4.77
689.877	19.77
689.906	9.77
689.936	-2.23
689.965	10.77
689.995	14.77
690.024	11.77
690.054	2.77
690.083	0.77
690.113	-5.23
690.142	5.77
690.172	-3.23
690.201	10.77
690.231	-7.23
690.26	12.77
690.29	3.77
690.319	-2.23
690.348	-12.23
690.378	4.77
690.407	-0.23
690.437	9.77
690.466	6.77
690.496	-8.23
690.525	15.77
690.555	-11.23
690.584	15.77
690.613	-4.23
690.643	-2.23
690.672	13.77
690.702	19.77
690.731	2.77
690.76	-0.23
690.79	7.77
690.819	5.77
690.849	6.77
690.878	4.77
690.907	5.77
690.937	0.77
690.966	4.77
690.996	-8.23
691.025	-2.23
691.054	3.77
691.084	8.77
691.113	0.77
691.142	-3.23
691.172	9.77
691.201	15.77
691.23	5.77
691.26	10.77
691.289	6.77
691.319	5.77
691.348	2.77
691.377	12.77
691.407	4.77
691.436	-1.23
691.465	16.77
691.495	-5.23
691.524	-1.23
691.553	2.77
691.583	7.77
691.612	18.77
691.641	-4.23
691.67	-15.23
691.7	6.77
691.729	-6.23
691.758	-5.23
691.788	13.77
691.817	4.77
691.846	-8.23
691.876	4.77
691.905	1.77
691.934	-7.23
691.963	18.77
691.993	4.77
692.022	-10.23
692.051	-24.23
692.081	-0.23
692.11	7.77
692.139	-4.23
692.168	2.77
692.198	-4.23
692.227	5.77
692.256	12.77
692.285	20.77
692.315	5.77
692.344	-4.23
692.373	6.77
692.402	-17.23
692.432	0.77
692.461	-9.23
692.49	-4.23
692.519	4.77
692.548	1.77
692.578	9.77
692.607	-2.23
692.636	9.77
692.665	16.77
692.694	-17.23
692.724	-9.23
692.753	4.77
692.782	9.77
692.811	-22.23
692.84	-11.23
692.87	0.77
692.899	1.77
692.928	-6.23
692.957	1.77
692.986	17.77
693.016	11.77
693.045	23.77
693.074	-0.23
693.103	-7.23
693.132	9.77
693.161	9.77
693.191	-0.23
693.22	-8.23
693.249	5.77
693.278	-7.23
693.307	4.77
693.336	-15.23
693.365	-16.23
693.395	-5.23
693.424	7.77
693.453	17.77
693.482	4.77
693.511	16.77
693.54	7.77
693.569	15.77
693.598	7.77
693.628	16.77
693.657	24.77
693.686	18.77
693.715	18.77
693.744	10.77
693.773	24.77
693.802	13.77
693.831	-1.23
693.86	18.77
693.889	0.77
693.919	6.77
693.948	4.77
693.977	9.77
694.006	-4.23
694.035	-8.23
694.064	-14.23
694.093	-0.23
694.122	11.77
694.151	-4.23
694.18	1.77
694.209	24.77
694.238	4.77
694.267	29.77
694.296	-4.23
694.325	8.77
694.354	22.77
694.383	13.77
694.412	-4.23
694.441	0.77
694.471	2.77
694.5	-2.23
694.529	8.77
694.558	27.77
694.587	4.77
694.616	0.77
694.645	7.77
694.674	21.77
694.703	14.77
694.732	-1.23
694.761	15.77
694.79	24.77
694.819	-25.23
694.848	-2.23
694.877	25.77
694.906	13.77
694.935	1.77
694.963	11.77
694.992	-9.23
695.021	9.77
695.05	21.77
695.079	13.77
695.108	4.77
695.137	12.77
695.166	11.77
695.195	-0.23
695.224	12.77
695.253	4.77
695.282	9.77
695.311	5.77
695.34	-4.23
695.369	18.77
695.398	14.77
695.427	32.77
695.456	5.77
695.485	12.77
695.513	-0.23
695.542	5.77
695.571	11.77
695.6	13.77
695.629	17.77
695.658	8.77
695.687	8.77
695.716	12.77
695.745	11.77
695.774	-0.23
695.802	-8.23
695.831	20.77
695.86	22.77
695.889	12.77
695.918	9.77
695.947	0.77
695.976	-16.23
696.005	3.77
696.033	16.77
696.062	11.77
696.091	-2.23
696.12	7.77
696.149	5.77
696.178	10.77
696.207	10.77
696.235	-1.23
696.264	-8.23
696.293	-2.23
696.322	-0.23
696.351	10.77
696.38	9.77
696.408	3.77
696.437	16.77
696.466	17.77
696.495	24.77
696.524	9.77
696.553	3.77
696.581	10.77
696.61	13.77
696.639	0.77
696.668	-0.23
696.697	-4.23
696.725	17.77
696.754	4.77
696.783	0.77
696.812	-2.23
696.84	12.77
696.869	8.77
696.898	-6.23
696.927	25.77
696.956	20.77
696.984	-4.23
697.013	-1.23
697.042	3.77
697.071	10.77
697.099	8.77
697.128	12.77
697.157	8.77
697.186	5.77
697.214	-3.23
697.243	-8.23
697.272	-3.23
697.301	6.77
697.329	19.77
697.358	4.77
697.387	32.77
697.415	8.77
697.444	13.77
697.473	-0.23
697.502	-3.23
697.53	9.77
697.559	-1.23
697.588	-0.23
697.616	0.77
697.645	-0.23
697.674	20.77
697.703	-3.23
697.731	4.77
697.76	1.77
697.789	7.77
697.817	12.77
697.846	21.77
697.875	24.77
697.903	6.77
697.932	-1.23
697.961	5.77
697.989	4.77
698.018	-0.23
698.047	-2.23
698.075	3.77
698.104	-5.23
698.133	8.77
698.161	-5.23
698.19	-6.23
698.218	-3.23
698.247	-1.23
698.276	-11.23
698.304	-4.23
698.333	-9.23
698.362	-9.23
698.39	8.77
698.419	-4.23
698.447	-12.23
698.476	-1.23
698.505	8.77
698.533	10.77
698.562	7.77
698.591	-0.23
698.619	-2.23
698.648	-2.23
698.676	11.77
698.705	-1.23
698.733	-0.23
698.762	0.77
698.791	7.77
698.819	11.77
698.848	-13.23
698.876	14.77
698.905	10.77
698.933	13.77
698.962	6.77
698.991	2.77
699.019	8.77
699.048	0.77
699.076	14.77
699.105	-1.23
699.133	7.77
699.162	13.77
699.19	9.77
699.219	-6.23
699.248	1.77
699.276	8.77
699.305	-8.23
699.333	9.77
699.362	1.77
699.39	10.77
699.419	-3.23
699.447	0.77
699.476	2.77
699.504	-5.23
699.533	5.77
699.561	-14.23
699.59	-0.23
699.618	-1.23
699.647	7.77
699.675	-7.23
699.704	-0.23
699.732	5.77
699.761	2.77
699.789	7.77
699.818	11.77
699.846	8.77
699.874	2.77
699.903	-11.23
699.931	-2.23
699.96	-4.23
699.988	-3.23
700.017	-2.23
700.045	8.77
700.074	-9.23
700.102	-0.23
700.13	-12.23
700.159	-7.23
700.187	8.77
700.216	2.77
700.244	5.77
700.273	-19.23
700.301	1.77
700.329	9.77
700.358	20.77
700.386	4.77
700.415	10.77
700.443	1.77
700.472	1.77
700.5	2.77
700.528	14.77
700.557	12.77
700.585	-11.23
700.614	-10.23
700.642	16.77
700.67	5.77
700.699	13.77
700.727	-2.23
700.755	1.77
700.784	1.77
700.812	-2.23
700.841	27.77
700.869	-2.23
700.897	-12.23
700.926	1.77
700.954	2.77
700.982	5.77
701.011	3.77
701.039	2.77
701.067	-12.23
701.096	8.77
701.124	-1.23
701.152	9.77
701.181	-10.23
701.209	-7.23
701.237	8.77
701.266	3.77
701.294	0.77
701.322	9.77
701.351	19.77
701.379	-5.23
701.407	-11.23
701.435	8.77
701.464	22.77
701.492	16.77
701.52	-16.23
701.549	5.77
701.577	-2.23
701.605	-7.23
701.634	5.77
701.662	7.77
701.69	-7.23
701.718	-15.23
701.747	-3.23
701.775	-20.23
701.803	-11.23
701.831	0.77
701.86	0.77
701.888	-0.23
701.916	-1.23
701.944	0.77
701.973	0.77
702.001	-12.23
702.029	-0.23
702.057	-18.23
702.086	-13.23
702.114	-0.23
702.142	1.77
702.17	-8.23
702.199	6.77
702.227	5.77
702.255	5.77
702.283	-3.23
702.311	10.77
702.34	3.77
702.368	-17.23
702.396	8.77
702.424	-0.23
702.452	0.77
702.481	3.77
702.509	11.77
702.537	8.77
702.565	13.77
702.593	-7.23
702.621	-0.23
702.65	10.77
702.678	-7.23
702.706	6.77
702.734	1.77
702.762	-10.23
702.79	15.77
702.819	-7.23
702.847	2.77
702.875	1.77
702.903	9.77
702.931	2.77
702.959	-0.23
702.988	5.77
703.016	-5.23
703.044	6.77
703.072	1.77
703.1	2.77
703.128	-11.23
703.156	7.77
703.184	8.77
703.212	12.77
703.241	-9.23
703.269	-5.23
703.297	4.77
703.325	7.77
703.353	5.77
703.381	-4.23
703.409	2.77
703.437	-6.23
703.465	-5.23
703.493	-2.23
703.522	10.77
703.55	6.77
703.578	18.77
703.606	-4.23
703.634	-4.23
703.662	-6.23
703.69	-2.23
703.718	-1.23
703.746	0.77
703.774	9.77
703.802	15.77
703.83	-16.23
703.858	-10.23
703.886	2.77
703.914	-2.23
703.942	19.77
703.97	5.77
703.998	-12.23
704.027	3.77
704.055	0.77
704.083	6.77
704.111	-6.23
704.139	4.77
704.167	-8.23
704.195	6.77
704.223	-6.23
704.251	-19.23
704.279	10.77
704.307	4.77
704.335	3.77
704.363	-7.23
704.391	-5.23
704.419	-2.23
704.447	7.77
704.475	0.77
704.503	-2.23
704.531	15.77
704.558	2.77
704.586	11.77
704.614	-0.23
704.642	-12.23
704.67	-8.23
704.698	11.77
704.726	-3.23
704.754	1.77
704.782	2.77
704.81	10.77
704.838	18.77
704.866	11.77
704.894	-5.23
704.922	5.77
704.95	-7.23
704.978	17.77
705.006	6.77
705.034	7.77
705.061	-1.23
705.089	1.77
705.117	3.77
705.145	5.77
705.173	11.77
705.201	-3.23
705.229	20.77
705.257	3.77
705.285	11.77
705.313	8.77
705.34	-1.23
705.368	4.77
705.396	3.77
705.424	-1.23
705.452	-1.23
705.48	-4.23
705.508	-8.23
705.536	3.77
705.563	-5.23
705.591	5.77
705.619	18.77
705.647	-8.23
705.675	17.77
705.703	11.77
705.731	-8.23
705.758	-1.23
705.786	5.77
705.814	20.77
705.842	12.77
705.87	17.77
705.898	7.77
705.925	-17.23
705.953	-0.23
705.981	-8.23
706.009	7.77
706.037	12.77
706.065	18.77
706.092	-8.23
706.12	-3.23
706.148	1.77
706.176	2.77
706.204	9.77
706.231	16.77
706.259	-7.23
706.287	-5.23
706.315	1.77
706.342	-5.23
706.37	8.77
706.398	12.77
706.426	9.77
706.454	5.77
706.481	-1.23
706.509	0.77
706.537	8.77
706.565	-13.23
706.592	4.77
706.62	10.77
706.648	17.77
706.676	-16.23
706.703	-9.23
706.731	-9.23
706.759	1.77
706.787	0.77
706.814	-7.23
706.842	-3.23
706.87	-3.23
706.897	-6.23
706.925	-8.23
706.953	18.77
706.981	9.77
707.008	5.77
707.036	9.77
707.064	9.77
707.091	-0.23
707.119	19.77
707.147	-4.23
707.174	-3.23
707.202	14.77
707.23	5.77
707.258	20.77
707.285	-4.23
707.313	-11.23
707.341	-5.23
707.368	5.77
707.396	-10.23
707.424	2.77
707.451	0.77
707.479	12.77
707.507	4.77
707.534	-5.23
707.562	-5.23
707.59	2.77
707.617	-2.23
707.645	-1.23
707.672	-6.23
707.7	3.77
707.728	24.77
707.755	6.77
707.783	-0.23
707.811	-3.23
707.838	-8.23
707.866	9.77
707.893	1.77
707.921	-15.23
707.949	5.77
707.976	3.77
708.004	-6.23
708.031	5.77
708.059	-5.23
708.087	-1.23
708.114	-6.23
708.142	-4.23
708.169	-2.23
708.197	-1.23
708.225	0.77
708.252	6.77
708.28	10.77
708.307	8.77
708.335	1.77
708.362	-2.23
708.39	-10.23
708.418	-11.23
708.445	0.77
708.473	-11.23
708.5	-10.23
708.528	3.77
708.555	6.77
708.583	3.77
708.61	15.77
708.638	17.77
708.665	4.77
708.693	-1.23
708.72	-9.23
708.748	-14.23
708.776	4.77
708.803	18.77
708.831	11.77
708.858	28.77
708.886	-8.23
708.913	0.77
708.941	0.77
708.968	18.77
708.996	-1.23
709.023	13.77
709.051	-13.23
709.078	-0.23
709.105	2.77
709.133	4.77
709.16	-16.23
709.188	-11.23
709.215	7.77
709.243	11.77
709.27	-11.23
709.298	-16.23
709.325	-2.23
709.353	-4.23
709.38	8.77
709.408	7.77
709.435	2.77
709.462	0.77
709.49	12.77
709.517	5.77
709.545	5.77
709.572	-3.23
709.6	1.77
709.627	19.77
709.655	4.77
709.682	-14.23
709.709	-3.23
709.737	-6.23
709.764	-5.23
709.792	24.77
709.819	15.77
709.846	8.77
709.874	7.77
709.901	15.77
709.929	20.77
709.956	8.77
709.983	-11.23
710.011	1.77
710.038	9.77
710.066	16.77
710.093	3.77
710.12	10.77
710.148	-3.23
710.175	-7.23
710.202	-15.23
710.23	14.77
710.257	16.77
710.284	12.77
710.312	5.77
710.339	-1.23
710.366	5.77
710.394	0.77
710.421	2.77
710.448	-8.23
710.476	-4.23
710.503	12.77
710.53	8.77
710.558	2.77
710.585	21.77
710.612	-4.23
710.64	2.77
710.667	-2.23
710.694	0.77
710.722	5.77
710.749	-11.23
710.776	-7.23
710.804	25.77
710.831	11.77
710.858	1.77
710.885	5.77
710.913	3.77
710.94	20.77
710.967	-11.23
710.995	-2.23
711.022	-14.23
711.049	-10.23
711.076	-5.23
711.104	8.77
711.131	-9.23
711.158	-4.23
711.185	15.77
711.213	1.77
711.24	-3.23
711.267	-10.23
711.294	-4.23
711.322	13.77
711.349	-4.23
711.376	11.77
711.403	2.77
711.431	21.77
711.458	-6.23
711.485	-6.23
711.512	-1.23
711.54	-4.23
711.567	-4.23
711.594	-7.23
711.621	-10.23
711.648	-4.23
711.676	-3.23
711.703	-8.23
711.73	-17.23
711.757	0.77
711.784	10.77
711.812	0.77
711.839	-1.23
711.866	1.77
711.893	-12.23
711.92	1.77
711.947	13.77
711.975	4.77
712.002	-10.23
712.029	18.77
712.056	1.77
712.083	-1.23
712.11	-11.23
712.138	9.77
712.165	-6.23
712.192	0.77
712.219	-13.23
712.246	1.77
712.273	11.77
712.3	-1.23
712.328	3.77
712.355	-13.23
712.382	-4.23
712.409	18.77
712.436	-6.23
712.463	15.77
712.49	11.77
712.517	9.77
712.544	-8.23
712.572	-0.23
712.599	-8.23
712.626	0.77
712.653	6.77
712.68	-3.23
712.707	3.77
712.734	11.77
712.761	3.77
712.788	10.77
712.815	5.77
712.842	19.77
712.87	0.77
712.897	-3.23
712.924	-11.23
712.951	-0.23
712.978	7.77
713.005	16.77
713.032	31.77
713.059	6.77
713.086	4.77
713.113	-11.23
713.14	-15.23
713.167	2.77
713.194	7.77
713.221	-8.23
713.248	10.77
713.275	-11.23
713.302	-6.23
713.329	4.77
713.356	3.77
713.383	5.77
713.41	9.77
713.437	-8.23
713.464	1.77
713.491	11.77
713.518	7.77
713.545	9.77
713.572	-2.23
713.599	16.77
713.626	-10.23
713.653	4.77
713.68	-0.23
713.707	-1.23
713.734	7.77
713.761	-4.23
713.788	0.77
713.815	27.77
713.842	4.77
713.869	1.77
713.896	1.77
713.923	-4.23
713.95	-1.23
713.977	-9.23
714.004	0.77
714.031	2.77
714.058	18.77
714.085	1.77
714.112	-9.23
714.139	-8.23
714.165	0.77
714.192	-5.23
714.219	21.77
714.246	-0.23
714.273	-4.23
714.3	3.77
714.327	4.77
714.354	8.77
714.381	-2.23
714.408	-3.23
714.435	-5.23
714.461	3.77
714.488	12.77
714.515	-8.23
714.542	-4.23
714.569	-2.23
714.596	-14.23
714.623	0.77
714.65	2.77
714.677	8.77
714.703	-5.23
714.73	2.77
714.757	4.77
714.784	12.77
714.811	2.77
714.838	4.77
714.865	-8.23
714.891	5.77
714.918	3.77
714.945	-5.23
714.972	-16.23
714.999	4.77
715.026	-12.23
715.052	8.77
715.079	4.77
715.106	2.77
715.133	5.77
715.16	-9.23
715.187	4.77
715.213	-0.23
715.24	3.77
715.267	-5.23
715.294	-4.23
715.321	-7.23
715.347	7.77
715.374	-3.23
715.401	12.77
715.428	1.77
715.455	7.77
715.481	-16.23
715.508	8.77
715.535	0.77
715.562	0.77
715.588	12.77
715.615	11.77
715.642	11.77
715.669	8.77
715.695	-7.23
715.722	3.77
715.749	-2.23
715.776	18.77
715.802	12.77
715.829	6.77
715.856	0.77
715.883	3.77
715.909	-8.23
715.936	-5.23
715.963	0.77
715.99	-1.23
716.016	-2.23
716.043	-18.23
716.07	-8.23
716.096	-2.23
716.123	-1.23
716.15	-2.23
716.177	10.77
716.203	24.77
716.23	9.77
716.257	11.77
716.283	12.77
716.31	-0.23
716.337	3.77
716.363	-3.23
716.39	7.77
716.417	8.77
716.443	-5.23
716.47	15.77
716.497	22.77
716.523	9.77
716.55	4.77
716.577	-1.23
716.603	4.77
716.63	0.77
716.657	7.77
716.683	-4.23
716.71	1.77
716.737	-8.23
716.763	3.77
716.79	7.77
716.817	-5.23
716.843	5.77
716.87	4.77
716.897	-7.23
716.923	14.77
716.95	-7.23
716.976	-18.23
717.003	-6.23
717.03	8.77
717.056	9.77
717.083	2.77
717.109	11.77
717.136	5.77
717.163	-0.23
717.189	-1.23
717.216	4.77
717.242	3.77
717.269	7.77
717.296	12.77
717.322	16.77
717.349	12.77
717.375	10.77
717.402	3.77
717.428	0.77
717.455	10.77
717.481	5.77
717.508	2.77
717.535	-1.23
717.561	-3.23
717.588	0.77
717.614	5.77
717.641	4.77
717.667	1.77
717.694	-15.23
717.72	-10.23
717.747	-2.23
717.773	-7.23
717.8	8.77
717.826	6.77
717.853	8.77
717.88	12.77
717.906	4.77
717.933	6.77
717.959	15.77
717.986	10.77
718.012	3.77
718.039	22.77
718.065	18.77
718.092	17.77
718.118	-14.23
718.144	-3.23
718.171	9.77
718.197	12.77
718.224	0.77
718.25	-6.23
718.277	2.77
718.303	2.77
718.33	-2.23
718.356	-4.23
718.383	-8.23
718.409	-13.23
718.436	-2.23
718.462	15.77
718.489	-1.23
718.515	4.77
718.541	17.77
718.568	12.77
718.594	22.77
718.621	11.77
718.647	9.77
718.674	15.77
718.7	-2.23
718.726	5.77
718.753	9.77
718.779	11.77
718.806	9.77
718.832	3.77
718.858	9.77
718.885	-1.23
718.911	1.77
718.938	14.77
718.964	-3.23
718.99	5.77
719.017	-1.23
719.043	5.77
719.07	18.77
719.096	-14.23
719.122	-1.23
719.149	19.77
719.175	3.77
719.201	3.77
719.228	7.77
719.254	-1.23
719.281	-16.23
719.307	9.77
719.333	7.77
719.36	14.77
719.386	-1.23
719.412	8.77
719.439	-4.23
719.465	-8.23
719.491	-6.23
719.518	-0.23
719.544	-9.23
719.57	4.77
719.597	14.77
719.623	2.77
719.649	1.77
719.675	2.77
719.702	10.77
719.728	13.77
719.754	-1.23
719.781	0.77
719.807	-17.23
719.833	4.77
719.86	-2.23
719.886	-4.23
719.912	6.77
719.938	-7.23
719.965	8.77
719.991	21.77
720.017	5.77
720.044	-1.23
720.07	12.77
720.096	11.77
720.122	9.77
720.149	23.77
720.175	24.77
720.201	0.77
720.227	-7.23
720.254	-1.23
720.28	-11.23
720.306	5.77
720.332	15.77
720.359	23.77
720.385	13.77
720.411	4.77
720.437	8.77
720.463	4.77
720.49	12.77
720.516	1.77
720.542	-6.23
720.568	-1.23
720.595	2.77
720.621	-0.23
720.647	-4.23
720.673	7.77
720.699	-0.23
720.725	0.77
720.752	5.77
720.778	4.77
720.804	1.77
720.83	8.77
720.856	7.77
720.883	-6.23
720.909	1.77
720.935	13.77
720.961	22.77
720.987	-0.23
721.013	-0.23
721.04	0.77
721.066	-19.23
721.092	1.77
721.118	9.77
721.144	13.77
721.17	8.77
721.196	-6.23
721.223	-14.23
721.249	0.77
721.275	16.77
721.301	-3.23
721.327	13.77
721.353	-5.23
721.379	6.77
721.405	3.77
721.432	17.77
721.458	9.77
721.484	8.77
721.51	-3.23
721.536	11.77
721.562	6.77
721.588	-7.23
721.614	-10.23
721.64	-2.23
721.666	0.77
721.693	-3.23
721.719	-0.23
721.745	-8.23
721.771	-3.23
721.797	0.77
721.823	21.77
721.849	13.77
721.875	7.77
721.901	12.77
721.927	-3.23
721.953	8.77
721.979	14.77
722.005	4.77
722.031	3.77
722.057	11.77
722.083	-0.23
722.109	18.77
722.135	15.77
722.161	-2.23
722.187	-16.23
722.214	-7.23
722.24	6.77
722.266	2.77
722.292	1.77
722.318	7.77
722.344	-1.23
722.37	4.77
722.396	0.77
722.422	1.77
722.448	-4.23
722.474	-7.23
722.5	0.77
722.526	7.77
722.552	2.77
722.578	-0.23
722.603	7.77
722.629	-0.23
722.655	-1.23
722.681	-15.23
722.707	3.77
722.733	-1.23
722.759	14.77
722.785	1.77
722.811	-5.23
722.837	-4.23
722.863	14.77
722.889	13.77
722.915	-1.23
722.941	4.77
722.967	0.77
722.993	13.77
723.019	-1.23
723.045	-2.23
723.071	11.77
723.097	14.77
723.122	8.77
723.148	-2.23
723.174	-5.23
723.2	16.77
723.226	4.77
723.252	5.77
723.278	-2.23
723.304	-15.23
723.33	12.77
723.356	-2.23
723.381	-9.23
723.407	-2.23
723.433	27.77
723.459	7.77
723.485	9.77
723.511	3.77
723.537	-10.23
723.563	-1.23
723.588	13.77
723.614	15.77
723.64	-1.23
723.666	0.77
723.692	8.77
723.718	1.77
723.744	-3.23
723.769	-10.23
723.795	-8.23
723.821	-9.23
723.847	-3.23
723.873	3.77
723.899	15.77
723.924	9.77
723.95	-10.23
723.976	-3.23
724.002	18.77
724.028	6.77
724.053	-5.23
724.079	-6.23
724.105	-8.23
724.131	17.77
724.157	1.77
724.182	6.77
724.208	10.77
724.234	16.77
724.26	6.77
724.286	12.77
724.311	21.77
724.337	0.77
724.363	-2.23
724.389	8.77
724.415	9.77
724.44	20.77
724.466	3.77
724.492	-3.23
724.518	-4.23
724.543	10.77
724.569	28.77
724.595	1.77
724.621	-17.23
724.646	1.77
724.672	1.77
724.698	5.77
724.723	3.77
724.749	-9.23
724.775	10.77
724.801	2.77
724.826	3.77
724.852	-4.23
724.878	-7.23
724.904	-3.23
724.929	12.77
724.955	-3.23
724.981	3.77
725.006	12.77
725.032	-11.23
725.058	7.77
725.083	-5.23
725.109	-9.23
725.135	-12.23
725.161	2.77
725.186	5.77
725.212	-8.23
725.238	0.77
725.263	0.77
725.289	-13.23
725.315	1.77
725.34	8.77
725.366	0.77
725.392	-5.23
725.417	-2.23
725.443	-3.23
725.468	-3.23
725.494	7.77
725.52	-1.23
725.545	0.77
725.571	-17.23
725.597	-15.23
725.622	-0.23
725.648	3.77
725.674	1.77
725.699	2.77
725.725	0.77
725.75	12.77
725.776	-9.23
725.802	11.77
725.827	11.77
725.853	-14.23
725.878	-0.23
725.904	3.77
725.93	1.77
725.955	1.77
725.981	7.77
726.006	8.77
726.032	13.77
726.057	3.77
726.083	-1.23
726.109	6.77
726.134	7.77
726.16	-9.23
726.185	-8.23
726.211	-6.23
726.236	17.77
726.262	1.77
726.288	5.77
726.313	6.77
726.339	17.77
726.364	5.77
726.39	15.77
726.415	-4.23
726.441	2.77
726.466	-3.23
726.492	3.77
726.517	-0.23
726.543	-0.23
726.568	-10.23
726.594	-5.23
726.619	17.77
726.645	11.77
726.67	-9.23
726.696	8.77
726.721	-6.23
726.747	-25.23
726.772	-8.23
726.798	0.77
726.823	9.77
726.849	-2.23
726.874	7.77
726.9	17.77
726.925	8.77
726.951	-3.23
726.976	10.77
727.002	20.77
727.027	-1.23
727.053	11.77
727.078	1.77
727.104	14.77
727.129	0.77
727.155	4.77
727.18	19.77
727.205	20.77
727.231	0.77
727.256	1.77
727.282	0.77
727.307	19.77
727.333	11.77
727.358	-4.23
727.383	-8.23
727.409	-1.23
727.434	-0.23
727.46	4.77
727.485	4.77
727.511	6.77
727.536	-17.23
727.561	2.77
727.587	-1.23
727.612	-5.23
727.637	-6.23
727.663	-2.23
727.688	5.77
727.714	-4.23
727.739	-8.23
727.764	-6.23
727.79	4.77
727.815	8.77
727.841	21.77
727.866	1.77
727.891	-8.23
727.917	-12.23
727.942	-10.23
727.967	4.77
727.993	-15.23
728.018	0.77
728.043	1.77
728.069	20.77
728.094	16.77
728.119	12.77
728.145	14.77
728.17	10.77
728.195	17.77
728.221	10.77
728.246	-3.23
728.271	-9.23
728.297	8.77
728.322	2.77
728.347	7.77
728.373	5.77
728.398	-6.23
728.423	-2.23
728.448	-2.23
728.474	-1.23
728.499	16.77
728.524	-4.23
728.55	-16.23
728.575	-12.23
728.6	-1.23
728.625	-1.23
728.651	-5.23
728.676	-0.23
728.701	3.77
728.727	-3.23
728.752	-16.23
728.777	-11.23
728.802	0.77
728.828	-2.23
728.853	-4.23
728.878	2.77
728.903	-4.23
728.929	0.77
728.954	-5.23
728.979	0.77
729.004	7.77
729.03	5.77
729.055	7.77
729.08	-11.23
729.105	-16.23
729.13	12.77
729.156	3.77
729.181	-0.23
729.206	-17.23
729.231	-12.23
729.256	1.77
729.282	-7.23
729.307	-10.23
729.332	-0.23
729.357	-19.23
729.382	-7.23
729.408	-3.23
729.433	-2.23
729.458	3.77
729.483	4.77
729.508	7.77
729.533	-2.23
729.559	-8.23
729.584	-16.23
729.609	-7.23
729.634	14.77
729.659	-10.23
729.684	-10.23
729.71	11.77
729.735	3.77
729.76	0.77
729.785	-2.23
729.81	9.77
729.835	-1.23
729.86	3.77
729.886	14.77
729.911	0.77
729.936	-2.23
729.961	-4.23
729.986	-8.23
730.011	4.77
730.036	-2.23
730.061	5.77
730.086	3.77
730.112	5.77
730.137	13.77
730.162	0.77
730.187	-17.23
730.212	-1.23
730.237	-6.23
730.262	-2.23
730.287	17.77
730.312	14.77
730.337	-7.23
730.362	4.77
730.387	14.77
730.413	-5.23
730.438	-12.23
730.463	1.77
730.488	-1.23
730.513	-12.23
730.538	-2.23
730.563	-0.23
730.588	-5.23
730.613	1.77
730.638	7.77
730.663	-0.23
730.688	8.77
730.713	-0.23
730.738	0.77
730.763	6.77
730.788	-18.23
730.813	8.77
730.838	-2.23
730.863	7.77
730.888	-11.23
730.913	-31.23
730.938	-11.23
730.963	-2.23
730.988	1.77
731.013	17.77
731.038	4.77
731.063	6.77
731.088	9.77
731.113	1.77
731.138	-0.23
731.163	-9.23
731.188	-7.23
731.213	-2.23
731.238	4.77
731.263	12.77
731.288	0.77
731.313	5.77
731.338	3.77
731.363	0.77
731.388	-2.23
731.413	-11.23
731.438	14.77
731.463	3.77
731.487	3.77
731.512	-6.23
731.537	-4.23
731.562	-4.23
731.587	-10.23
731.612	-6.23
731.637	-12.23
731.662	19.77
731.687	3.77
731.712	-9.23
731.737	4.77
731.762	-4.23
731.786	2.77
731.811	6.77
731.836	6.77
731.861	-0.23
731.886	2.77
731.911	-3.23
731.936	7.77
731.961	-2.23
731.986	-3.23
732.01	-6.23
732.035	-1.23
732.06	3.77
732.085	9.77
732.11	10.77
732.135	-16.23
732.16	-4.23
732.184	-8.23
732.209	-0.23
732.234	3.77
732.259	1.77
732.284	14.77
732.309	-8.23
732.334	-7.23
732.358	-4.23
732.383	-6.23
732.408	-6.23
732.433	-7.23
732.458	-6.23
732.482	-8.23
732.507	-9.23
732.532	-17.23
732.557	19.77
732.582	-2.23
732.607	-4.23
732.631	-9.23
732.656	-10.23
732.681	1.77
732.706	-2.23
732.73	5.77
732.755	9.77
732.78	0.77
732.805	7.77
732.83	-4.23
732.854	-0.23
732.879	9.77
732.904	0.77
732.929	-15.23
732.953	8.77
732.978	-4.23
733.003	-12.23
733.028	3.77
733.052	5.77
733.077	15.77
733.102	6.77
733.127	-8.23
733.151	-1.23
733.176	-11.23
733.201	1.77
733.226	-8.23
733.25	4.77
733.275	-5.23
733.3	3.77
733.324	3.77
733.349	-0.23
733.374	12.77
733.399	-5.23
733.423	3.77
733.448	-2.23
733.473	4.77
733.497	2.77
733.522	-7.23
733.547	19.77
733.571	23.77
733.596	11.77
733.621	11.77
733.646	3.77
733.67	1.77
733.695	-2.23
733.72	3.77
733.744	-5.23
733.769	6.77
733.794	11.77
733.818	-0.23
733.843	-6.23
733.867	6.77
733.892	4.77
733.917	-11.23
733.941	-1.23
733.966	-7.23
733.991	-1.23
734.015	16.77
734.04	1.77
734.065	-0.23
734.089	20.77
734.114	3.77
734.138	13.77
734.163	-0.23
734.188	18.77
734.212	17.77
734.237	24.77
734.261	14.77
734.286	-6.23
734.311	0.77
734.335	0.77
734.36	-19.23
734.384	4.77
734.409	-8.23
734.434	-7.23
734.458	-0.23
734.483	5.77
734.507	-6.23
734.532	3.77
734.556	17.77
734.581	4.77
734.606	-10.23
734.63	0.77
734.655	4.77
734.679	4.77
734.704	-3.23
734.728	-10.23
734.753	4.77
734.777	11.77
734.802	11.77
734.826	26.77
734.851	13.77
734.876	0.77
734.9	3.77
734.925	4.77
734.949	1.77
734.974	1.77
734.998	13.77
735.023	-10.23
735.047	-8.23
735.072	25.77
735.096	3.77
735.121	-6.23
735.145	7.77
735.17	5.77
735.194	0.77
735.219	-4.23
735.243	-6.23
735.268	0.77
735.292	10.77
735.317	-4.23
735.341	-0.23
735.365	-18.23
735.39	5.77
735.414	12.77
735.439	9.77
735.463	8.77
735.488	16.77
735.512	-0.23
735.537	-4.23
735.561	-3.23
735.586	3.77
735.61	9.77
735.634	-4.23
735.659	15.77
735.683	23.77
735.708	3.77
735.732	-15.23
735.757	-11.23
735.781	11.77
735.805	11.77
735.83	-10.23
735.854	7.77
735.879	2.77
735.903	13.77
735.927	17.77
735.952	8.77
735.976	3.77
736.001	0.77
736.025	-2.23
736.049	-2.23
736.074	12.77
736.098	-8.23
736.123	4.77
736.147	0.77
736.171	15.77
736.196	11.77
736.22	-1.23
736.244	5.77
736.269	4.77
736.293	-8.23
736.317	-1.23
736.342	6.77
736.366	19.77
736.39	29.77
736.415	0.77
736.439	-4.23
736.463	14.77
736.488	19.77
736.512	10.77
736.536	3.77
736.561	15.77
736.585	1.77
736.609	13.77
736.634	3.77
736.658	7.77
736.682	-1.23
736.707	-15.23
736.731	-0.23
736.755	-2.23
736.78	7.77
736.804	17.77
736.828	2.77
736.852	8.77
736.877	1.77
736.901	5.77
736.925	5.77
736.949	12.77
736.974	4.77
736.998	-21.23
737.022	10.77
737.047	-2.23
737.071	-0.23
737.095	13.77
737.119	47.77
737.144	8.77
737.168	-2.23
737.192	-9.23
737.216	1.77
737.241	3.77
737.265	0.77
737.289	-14.23
737.313	7.77
737.337	9.77
737.362	1.77
737.386	0.77
737.41	-12.23
737.434	9.77
737.459	-1.23
737.483	1.77
737.507	9.77
737.531	5.77
737.555	8.77
737.58	-2.23
737.604	8.77
737.628	7.77
737.652	6.77
737.676	1.77
737.701	-2.23
737.725	-2.23
737.749	2.77
737.773	4.77
737.797	-12.23
737.821	3.77
737.846	-6.23
737.87	24.77
737.894	9.77
737.918	-1.23
737.942	-3.23
737.966	7.77
737.99	3.77
738.015	5.77
738.039	7.77
738.063	-3.23
738.087	-0.23
738.111	4.77
738.135	12.77
738.159	3.77
738.184	-5.23
738.208	7.77
738.232	0.77
738.256	26.77
738.28	13.77
738.304	15.77
738.328	0.77
738.352	19.77
738.376	-5.23
738.4	3.77
738.425	18.77
738.449	-11.23
738.473	15.77
738.497	9.77
738.521	29.77
738.545	3.77
738.569	6.77
738.593	6.77
738.617	12.77
738.641	-4.23
738.665	-6.23
738.689	11.77
738.713	7.77
738.737	12.77
738.762	11.77
738.786	3.77
738.81	-1.23
738.834	31.77
738.858	3.77
738.882	17.77
738.906	-3.23
738.93	-1.23
738.954	1.77
738.978	2.77
739.002	14.77
739.026	17.77
739.05	5.77
739.074	15.77
739.098	30.77
739.122	9.77
739.146	2.77
739.17	-0.23
739.194	0.77
739.218	0.77
739.242	-7.23
739.266	10.77
739.29	18.77
739.314	11.77
739.338	-0.23
739.362	4.77
739.386	12.77
739.41	-7.23
739.434	0.77
739.458	24.77
739.482	1.77
739.506	1.77
739.53	1.77
739.554	16.77
739.577	-6.23
739.601	19.77
739.625	-2.23
739.649	1.77
739.673	-12.23
739.697	13.77
739.721	-4.23
739.745	25.77
739.769	20.77
739.793	8.77
739.817	22.77
739.841	-4.23
739.865	5.77
739.889	-4.23
739.912	13.77
739.936	11.77
739.96	-2.23
739.984	0.77
740.008	-0.23
740.032	-11.23
740.056	4.77
740.08	5.77
740.104	-8.23
740.127	4.77
740.151	3.77
740.175	7.77
740.199	7.77
740.223	27.77
740.247	6.77
740.271	7.77
740.295	1.77
740.318	6.77
740.342	16.77
740.366	18.77
740.39	20.77
740.414	4.77
740.438	-2.23
740.461	18.77
740.485	11.77
740.509	12.77
740.533	19.77
740.557	14.77
740.581	-6.23
740.604	2.77
740.628	-2.23
740.652	0.77
740.676	-3.23
740.7	2.77
740.723	-2.23
740.747	-10.23
740.771	-2.23
740.795	-4.23
740.819	27.77
740.842	-0.23
740.866	3.77
740.89	-1.23
740.914	-12.23
740.938	-8.23
740.961	12.77
740.985	6.77
741.009	-3.23
741.033	14.77
741.056	12.77
741.08	1.77
741.104	3.77
741.128	16.77
741.151	18.77
741.175	1.77
741.199	11.77
741.223	2.77
741.246	-8.23
741.27	8.77
741.294	-4.23
741.318	-5.23
741.341	4.77
741.365	1.77
741.389	-3.23
741.413	9.77
741.436	17.77
741.46	6.77
741.484	16.77
741.507	6.77
741.531	33.77
741.555	11.77
741.579	10.77
741.602	4.77
741.626	5.77
741.65	-2.23
741.673	2.77
741.697	22.77
741.721	20.77
741.744	-9.23
741.768	0.77
741.792	2.77
741.815	-5.23
741.839	5.77
741.863	21.77
741.886	-3.23
741.91	-1.23
741.934	3.77
741.957	-9.23
741.981	4.77
742.005	-8.23
742.028	-16.23
742.052	-9.23
742.075	-0.23
742.099	12.77
742.123	2.77
742.146	3.77
742.17	0.77
742.194	-7.23
742.217	-11.23
742.241	-5.23
742.264	-4.23
742.288	5.77
742.312	3.77
742.335	2.77
742.359	-2.23
742.382	7.77
742.406	14.77
742.43	1.77
742.453	-3.23
742.477	-2.23
742.5	4.77
742.524	-5.23
742.548	4.77
742.571	9.77
742.595	-1.23
742.618	-2.23
742.642	12.77
742.665	3.77
742.689	-7.23
742.712	14.77
742.736	11.77
742.76	4.77
742.783	0.77
742.807	5.77
742.83	-1.23
742.854	0.77
742.877	1.77
742.901	5.77
742.924	-5.23
742.948	0.77
742.971	4.77
742.995	-6.23
743.018	-10.23
743.042	0.77
743.065	-9.23
743.089	-1.23
743.112	9.77
743.136	-4.23
743.159	-2.23
743.183	-0.23
743.206	5.77
743.23	3.77
743.253	6.77
743.277	16.77
743.3	18.77
743.324	-1.23
743.347	4.77
743.371	18.77
743.394	3.77
743.418	9.77
743.441	13.77
743.465	9.77
743.488	3.77
743.512	-4.23
743.535	3.77
743.558	8.77
743.582	3.77
743.605	-6.23
743.629	4.77
743.652	17.77
743.676	-8.23
743.699	10.77
743.723	12.77
743.746	-0.23
743.769	6.77
743.793	11.77
743.816	-1.23
743.84	4.77
743.863	-4.23
743.886	4.77
743.91	11.77
743.933	-1.23
743.957	7.77
743.98	-11.23
744.003	-0.23
744.027	-0.23
744.05	-3.23
744.074	11.77
744.097	-12.23
744.12	-4.23
744.144	-26.23
744.167	20.77
744.19	4.77
744.214	-5.23
744.237	-18.23
744.26	17.77
744.284	19.77
744.307	-5.23
744.331	3.77
744.354	4.77
744.377	3.77
744.401	-8.23
744.424	1.77
744.447	0.77
744.471	-4.23
