Data from HighRes_H2D2_15_04_11_07_2024_HR4C61891__61__15-05-40-543.txt Node

Date: Thu Nov 07 15:05:40 EST 2024
User: crc00042
Spectrometer: HR4C6189
Trigger mode: 4
Integration Time (sec): 1.000000E-1
Scans to average: 1
Electric dark correction enabled: true
Nonlinearity correction enabled: false
Boxcar width: 0
XAxis mode: Wavelengths
Number of Pixels in Spectrum: 3648
>>>>>Begin Spectral Data<<<<<
639.567	-111.46
639.602	-111.46
639.636	-111.46
639.67	-47.46
639.704	-24.46
639.738	-13.46
639.773	12.54
639.807	1.54
639.841	4.54
639.875	3.54
639.909	11.54
639.943	-22.46
639.978	-2.46
640.012	5.54
640.046	15.54
640.08	0.54
640.114	-0.46
640.148	-16.46
640.182	-17.46
640.217	-13.46
640.251	15.54
640.285	21.54
640.319	-10.46
640.353	0.54
640.387	2.54
640.421	4.54
640.455	-15.46
640.49	-5.46
640.524	5.54
640.558	11.54
640.592	-2.46
640.626	3.54
640.66	7.54
640.694	-4.46
640.728	9.54
640.762	12.54
640.796	17.54
640.83	5.54
640.865	-28.46
640.899	-12.46
640.933	2.54
640.967	-6.46
641.001	6.54
641.035	8.54
641.069	3.54
641.103	8.54
641.137	-5.46
641.171	-14.46
641.205	-2.46
641.239	-18.46
641.273	5.54
641.307	7.54
641.341	3.54
641.375	-8.46
641.409	3.54
641.443	1.54
641.477	5.54
641.511	9.54
641.545	19.54
641.579	-6.46
641.614	10.54
641.648	5.54
641.682	-21.46
641.716	12.54
641.75	18.54
641.784	11.54
641.818	10.54
641.852	7.54
641.886	-7.46
641.919	2.54
641.953	8.54
641.987	-3.46
642.021	9.54
642.055	0.54
642.089	-4.46
642.123	-0.46
642.157	-5.46
642.191	-11.46
642.225	5.54
642.259	-1.46
642.293	4.54
642.327	6.54
642.361	11.54
642.395	11.54
642.429	24.54
642.463	9.54
642.497	13.54
642.531	-8.46
642.565	-6.46
642.599	-1.46
642.633	2.54
642.666	9.54
642.7	16.54
642.734	15.54
642.768	-4.46
642.802	6.54
642.836	14.54
642.87	6.54
642.904	0.54
642.938	3.54
642.972	5.54
643.005	1.54
643.039	12.54
643.073	-5.46
643.107	-1.46
643.141	-1.46
643.175	10.54
643.209	-8.46
643.243	8.54
643.276	6.54
643.31	-2.46
643.344	13.54
643.378	11.54
643.412	27.54
643.446	-5.46
643.48	-1.46
643.513	4.54
643.547	6.54
643.581	-2.46
643.615	26.54
643.649	2.54
643.683	11.54
643.716	-3.46
643.75	-5.46
643.784	-6.46
643.818	5.54
643.852	2.54
643.886	-4.46
643.919	-5.46
643.953	3.54
643.987	-16.46
644.021	8.54
644.055	7.54
644.088	-8.46
644.122	15.54
644.156	-20.46
644.19	-6.46
644.224	-10.46
644.257	5.54
644.291	5.54
644.325	1.54
644.359	-5.46
644.392	17.54
644.426	6.54
644.46	-4.46
644.494	0.54
644.527	-5.46
644.561	10.54
644.595	9.54
644.629	-1.46
644.662	-6.46
644.696	12.54
644.73	2.54
644.764	4.54
644.797	-3.46
644.831	-2.46
644.865	-0.46
644.899	-16.46
644.932	14.54
644.966	-3.46
645	-3.46
645.033	17.54
645.067	0.54
645.101	15.54
645.135	15.54
645.168	2.54
645.202	-19.46
645.236	-8.46
645.269	16.54
645.303	-11.46
645.337	-22.46
645.37	-18.46
645.404	-2.46
645.438	2.54
645.471	1.54
645.505	11.54
645.539	0.54
645.572	-17.46
645.606	-12.46
645.64	20.54
645.673	-3.46
645.707	17.54
645.741	5.54
645.774	-6.46
645.808	10.54
645.842	-12.46
645.875	6.54
645.909	-3.46
645.943	7.54
645.976	2.54
646.01	-2.46
646.043	18.54
646.077	5.54
646.111	8.54
646.144	11.54
646.178	9.54
646.212	-26.46
646.245	-13.46
646.279	9.54
646.312	11.54
646.346	9.54
646.38	-6.46
646.413	-3.46
646.447	4.54
646.48	3.54
646.514	8.54
646.547	1.54
646.581	4.54
646.615	1.54
646.648	-3.46
646.682	-5.46
646.715	5.54
646.749	13.54
646.782	10.54
646.816	18.54
646.85	8.54
646.883	-2.46
646.917	12.54
646.95	15.54
646.984	1.54
647.017	-16.46
647.051	4.54
647.084	-3.46
647.118	-0.46
647.151	5.54
647.185	5.54
647.218	-3.46
647.252	-0.46
647.285	-7.46
647.319	-10.46
647.353	-2.46
647.386	11.54
647.42	11.54
647.453	-5.46
647.487	1.54
647.52	-1.46
647.553	-3.46
647.587	-7.46
647.62	-3.46
647.654	14.54
647.687	15.54
647.721	7.54
647.754	13.54
647.788	-0.46
647.821	6.54
647.855	-11.46
647.888	26.54
647.922	9.54
647.955	17.54
647.989	15.54
648.022	6.54
648.055	10.54
648.089	-5.46
648.122	13.54
648.156	-6.46
648.189	9.54
648.223	7.54
648.256	18.54
648.29	13.54
648.323	8.54
648.356	5.54
648.39	5.54
648.423	1.54
648.457	9.54
648.49	7.54
648.523	-2.46
648.557	2.54
648.59	9.54
648.624	7.54
648.657	11.54
648.69	17.54
648.724	4.54
648.757	6.54
648.791	7.54
648.824	13.54
648.857	17.54
648.891	1.54
648.924	8.54
648.957	19.54
648.991	-6.46
649.024	16.54
649.057	8.54
649.091	17.54
649.124	23.54
649.158	6.54
649.191	21.54
649.224	7.54
649.258	4.54
649.291	4.54
649.324	11.54
649.358	17.54
649.391	9.54
649.424	-0.46
649.458	9.54
649.491	-2.46
649.524	4.54
649.557	13.54
649.591	0.54
649.624	11.54
649.657	-3.46
649.691	-2.46
649.724	1.54
649.757	-7.46
649.791	-11.46
649.824	10.54
649.857	4.54
649.89	-1.46
649.924	-10.46
649.957	-1.46
649.99	-10.46
650.023	0.54
650.057	3.54
650.09	13.54
650.123	8.54
650.157	7.54
650.19	20.54
650.223	2.54
650.256	-11.46
650.29	-0.46
650.323	6.54
650.356	-7.46
650.389	-4.46
650.423	-6.46
650.456	11.54
650.489	2.54
650.522	5.54
650.555	16.54
650.589	4.54
650.622	9.54
650.655	8.54
650.688	19.54
650.721	7.54
650.755	15.54
650.788	21.54
650.821	2.54
650.854	-10.46
650.887	11.54
650.921	1.54
650.954	7.54
650.987	-0.46
651.02	1.54
651.053	-0.46
651.087	-10.46
651.12	13.54
651.153	5.54
651.186	1.54
651.219	-9.46
651.252	1.54
651.286	21.54
651.319	13.54
651.352	7.54
651.385	18.54
651.418	-2.46
651.451	5.54
651.484	9.54
651.518	-0.46
651.551	35.54
651.584	-0.46
651.617	18.54
651.65	-0.46
651.683	7.54
651.716	4.54
651.749	10.54
651.783	0.54
651.816	-4.46
651.849	-1.46
651.882	0.54
651.915	-5.46
651.948	6.54
651.981	0.54
652.014	-5.46
652.047	-22.46
652.08	-23.46
652.114	-4.46
652.147	-16.46
652.18	20.54
652.213	38.54
652.246	2.54
652.279	-9.46
652.312	20.54
652.345	-1.46
652.378	-13.46
652.411	23.54
652.444	4.54
652.477	9.54
652.51	-7.46
652.543	-7.46
652.576	6.54
652.609	11.54
652.642	-0.46
652.675	18.54
652.709	-3.46
652.742	23.54
652.775	-2.46
652.808	18.54
652.841	5.54
652.874	-4.46
652.907	2.54
652.94	2.54
652.973	-3.46
653.006	2.54
653.039	1.54
653.072	23.54
653.105	3.54
653.138	-15.46
653.171	-1.46
653.204	1.54
653.237	10.54
653.27	-7.46
653.303	7.54
653.336	9.54
653.368	7.54
653.401	1.54
653.434	-7.46
653.467	5.54
653.5	8.54
653.533	-19.46
653.566	-20.46
653.599	-16.46
653.632	-0.46
653.665	7.54
653.698	-17.46
653.731	1.54
653.764	19.54
653.797	4.54
653.83	7.54
653.863	14.54
653.896	-7.46
653.929	-15.46
653.961	-0.46
653.994	-0.46
654.027	-14.46
654.06	9.54
654.093	8.54
654.126	2.54
654.159	-4.46
654.192	5.54
654.225	1.54
654.258	-11.46
654.29	7.54
654.323	4.54
654.356	5.54
654.389	-7.46
654.422	6.54
654.455	3.54
654.488	2.54
654.521	-7.46
654.553	-22.46
654.586	19.54
654.619	13.54
654.652	-14.46
654.685	5.54
654.718	15.54
654.751	19.54
654.783	-23.46
654.816	12.54
654.849	5.54
654.882	-15.46
654.915	-5.46
654.948	3.54
654.98	1.54
655.013	-14.46
655.046	-2.46
655.079	-2.46
655.112	5.54
655.144	1.54
655.177	16.54
655.21	12.54
655.243	18.54
655.276	-17.46
655.308	-0.46
655.341	-6.46
655.374	6.54
655.407	6.54
655.44	-5.46
655.472	13.54
655.505	5.54
655.538	8.54
655.571	27.54
655.603	8.54
655.636	-9.46
655.669	-4.46
655.702	2.54
655.734	-5.46
655.767	0.54
655.8	13.54
655.833	-5.46
655.865	0.54
655.898	4.54
655.931	12.54
655.964	10.54
655.996	16.54
656.029	28.54
656.062	48.54
656.095	49.54
656.127	76.54
656.16	210.54
656.193	635.54
656.225	971.54
656.258	557.54
656.291	225.54
656.324	181.54
656.356	361.54
656.389	784.54
656.422	689.54
656.454	247.54
656.487	98.54
656.52	37.54
656.552	22.54
656.585	19.54
656.618	16.54
656.65	5.54
656.683	-0.46
656.716	15.54
656.748	13.54
656.781	-8.46
656.814	-4.46
656.846	8.54
656.879	2.54
656.912	-1.46
656.944	-6.46
656.977	-5.46
657.01	5.54
657.042	6.54
657.075	36.54
657.108	16.54
657.14	3.54
657.173	13.54
657.205	37.54
657.238	9.54
657.271	7.54
657.303	-4.46
657.336	-13.46
657.369	7.54
657.401	8.54
657.434	8.54
657.466	8.54
657.499	-12.46
657.532	-8.46
657.564	23.54
657.597	-0.46
657.629	6.54
657.662	-7.46
657.694	-0.46
657.727	-29.46
657.76	5.54
657.792	-5.46
657.825	2.54
657.857	-4.46
657.89	-5.46
657.922	16.54
657.955	-13.46
657.987	0.54
658.02	12.54
658.053	-9.46
658.085	-1.46
658.118	9.54
658.15	0.54
658.183	28.54
658.215	13.54
658.248	6.54
658.28	3.54
658.313	19.54
658.345	12.54
658.378	10.54
658.41	12.54
658.443	18.54
658.475	11.54
658.508	7.54
658.54	-1.46
658.573	2.54
658.605	9.54
658.638	2.54
658.67	11.54
658.703	-6.46
658.735	3.54
658.768	7.54
658.8	-5.46
658.833	22.54
658.865	7.54
658.898	-14.46
658.93	-4.46
658.963	-9.46
658.995	-19.46
659.028	4.54
659.06	-18.46
659.092	-6.46
659.125	5.54
659.157	6.54
659.19	-9.46
659.222	-16.46
659.255	-2.46
659.287	19.54
659.32	14.54
659.352	5.54
659.384	18.54
659.417	-8.46
659.449	-7.46
659.482	-14.46
659.514	-8.46
659.546	-13.46
659.579	-5.46
659.611	17.54
659.644	4.54
659.676	-1.46
659.708	-8.46
659.741	-12.46
659.773	-4.46
659.806	11.54
659.838	-2.46
659.87	-0.46
659.903	-6.46
659.935	2.54
659.967	0.54
660	-11.46
660.032	-30.46
660.065	9.54
660.097	-2.46
660.129	6.54
660.162	0.54
660.194	3.54
660.226	-1.46
660.259	-9.46
660.291	13.54
660.323	-4.46
660.356	3.54
660.388	-3.46
660.42	-7.46
660.453	8.54
660.485	10.54
660.517	9.54
660.55	5.54
660.582	9.54
660.614	8.54
660.647	-9.46
660.679	-23.46
660.711	6.54
660.743	5.54
660.776	-13.46
660.808	2.54
660.84	-12.46
660.873	-7.46
660.905	9.54
660.937	-4.46
660.969	-1.46
661.002	3.54
661.034	11.54
661.066	6.54
661.099	1.54
661.131	0.54
661.163	-0.46
661.195	-5.46
661.228	0.54
661.26	-3.46
661.292	-5.46
661.324	-10.46
661.357	11.54
661.389	5.54
661.421	10.54
661.453	3.54
661.485	2.54
661.518	15.54
661.55	-6.46
661.582	7.54
661.614	-5.46
661.647	-4.46
661.679	-18.46
661.711	-10.46
661.743	-12.46
661.775	-4.46
661.808	10.54
661.84	7.54
661.872	14.54
661.904	4.54
661.936	11.54
661.969	-10.46
662.001	-12.46
662.033	-8.46
662.065	-3.46
662.097	15.54
662.129	8.54
662.162	-10.46
662.194	-8.46
662.226	4.54
662.258	17.54
662.29	2.54
662.322	-15.46
662.355	-6.46
662.387	17.54
662.419	16.54
662.451	21.54
662.483	13.54
662.515	4.54
662.547	1.54
662.58	-4.46
662.612	1.54
662.644	-0.46
662.676	3.54
662.708	19.54
662.74	-26.46
662.772	0.54
662.804	9.54
662.836	13.54
662.869	-7.46
662.901	9.54
662.933	7.54
662.965	20.54
662.997	6.54
663.029	-4.46
663.061	-4.46
663.093	-9.46
663.125	-7.46
663.157	-5.46
663.189	5.54
663.221	11.54
663.254	-2.46
663.286	19.54
663.318	-1.46
663.35	-4.46
663.382	-2.46
663.414	-8.46
663.446	-10.46
663.478	-5.46
663.51	21.54
663.542	-10.46
663.574	8.54
663.606	11.54
663.638	-2.46
663.67	0.54
663.702	6.54
663.734	6.54
663.766	14.54
663.798	6.54
663.83	4.54
663.862	5.54
663.894	9.54
663.926	-7.46
663.958	13.54
663.99	5.54
664.022	2.54
664.054	-9.46
664.086	-9.46
664.118	-8.46
664.15	-8.46
664.182	-2.46
664.214	-7.46
664.246	9.54
664.278	9.54
664.31	18.54
664.342	9.54
664.374	-6.46
664.406	0.54
664.438	-8.46
664.47	15.54
664.502	14.54
664.534	-4.46
664.566	-5.46
664.598	15.54
664.63	-13.46
664.662	-4.46
664.693	7.54
664.725	1.54
664.757	6.54
664.789	-11.46
664.821	-0.46
664.853	6.54
664.885	8.54
664.917	5.54
664.949	21.54
664.981	22.54
665.013	0.54
665.045	1.54
665.076	7.54
665.108	5.54
665.14	0.54
665.172	6.54
665.204	-14.46
665.236	-30.46
665.268	8.54
665.3	-8.46
665.331	-10.46
665.363	1.54
665.395	-1.46
665.427	-4.46
665.459	-2.46
665.491	2.54
665.523	-6.46
665.555	-16.46
665.586	8.54
665.618	10.54
665.65	-15.46
665.682	19.54
665.714	9.54
665.746	-2.46
665.777	9.54
665.809	3.54
665.841	15.54
665.873	-16.46
665.905	13.54
665.937	22.54
665.968	-10.46
666	-19.46
666.032	6.54
666.064	-12.46
666.096	6.54
666.127	-0.46
666.159	11.54
666.191	17.54
666.223	2.54
666.255	7.54
666.286	5.54
666.318	6.54
666.35	13.54
666.382	0.54
666.413	4.54
666.445	-19.46
666.477	2.54
666.509	-15.46
666.54	-1.46
666.572	13.54
666.604	-7.46
666.636	8.54
666.667	15.54
666.699	31.54
666.731	-3.46
666.763	-0.46
666.794	9.54
666.826	-1.46
666.858	-2.46
666.89	14.54
666.921	22.54
666.953	11.54
666.985	14.54
667.017	10.54
667.048	3.54
667.08	5.54
667.112	6.54
667.143	-22.46
667.175	-8.46
667.207	6.54
667.238	0.54
667.27	8.54
667.302	0.54
667.334	-7.46
667.365	3.54
667.397	-2.46
667.429	-1.46
667.46	0.54
667.492	12.54
667.524	-8.46
667.555	-5.46
667.587	-2.46
667.619	-5.46
667.65	-6.46
667.682	-3.46
667.714	15.54
667.745	5.54
667.777	-6.46
667.808	-6.46
667.84	9.54
667.872	-9.46
667.903	15.54
667.935	1.54
667.967	12.54
667.998	1.54
668.03	11.54
668.061	-3.46
668.093	1.54
668.125	4.54
668.156	2.54
668.188	-2.46
668.22	-10.46
668.251	5.54
668.283	10.54
668.314	6.54
668.346	-15.46
668.377	15.54
668.409	2.54
668.441	7.54
668.472	-8.46
668.504	6.54
668.535	-1.46
668.567	7.54
668.599	1.54
668.63	-0.46
668.662	-8.46
668.693	25.54
668.725	12.54
668.756	11.54
668.788	-9.46
668.819	15.54
668.851	3.54
668.882	-4.46
668.914	-5.46
668.946	4.54
668.977	-1.46
669.009	2.54
669.04	-3.46
669.072	13.54
669.103	-8.46
669.135	-7.46
669.166	17.54
669.198	13.54
669.229	5.54
669.261	12.54
669.292	1.54
669.324	6.54
669.355	0.54
669.387	-3.46
669.418	8.54
669.45	7.54
669.481	0.54
669.513	15.54
669.544	17.54
669.576	6.54
669.607	9.54
669.639	4.54
669.67	3.54
669.701	-7.46
669.733	-26.46
669.764	-11.46
669.796	-4.46
669.827	-11.46
669.859	-4.46
669.89	5.54
669.922	7.54
669.953	6.54
669.985	-5.46
670.016	7.54
670.047	-0.46
670.079	-4.46
670.11	12.54
670.142	9.54
670.173	13.54
670.204	-14.46
670.236	7.54
670.267	-10.46
670.299	10.54
670.33	0.54
670.362	13.54
670.393	-6.46
670.424	16.54
670.456	-7.46
670.487	-5.46
670.518	0.54
670.55	10.54
670.581	10.54
670.613	16.54
670.644	5.54
670.675	6.54
670.707	-21.46
670.738	-3.46
670.769	-6.46
670.801	3.54
670.832	-6.46
670.864	-20.46
670.895	11.54
670.926	6.54
670.958	4.54
670.989	7.54
671.02	2.54
671.052	-9.46
671.083	-6.46
671.114	1.54
671.146	0.54
671.177	8.54
671.208	-10.46
671.24	4.54
671.271	16.54
671.302	-0.46
671.333	-0.46
671.365	1.54
671.396	-7.46
671.427	13.54
671.459	2.54
671.49	2.54
671.521	16.54
671.553	-1.46
671.584	15.54
671.615	-7.46
671.646	1.54
671.678	8.54
671.709	-7.46
671.74	-13.46
671.771	1.54
671.803	-2.46
671.834	-3.46
671.865	-9.46
671.896	4.54
671.928	2.54
671.959	-8.46
671.99	6.54
672.021	0.54
672.053	-7.46
672.084	16.54
672.115	11.54
672.146	11.54
672.178	5.54
672.209	-6.46
672.24	-9.46
672.271	14.54
672.303	-8.46
672.334	4.54
672.365	1.54
672.396	-1.46
672.427	-11.46
672.459	2.54
672.49	20.54
672.521	26.54
672.552	10.54
672.583	8.54
672.615	3.54
672.646	22.54
672.677	-9.46
672.708	-15.46
672.739	11.54
672.77	2.54
672.802	19.54
672.833	6.54
672.864	8.54
672.895	-18.46
672.926	-2.46
672.957	-5.46
672.989	-6.46
673.02	8.54
673.051	-9.46
673.082	-1.46
673.113	-13.46
673.144	3.54
673.175	14.54
673.206	3.54
673.238	7.54
673.269	14.54
673.3	7.54
673.331	13.54
673.362	-8.46
673.393	-2.46
673.424	-0.46
673.455	16.54
673.487	18.54
673.518	5.54
673.549	6.54
673.58	16.54
673.611	21.54
673.642	2.54
673.673	-18.46
673.704	5.54
673.735	8.54
673.766	-2.46
673.797	-18.46
673.828	-1.46
673.86	-1.46
673.891	-3.46
673.922	-18.46
673.953	2.54
673.984	8.54
674.015	16.54
674.046	-3.46
674.077	4.54
674.108	10.54
674.139	8.54
674.17	12.54
674.201	8.54
674.232	7.54
674.263	-11.46
674.294	-5.46
674.325	-0.46
674.356	14.54
674.387	13.54
674.418	13.54
674.449	-3.46
674.48	-1.46
674.511	-3.46
674.542	-4.46
674.573	-1.46
674.604	7.54
674.635	13.54
674.666	6.54
674.697	15.54
674.728	-2.46
674.759	-5.46
674.79	-20.46
674.821	-0.46
674.852	-6.46
674.883	-18.46
674.914	-13.46
674.945	9.54
674.976	15.54
675.007	-0.46
675.038	-8.46
675.069	-16.46
675.1	-6.46
675.131	-2.46
675.162	1.54
675.193	3.54
675.224	-3.46
675.254	8.54
675.285	-6.46
675.316	12.54
675.347	2.54
675.378	3.54
675.409	2.54
675.44	11.54
675.471	-0.46
675.502	-20.46
675.533	-3.46
675.564	-10.46
675.595	0.54
675.625	22.54
675.656	26.54
675.687	4.54
675.718	-17.46
675.749	10.54
675.78	-3.46
675.811	-2.46
675.842	0.54
675.873	0.54
675.903	-2.46
675.934	-12.46
675.965	8.54
675.996	7.54
676.027	12.54
676.058	-17.46
676.089	-2.46
676.119	9.54
676.15	0.54
676.181	-0.46
676.212	12.54
676.243	15.54
676.274	2.54
676.304	-0.46
676.335	-20.46
676.366	11.54
676.397	9.54
676.428	7.54
676.459	6.54
676.489	-3.46
676.52	5.54
676.551	-7.46
676.582	5.54
676.613	-0.46
676.643	-9.46
676.674	14.54
676.705	3.54
676.736	2.54
676.767	15.54
676.797	-0.46
676.828	0.54
676.859	0.54
676.89	-0.46
676.92	-3.46
676.951	8.54
676.982	13.54
677.013	13.54
677.044	28.54
677.074	9.54
677.105	-3.46
677.136	10.54
677.167	0.54
677.197	7.54
677.228	-7.46
677.259	-0.46
677.289	11.54
677.32	-20.46
677.351	-0.46
677.382	-11.46
677.412	-17.46
677.443	13.54
677.474	17.54
677.505	-6.46
677.535	-5.46
677.566	9.54
677.597	-2.46
677.627	2.54
677.658	0.54
677.689	-2.46
677.72	1.54
677.75	-6.46
677.781	-8.46
677.812	6.54
677.842	9.54
677.873	3.54
677.904	-1.46
677.934	3.54
677.965	0.54
677.996	-13.46
678.026	16.54
678.057	12.54
678.088	-8.46
678.118	-5.46
678.149	-8.46
678.18	-10.46
678.21	10.54
678.241	18.54
678.272	-6.46
678.302	-8.46
678.333	15.54
678.363	19.54
678.394	15.54
678.425	7.54
678.455	2.54
678.486	11.54
678.517	-1.46
678.547	12.54
678.578	16.54
678.608	-13.46
678.639	-1.46
678.67	3.54
678.7	6.54
678.731	-3.46
678.761	6.54
678.792	2.54
678.823	15.54
678.853	9.54
678.884	-13.46
678.914	11.54
678.945	11.54
678.975	6.54
679.006	8.54
679.037	-2.46
679.067	5.54
679.098	6.54
679.128	-8.46
679.159	-7.46
679.189	10.54
679.22	-3.46
679.25	-6.46
679.281	7.54
679.312	-13.46
679.342	0.54
679.373	21.54
679.403	-1.46
679.434	3.54
679.464	-8.46
679.495	-2.46
679.525	0.54
679.556	0.54
679.586	5.54
679.617	7.54
679.647	-2.46
679.678	-4.46
679.708	9.54
679.739	3.54
679.769	2.54
679.8	5.54
679.83	8.54
679.861	9.54
679.891	0.54
679.922	-17.46
679.952	-8.46
679.983	-4.46
680.013	-2.46
680.044	13.54
680.074	19.54
680.105	16.54
680.135	-1.46
680.165	10.54
680.196	13.54
680.226	-6.46
680.257	-8.46
680.287	4.54
680.318	16.54
680.348	-10.46
680.379	-0.46
680.409	14.54
680.439	-14.46
680.47	6.54
680.5	1.54
680.531	-8.46
680.561	1.54
680.592	13.54
680.622	24.54
680.652	-2.46
680.683	11.54
680.713	-14.46
680.744	-10.46
680.774	-2.46
680.804	25.54
680.835	10.54
680.865	7.54
680.896	9.54
680.926	0.54
680.956	-0.46
680.987	-3.46
681.017	1.54
681.047	2.54
681.078	-20.46
681.108	-5.46
681.139	-4.46
681.169	-6.46
681.199	14.54
681.23	7.54
681.26	8.54
681.29	-0.46
681.321	-20.46
681.351	-3.46
681.381	-7.46
681.412	-3.46
681.442	-1.46
681.472	0.54
681.503	6.54
681.533	16.54
681.563	8.54
681.594	6.54
681.624	2.54
681.654	-10.46
681.685	-4.46
681.715	0.54
681.745	9.54
681.775	0.54
681.806	18.54
681.836	8.54
681.866	-5.46
681.897	7.54
681.927	3.54
681.957	2.54
681.987	8.54
682.018	5.54
682.048	7.54
682.078	-2.46
682.109	16.54
682.139	9.54
682.169	19.54
682.199	-0.46
682.23	-16.46
682.26	5.54
682.29	-2.46
682.32	3.54
682.351	2.54
682.381	-5.46
682.411	7.54
682.441	0.54
682.472	-18.46
682.502	17.54
682.532	4.54
682.562	0.54
682.592	-0.46
682.623	9.54
682.653	1.54
682.683	-5.46
682.713	8.54
682.743	-15.46
682.774	0.54
682.804	5.54
682.834	8.54
682.864	10.54
682.894	-2.46
682.925	3.54
682.955	2.54
682.985	-11.46
683.015	4.54
683.045	15.54
683.076	-3.46
683.106	-1.46
683.136	3.54
683.166	0.54
683.196	3.54
683.226	-10.46
683.257	2.54
683.287	-8.46
683.317	3.54
683.347	17.54
683.377	-2.46
683.407	-0.46
683.437	-4.46
683.468	10.54
683.498	-1.46
683.528	5.54
683.558	-5.46
683.588	10.54
683.618	-3.46
683.648	-9.46
683.678	-0.46
683.708	11.54
683.739	4.54
683.769	1.54
683.799	7.54
683.829	14.54
683.859	18.54
683.889	19.54
683.919	-6.46
683.949	3.54
683.979	-12.46
684.009	-2.46
684.039	-0.46
684.07	-3.46
684.1	21.54
684.13	28.54
684.16	3.54
684.19	-9.46
684.22	-10.46
684.25	3.54
684.28	-0.46
684.31	16.54
684.34	7.54
684.37	8.54
684.4	-1.46
684.43	1.54
684.46	2.54
684.49	3.54
684.52	20.54
684.55	16.54
684.58	12.54
684.61	12.54
684.64	14.54
684.67	23.54
684.7	8.54
684.73	10.54
684.76	10.54
684.79	36.54
684.82	4.54
684.85	-9.46
684.88	10.54
684.91	4.54
684.94	-8.46
684.97	-3.46
685	-3.46
685.03	-15.46
685.06	-0.46
685.09	5.54
685.12	25.54
685.15	-4.46
685.18	10.54
685.21	14.54
685.24	11.54
685.27	7.54
685.3	-5.46
685.33	8.54
685.36	5.54
685.39	-0.46
685.42	-7.46
685.45	-1.46
685.48	-1.46
685.51	9.54
685.54	8.54
685.569	20.54
685.599	1.54
685.629	3.54
685.659	-4.46
685.689	-3.46
685.719	-3.46
685.749	-0.46
685.779	39.54
685.809	14.54
685.839	0.54
685.869	4.54
685.898	9.54
685.928	13.54
685.958	9.54
685.988	8.54
686.018	2.54
686.048	6.54
686.078	5.54
686.108	9.54
686.137	8.54
686.167	16.54
686.197	0.54
686.227	-6.46
686.257	31.54
686.287	7.54
686.317	8.54
686.346	-0.46
686.376	-2.46
686.406	-5.46
686.436	16.54
686.466	14.54
686.496	6.54
686.525	8.54
686.555	-3.46
686.585	18.54
686.615	25.54
686.645	-0.46
686.675	1.54
686.704	9.54
686.734	19.54
686.764	-14.46
686.794	1.54
686.824	6.54
686.853	26.54
686.883	12.54
686.913	9.54
686.943	-9.46
686.973	-2.46
687.002	13.54
687.032	11.54
687.062	5.54
687.092	22.54
687.121	5.54
687.151	0.54
687.181	6.54
687.211	7.54
687.24	-3.46
687.27	5.54
687.3	-7.46
687.33	12.54
687.359	-8.46
687.389	7.54
687.419	7.54
687.449	11.54
687.478	16.54
687.508	-4.46
687.538	-11.46
687.568	14.54
687.597	-13.46
687.627	-2.46
687.657	-15.46
687.686	7.54
687.716	1.54
687.746	-4.46
687.776	-6.46
687.805	7.54
687.835	0.54
687.865	9.54
687.894	7.54
687.924	-0.46
687.954	1.54
687.983	-15.46
688.013	17.54
688.043	6.54
688.072	7.54
688.102	-2.46
688.132	-1.46
688.161	16.54
688.191	-2.46
688.221	9.54
688.25	9.54
688.28	6.54
688.31	-0.46
688.339	-7.46
688.369	-9.46
688.399	-3.46
688.428	1.54
688.458	5.54
688.488	7.54
688.517	16.54
688.547	5.54
688.576	30.54
688.606	12.54
688.636	-9.46
688.665	5.54
688.695	6.54
688.725	10.54
688.754	3.54
688.784	8.54
688.813	13.54
688.843	4.54
688.873	5.54
688.902	6.54
688.932	6.54
688.961	9.54
688.991	16.54
689.02	25.54
689.05	6.54
689.08	5.54
689.109	17.54
689.139	5.54
689.168	-0.46
689.198	-1.46
689.227	12.54
689.257	-2.46
689.287	12.54
689.316	1.54
689.346	-20.46
689.375	0.54
689.405	9.54
689.434	3.54
689.464	-5.46
689.493	-1.46
689.523	1.54
689.552	-1.46
689.582	16.54
689.611	-1.46
689.641	-0.46
689.67	-2.46
689.7	8.54
689.73	20.54
689.759	10.54
689.789	9.54
689.818	7.54
689.848	12.54
689.877	41.54
689.906	9.54
689.936	-5.46
689.965	-4.46
689.995	17.54
690.024	4.54
690.054	2.54
690.083	14.54
690.113	12.54
690.142	5.54
690.172	-6.46
690.201	-2.46
690.231	13.54
690.26	21.54
690.29	11.54
690.319	6.54
690.348	3.54
690.378	-0.46
690.407	6.54
690.437	2.54
690.466	11.54
690.496	3.54
690.525	16.54
690.555	5.54
690.584	2.54
690.613	7.54
690.643	14.54
690.672	16.54
690.702	-1.46
690.731	3.54
690.76	4.54
690.79	-5.46
690.819	-7.46
690.849	12.54
690.878	7.54
690.907	8.54
690.937	21.54
690.966	11.54
690.996	2.54
691.025	-7.46
691.054	5.54
691.084	20.54
691.113	9.54
691.142	12.54
691.172	15.54
691.201	19.54
691.23	7.54
691.26	14.54
691.289	-6.46
691.319	-13.46
691.348	-8.46
691.377	10.54
691.407	18.54
691.436	23.54
691.465	4.54
691.495	16.54
691.524	-2.46
691.553	2.54
691.583	-2.46
691.612	26.54
691.641	18.54
691.67	13.54
691.7	4.54
691.729	-6.46
691.758	2.54
691.788	-2.46
691.817	17.54
691.846	0.54
691.876	5.54
691.905	-2.46
691.934	-4.46
691.963	16.54
691.993	7.54
692.022	-2.46
692.051	-7.46
692.081	36.54
692.11	27.54
692.139	10.54
692.168	-3.46
692.198	11.54
692.227	25.54
692.256	9.54
692.285	4.54
692.315	-6.46
692.344	3.54
692.373	-3.46
692.402	-18.46
692.432	-5.46
692.461	-2.46
692.49	-2.46
692.519	-13.46
692.548	-0.46
692.578	12.54
692.607	5.54
692.636	4.54
692.665	6.54
692.694	-2.46
692.724	-0.46
692.753	3.54
692.782	21.54
692.811	-0.46
692.84	2.54
692.87	10.54
692.899	1.54
692.928	4.54
692.957	1.54
692.986	7.54
693.016	8.54
693.045	10.54
693.074	-9.46
693.103	-7.46
693.132	-8.46
693.161	30.54
693.191	12.54
693.22	-5.46
693.249	-5.46
693.278	-6.46
693.307	27.54
693.336	-2.46
693.365	-22.46
693.395	-17.46
693.424	10.54
693.453	7.54
693.482	7.54
693.511	10.54
693.54	10.54
693.569	24.54
693.598	26.54
693.628	24.54
693.657	15.54
693.686	27.54
693.715	14.54
693.744	18.54
693.773	25.54
693.802	7.54
693.831	-2.46
693.86	19.54
693.889	-0.46
693.919	11.54
693.948	5.54
693.977	3.54
694.006	11.54
694.035	-0.46
694.064	-8.46
694.093	-3.46
694.122	8.54
694.151	-0.46
694.18	7.54
694.209	30.54
694.238	3.54
694.267	17.54
694.296	13.54
694.325	15.54
694.354	21.54
694.383	5.54
694.412	-4.46
694.441	4.54
694.471	-11.46
694.5	-6.46
694.529	10.54
694.558	12.54
694.587	19.54
694.616	5.54
694.645	0.54
694.674	29.54
694.703	13.54
694.732	7.54
694.761	13.54
694.79	14.54
694.819	-18.46
694.848	7.54
694.877	20.54
694.906	39.54
694.935	14.54
694.963	16.54
694.992	2.54
695.021	7.54
695.05	21.54
695.079	15.54
695.108	12.54
695.137	25.54
695.166	6.54
695.195	-15.46
695.224	7.54
695.253	1.54
695.282	3.54
695.311	19.54
695.34	4.54
695.369	9.54
695.398	5.54
695.427	22.54
695.456	17.54
695.485	0.54
695.513	4.54
695.542	8.54
695.571	-9.46
695.6	19.54
695.629	16.54
695.658	12.54
695.687	9.54
695.716	12.54
695.745	30.54
695.774	-5.46
695.802	6.54
695.831	8.54
695.86	18.54
695.889	6.54
695.918	15.54
695.947	6.54
695.976	-4.46
696.005	-3.46
696.033	15.54
696.062	20.54
696.091	2.54
696.12	6.54
696.149	17.54
696.178	5.54
696.207	7.54
696.235	-6.46
696.264	8.54
696.293	7.54
696.322	9.54
696.351	13.54
696.38	-3.46
696.408	-7.46
696.437	1.54
696.466	20.54
696.495	17.54
696.524	20.54
696.553	4.54
696.581	-2.46
696.61	-8.46
696.639	-8.46
696.668	-3.46
696.697	9.54
696.725	8.54
696.754	-0.46
696.783	-10.46
696.812	-1.46
696.84	11.54
696.869	14.54
696.898	19.54
696.927	1.54
696.956	20.54
696.984	-7.46
697.013	2.54
697.042	2.54
697.071	19.54
697.099	9.54
697.128	13.54
697.157	-0.46
697.186	24.54
697.214	8.54
697.243	4.54
697.272	11.54
697.301	23.54
697.329	13.54
697.358	21.54
697.387	19.54
697.415	16.54
697.444	-4.46
697.473	6.54
697.502	-1.46
697.53	11.54
697.559	-7.46
697.588	-7.46
697.616	0.54
697.645	2.54
697.674	11.54
697.703	-7.46
697.731	11.54
697.76	12.54
697.789	13.54
697.817	9.54
697.846	20.54
697.875	6.54
697.903	22.54
697.932	17.54
697.961	18.54
697.989	26.54
698.018	16.54
698.047	1.54
698.075	2.54
698.104	-5.46
698.133	10.54
698.161	5.54
698.19	8.54
698.218	-10.46
698.247	25.54
698.276	-5.46
698.304	9.54
698.333	9.54
698.362	9.54
698.39	1.54
698.419	13.54
698.447	-5.46
698.476	10.54
698.505	7.54
698.533	10.54
698.562	16.54
698.591	0.54
698.619	-14.46
698.648	13.54
698.676	15.54
698.705	8.54
698.733	-5.46
698.762	13.54
698.791	0.54
698.819	4.54
698.848	-7.46
698.876	5.54
698.905	12.54
698.933	22.54
698.962	10.54
698.991	6.54
699.019	11.54
699.048	1.54
699.076	4.54
699.105	-4.46
699.133	1.54
699.162	5.54
699.19	8.54
699.219	10.54
699.248	10.54
699.276	1.54
699.305	1.54
699.333	4.54
699.362	18.54
699.39	-0.46
699.419	0.54
699.447	2.54
699.476	8.54
699.504	8.54
699.533	7.54
699.561	-13.46
699.59	-9.46
699.618	-1.46
699.647	5.54
699.675	5.54
699.704	11.54
699.732	14.54
699.761	19.54
699.789	-2.46
699.818	6.54
699.846	-9.46
699.874	-7.46
699.903	-6.46
699.931	3.54
699.96	17.54
699.988	10.54
700.017	4.54
700.045	15.54
700.074	12.54
700.102	11.54
700.13	-20.46
700.159	21.54
700.187	23.54
700.216	5.54
700.244	0.54
700.273	4.54
700.301	-3.46
700.329	20.54
700.358	13.54
700.386	-5.46
700.415	7.54
700.443	-0.46
700.472	9.54
700.5	-14.46
700.528	1.54
700.557	5.54
700.585	5.54
700.614	5.54
700.642	6.54
700.67	7.54
700.699	9.54
700.727	8.54
700.755	4.54
700.784	10.54
700.812	3.54
700.841	26.54
700.869	2.54
700.897	-11.46
700.926	1.54
700.954	24.54
700.982	9.54
701.011	-3.46
701.039	19.54
701.067	2.54
701.096	7.54
701.124	-0.46
701.152	18.54
701.181	-6.46
701.209	-9.46
701.237	6.54
701.266	10.54
701.294	0.54
701.322	12.54
701.351	4.54
701.379	1.54
701.407	-4.46
701.435	-0.46
701.464	21.54
701.492	42.54
701.52	-10.46
701.549	6.54
701.577	-10.46
701.605	-11.46
701.634	-0.46
701.662	12.54
701.69	-14.46
701.718	-10.46
701.747	15.54
701.775	8.54
701.803	-4.46
701.831	17.54
701.86	1.54
701.888	12.54
701.916	12.54
701.944	-1.46
701.973	8.54
702.001	-3.46
702.029	-6.46
702.057	-6.46
702.086	-13.46
702.114	-3.46
702.142	20.54
702.17	1.54
702.199	1.54
702.227	5.54
702.255	-3.46
702.283	-14.46
702.311	0.54
702.34	4.54
702.368	-3.46
702.396	-2.46
702.424	6.54
702.452	-0.46
702.481	-0.46
702.509	-4.46
702.537	1.54
702.565	1.54
702.593	-7.46
702.621	5.54
702.65	1.54
702.678	19.54
702.706	8.54
702.734	-8.46
702.762	8.54
702.79	16.54
702.819	5.54
702.847	-0.46
702.875	21.54
702.903	15.54
702.931	-1.46
702.959	9.54
702.988	8.54
703.016	-13.46
703.044	8.54
703.072	9.54
703.1	7.54
703.128	-2.46
703.156	12.54
703.184	5.54
703.212	10.54
703.241	3.54
703.269	2.54
703.297	6.54
703.325	-0.46
703.353	0.54
703.381	-7.46
703.409	2.54
703.437	-6.46
703.465	2.54
703.493	-5.46
703.522	0.54
703.55	8.54
703.578	14.54
703.606	-9.46
703.634	-3.46
703.662	8.54
703.69	2.54
703.718	5.54
703.746	24.54
703.774	-3.46
703.802	14.54
703.83	3.54
703.858	2.54
703.886	2.54
703.914	-17.46
703.942	10.54
703.97	-2.46
703.998	1.54
704.027	21.54
704.055	11.54
704.083	1.54
704.111	-11.46
704.139	-3.46
704.167	-3.46
704.195	-2.46
704.223	-4.46
704.251	-1.46
704.279	13.54
704.307	4.54
704.335	-16.46
704.363	10.54
704.391	-2.46
704.419	-1.46
704.447	-3.46
704.475	11.54
704.503	-4.46
704.531	24.54
704.558	14.54
704.586	10.54
704.614	5.54
704.642	15.54
704.67	-11.46
704.698	-6.46
704.726	5.54
704.754	2.54
704.782	-0.46
704.81	7.54
704.838	16.54
704.866	8.54
704.894	-9.46
704.922	-20.46
704.95	13.54
704.978	2.54
705.006	-7.46
705.034	12.54
705.061	-1.46
705.089	1.54
705.117	7.54
705.145	14.54
705.173	8.54
705.201	-6.46
705.229	5.54
705.257	-4.46
705.285	-3.46
705.313	9.54
705.34	-8.46
705.368	5.54
705.396	6.54
705.424	-1.46
705.452	3.54
705.48	8.54
705.508	-3.46
705.536	-0.46
705.563	-8.46
705.591	-13.46
705.619	6.54
705.647	-1.46
705.675	4.54
705.703	7.54
705.731	5.54
705.758	3.54
705.786	0.54
705.814	17.54
705.842	3.54
705.87	6.54
705.898	15.54
705.925	-5.46
705.953	3.54
705.981	-7.46
706.009	-6.46
706.037	17.54
706.065	2.54
706.092	-11.46
706.12	-7.46
706.148	6.54
706.176	5.54
706.204	22.54
706.231	-2.46
706.259	7.54
706.287	2.54
706.315	9.54
706.342	28.54
706.37	13.54
706.398	12.54
706.426	7.54
706.454	-3.46
706.481	16.54
706.509	-0.46
706.537	3.54
706.565	5.54
706.592	22.54
706.62	8.54
706.648	2.54
706.676	-9.46
706.703	4.54
706.731	-1.46
706.759	-6.46
706.787	8.54
706.814	-3.46
706.842	-2.46
706.87	-3.46
706.897	8.54
706.925	7.54
706.953	14.54
706.981	3.54
707.008	17.54
707.036	-4.46
707.064	1.54
707.091	-9.46
707.119	12.54
707.147	16.54
707.174	-6.46
707.202	11.54
707.23	1.54
707.258	11.54
707.285	-11.46
707.313	6.54
707.341	-7.46
707.368	-11.46
707.396	7.54
707.424	1.54
707.451	11.54
707.479	-5.46
707.507	3.54
707.534	4.54
707.562	-3.46
707.59	-4.46
707.617	-7.46
707.645	-5.46
707.672	-9.46
707.7	13.54
707.728	5.54
707.755	19.54
707.783	-3.46
707.811	9.54
707.838	6.54
707.866	2.54
707.893	-4.46
707.921	-8.46
707.949	-11.46
707.976	4.54
708.004	-0.46
708.031	2.54
708.059	-10.46
708.087	-1.46
708.114	-9.46
708.142	-6.46
708.169	-4.46
708.197	-7.46
708.225	-12.46
708.252	-3.46
708.28	10.54
708.307	-8.46
708.335	5.54
708.362	0.54
708.39	-14.46
708.418	-10.46
708.445	-2.46
708.473	-1.46
708.5	-0.46
708.528	0.54
708.555	-1.46
708.583	2.54
708.61	-6.46
708.638	-2.46
708.665	-5.46
708.693	-11.46
708.72	1.54
708.748	-4.46
708.776	-5.46
708.803	11.54
708.831	10.54
708.858	21.54
708.886	-2.46
708.913	13.54
708.941	3.54
708.968	12.54
708.996	9.54
709.023	9.54
709.051	-9.46
709.078	-6.46
709.105	21.54
709.133	0.54
709.16	-1.46
709.188	21.54
709.215	18.54
709.243	-6.46
709.27	-9.46
709.298	6.54
709.325	-3.46
709.353	-5.46
709.38	14.54
709.408	7.54
709.435	5.54
709.462	13.54
709.49	10.54
709.517	0.54
709.545	-3.46
709.572	8.54
709.6	-2.46
709.627	1.54
709.655	-3.46
709.682	9.54
709.709	-14.46
709.737	10.54
709.764	-6.46
709.792	15.54
709.819	4.54
709.846	7.54
709.874	25.54
709.901	5.54
709.929	5.54
709.956	22.54
709.983	-3.46
710.011	4.54
710.038	2.54
710.066	12.54
710.093	11.54
710.12	2.54
710.148	-2.46
710.175	-0.46
710.202	-6.46
710.23	19.54
710.257	4.54
710.284	5.54
710.312	-19.46
710.339	6.54
710.366	3.54
710.394	-2.46
710.421	2.54
710.448	3.54
710.476	-10.46
710.503	8.54
710.53	25.54
710.558	17.54
710.585	3.54
710.612	9.54
710.64	4.54
710.667	9.54
710.694	0.54
710.722	4.54
710.749	-18.46
710.776	-3.46
710.804	23.54
710.831	-1.46
710.858	3.54
710.885	9.54
710.913	6.54
710.94	22.54
710.967	-6.46
710.995	-6.46
711.022	5.54
711.049	3.54
711.076	-4.46
711.104	-2.46
711.131	-14.46
711.158	4.54
711.185	18.54
711.213	-14.46
711.24	4.54
711.267	1.54
711.294	4.54
711.322	6.54
711.349	2.54
711.376	12.54
711.403	4.54
711.431	-6.46
711.458	3.54
711.485	-3.46
711.512	-8.46
711.54	-6.46
711.567	-10.46
711.594	4.54
711.621	17.54
711.648	7.54
711.676	0.54
711.703	-3.46
711.73	-16.46
711.757	6.54
711.784	2.54
711.812	6.54
711.839	3.54
711.866	2.54
711.893	-3.46
711.92	0.54
711.947	-2.46
711.975	6.54
712.002	5.54
712.029	15.54
712.056	10.54
712.083	14.54
712.11	1.54
712.138	5.54
712.165	7.54
712.192	-5.46
712.219	-7.46
712.246	-6.46
712.273	-23.46
712.3	-15.46
712.328	0.54
712.355	2.54
712.382	-19.46
712.409	24.54
712.436	-5.46
712.463	14.54
712.49	8.54
712.517	5.54
712.544	2.54
712.572	3.54
712.599	-0.46
712.626	6.54
712.653	-6.46
712.68	2.54
712.707	4.54
712.734	-2.46
712.761	-3.46
712.788	8.54
712.815	2.54
712.842	18.54
712.87	-10.46
712.897	-24.46
712.924	-16.46
712.951	8.54
712.978	16.54
713.005	26.54
713.032	18.54
713.059	-6.46
713.086	-1.46
713.113	-6.46
713.14	-14.46
713.167	-3.46
713.194	7.54
713.221	9.54
713.248	24.54
713.275	1.54
713.302	-5.46
713.329	-2.46
713.356	2.54
713.383	2.54
713.41	4.54
713.437	-2.46
713.464	8.54
713.491	20.54
713.518	12.54
713.545	-5.46
713.572	2.54
713.599	13.54
713.626	-1.46
713.653	10.54
713.68	-1.46
713.707	1.54
713.734	5.54
713.761	-0.46
713.788	-2.46
713.815	12.54
713.842	-1.46
713.869	6.54
713.896	17.54
713.923	2.54
713.95	6.54
713.977	6.54
714.004	5.54
714.031	-0.46
714.058	-20.46
714.085	1.54
714.112	-1.46
714.139	0.54
714.165	-1.46
714.192	0.54
714.219	-1.46
714.246	13.54
714.273	2.54
714.3	-3.46
714.327	6.54
714.354	15.54
714.381	8.54
714.408	3.54
714.435	-0.46
714.461	1.54
714.488	8.54
714.515	2.54
714.542	5.54
714.569	0.54
714.596	-5.46
714.623	-8.46
714.65	0.54
714.677	-0.46
714.703	1.54
714.73	9.54
714.757	8.54
714.784	15.54
714.811	8.54
714.838	6.54
714.865	5.54
714.891	4.54
714.918	10.54
714.945	4.54
714.972	11.54
714.999	11.54
715.026	-4.46
715.052	21.54
715.079	6.54
715.106	-10.46
715.133	-0.46
715.16	-3.46
715.187	6.54
715.213	12.54
715.24	-13.46
715.267	-16.46
715.294	-1.46
715.321	-7.46
715.347	1.54
715.374	-2.46
715.401	0.54
715.428	21.54
715.455	11.54
715.481	-1.46
715.508	10.54
715.535	9.54
715.562	27.54
715.588	9.54
715.615	7.54
715.642	2.54
715.669	22.54
715.695	4.54
715.722	-1.46
715.749	18.54
715.776	14.54
715.802	-3.46
715.829	14.54
715.856	-0.46
715.883	23.54
715.909	-0.46
715.936	9.54
715.963	9.54
715.99	2.54
716.016	-0.46
716.043	-7.46
716.07	2.54
716.096	1.54
716.123	-10.46
716.15	11.54
716.177	20.54
716.203	6.54
716.23	-2.46
716.257	10.54
716.283	10.54
716.31	-6.46
716.337	7.54
716.363	-7.46
716.39	-5.46
716.417	24.54
716.443	-0.46
716.47	6.54
716.497	13.54
716.523	19.54
716.55	-4.46
716.577	14.54
716.603	-1.46
716.63	16.54
716.657	18.54
716.683	-1.46
716.71	1.54
716.737	4.54
716.763	1.54
716.79	14.54
716.817	28.54
716.843	10.54
716.87	-0.46
716.897	7.54
716.923	7.54
716.95	-1.46
716.976	-9.46
717.003	1.54
717.03	8.54
717.056	-4.46
717.083	5.54
717.109	5.54
717.136	14.54
717.163	-7.46
717.189	5.54
717.216	3.54
717.242	-17.46
717.269	-9.46
717.296	5.54
717.322	12.54
717.349	12.54
717.375	5.54
717.402	4.54
717.428	6.54
717.455	6.54
717.481	5.54
717.508	7.54
717.535	11.54
717.561	-3.46
717.588	3.54
717.614	1.54
717.641	5.54
717.667	12.54
717.694	6.54
717.72	13.54
717.747	11.54
717.773	-17.46
717.8	5.54
717.826	3.54
717.853	8.54
717.88	2.54
717.906	-1.46
717.933	4.54
717.959	9.54
717.986	12.54
718.012	15.54
718.039	18.54
718.065	-7.46
718.092	4.54
718.118	-3.46
718.144	1.54
718.171	23.54
718.197	23.54
718.224	4.54
718.25	-4.46
718.277	14.54
718.303	16.54
718.33	15.54
718.356	-3.46
718.383	-10.46
718.409	0.54
718.436	17.54
718.462	-0.46
718.489	-14.46
718.515	18.54
718.541	-1.46
718.568	5.54
718.594	-5.46
718.621	8.54
718.647	-2.46
718.674	17.54
718.7	19.54
718.726	-7.46
718.753	2.54
718.779	1.54
718.806	-5.46
718.832	-4.46
718.858	-5.46
718.885	-2.46
718.911	9.54
718.938	17.54
718.964	7.54
718.99	8.54
719.017	10.54
719.043	6.54
719.07	5.54
719.096	-4.46
719.122	-3.46
719.149	4.54
719.175	19.54
719.201	1.54
719.228	5.54
719.254	1.54
719.281	8.54
719.307	-1.46
719.333	6.54
719.36	10.54
719.386	-6.46
719.412	16.54
719.439	2.54
719.465	0.54
719.491	10.54
719.518	24.54
719.544	-0.46
719.57	6.54
719.597	7.54
719.623	2.54
719.649	3.54
719.675	-2.46
719.702	11.54
719.728	19.54
719.754	0.54
719.781	6.54
719.807	-6.46
719.833	5.54
719.86	1.54
719.886	3.54
719.912	-0.46
719.938	-0.46
719.965	4.54
719.991	0.54
720.017	6.54
720.044	5.54
720.07	7.54
720.096	10.54
720.122	-4.46
720.149	8.54
720.175	8.54
720.201	-8.46
720.227	-11.46
720.254	14.54
720.28	7.54
720.306	-3.46
720.332	10.54
720.359	5.54
720.385	9.54
720.411	13.54
720.437	20.54
720.463	5.54
720.49	9.54
720.516	-3.46
720.542	-10.46
720.568	8.54
720.595	20.54
720.621	8.54
720.647	-0.46
720.673	13.54
720.699	4.54
720.725	19.54
720.752	1.54
720.778	11.54
720.804	13.54
720.83	15.54
720.856	-6.46
720.883	5.54
720.909	0.54
720.935	3.54
720.961	10.54
720.987	4.54
721.013	12.54
721.04	8.54
721.066	0.54
721.092	-2.46
721.118	2.54
721.144	5.54
721.17	-4.46
721.196	5.54
721.223	-9.46
721.249	2.54
721.275	23.54
721.301	2.54
721.327	24.54
721.353	19.54
721.379	-1.46
721.405	13.54
721.432	9.54
721.458	-6.46
721.484	8.54
721.51	0.54
721.536	19.54
721.562	1.54
721.588	7.54
721.614	12.54
721.64	-0.46
721.666	-6.46
721.693	4.54
721.719	2.54
721.745	-9.46
721.771	-9.46
721.797	0.54
721.823	8.54
721.849	9.54
721.875	7.54
721.901	9.54
721.927	2.54
721.953	-2.46
721.979	26.54
722.005	2.54
722.031	1.54
722.057	-2.46
722.083	4.54
722.109	8.54
722.135	15.54
722.161	-1.46
722.187	1.54
722.214	-12.46
722.24	10.54
722.266	-4.46
722.292	11.54
722.318	5.54
722.344	0.54
722.37	11.54
722.396	2.54
722.422	4.54
722.448	9.54
722.474	1.54
722.5	20.54
722.526	1.54
722.552	1.54
722.578	2.54
722.603	6.54
722.629	-7.46
722.655	-4.46
722.681	-5.46
722.707	2.54
722.733	-0.46
722.759	-7.46
722.785	1.54
722.811	9.54
722.837	-5.46
722.863	6.54
722.889	4.54
722.915	9.54
722.941	1.54
722.967	2.54
722.993	6.54
723.019	8.54
723.045	19.54
723.071	5.54
723.097	-11.46
723.122	-3.46
723.148	-3.46
723.174	2.54
723.2	10.54
723.226	12.54
723.252	7.54
723.278	-4.46
723.304	-9.46
723.33	-4.46
723.356	4.54
723.381	2.54
723.407	-6.46
723.433	-1.46
723.459	-16.46
723.485	7.54
723.511	15.54
723.537	-3.46
723.563	9.54
723.588	11.54
723.614	26.54
723.64	2.54
723.666	21.54
723.692	5.54
723.718	0.54
723.744	5.54
723.769	8.54
723.795	-0.46
723.821	10.54
723.847	0.54
723.873	5.54
723.899	0.54
723.924	3.54
723.95	0.54
723.976	-17.46
724.002	0.54
724.028	-1.46
724.053	-4.46
724.079	-8.46
724.105	8.54
724.131	12.54
724.157	6.54
724.182	17.54
724.208	10.54
724.234	9.54
724.26	8.54
724.286	28.54
724.311	3.54
724.337	-5.46
724.363	-3.46
724.389	16.54
724.415	17.54
724.44	1.54
724.466	-1.46
724.492	3.54
724.518	9.54
724.543	0.54
724.569	12.54
724.595	6.54
724.621	8.54
724.646	14.54
724.672	-0.46
724.698	-2.46
724.723	5.54
724.749	15.54
724.775	-1.46
724.801	8.54
724.826	-0.46
724.852	-3.46
724.878	-13.46
724.904	-13.46
724.929	2.54
724.955	-1.46
724.981	5.54
725.006	4.54
725.032	-0.46
725.058	6.54
725.083	4.54
725.109	13.54
725.135	9.54
725.161	7.54
725.186	-2.46
725.212	1.54
725.238	24.54
725.263	2.54
725.289	-6.46
725.315	3.54
725.34	1.54
725.366	9.54
725.392	-4.46
725.417	16.54
725.443	24.54
725.468	17.54
725.494	5.54
725.52	8.54
725.545	7.54
725.571	1.54
725.597	-1.46
725.622	-7.46
725.648	-7.46
725.674	3.54
725.699	5.54
725.725	5.54
725.75	31.54
725.776	-9.46
725.802	0.54
725.827	11.54
725.853	5.54
725.878	13.54
725.904	-2.46
725.93	9.54
725.955	5.54
725.981	0.54
726.006	-3.46
726.032	23.54
726.057	-10.46
726.083	3.54
726.109	-5.46
726.134	-3.46
726.16	-2.46
726.185	1.54
726.211	-0.46
726.236	-1.46
726.262	11.54
726.288	0.54
726.313	16.54
726.339	10.54
726.364	-2.46
726.39	6.54
726.415	3.54
726.441	1.54
726.466	-5.46
726.492	7.54
726.517	11.54
726.543	6.54
726.568	-2.46
726.594	0.54
726.619	14.54
726.645	8.54
726.67	9.54
726.696	5.54
726.721	-9.46
726.747	-11.46
726.772	8.54
726.798	5.54
726.823	15.54
726.849	15.54
726.874	0.54
726.9	2.54
726.925	10.54
726.951	13.54
726.976	12.54
727.002	-9.46
727.027	-3.46
727.053	11.54
727.078	-0.46
727.104	10.54
727.129	-2.46
727.155	10.54
727.18	4.54
727.205	4.54
727.231	5.54
727.256	13.54
727.282	5.54
727.307	9.54
727.333	2.54
727.358	-9.46
727.383	0.54
727.409	-2.46
727.434	11.54
727.46	-8.46
727.485	-9.46
727.511	4.54
727.536	-14.46
727.561	9.54
727.587	1.54
727.612	-9.46
727.637	-5.46
727.663	11.54
727.688	40.54
727.714	-0.46
727.739	6.54
727.764	-0.46
727.79	4.54
727.815	13.54
727.841	16.54
727.866	-5.46
727.891	14.54
727.917	-12.46
727.942	-17.46
727.967	-3.46
727.993	-6.46
728.018	-3.46
728.043	8.54
728.069	8.54
728.094	13.54
728.119	-11.46
728.145	11.54
728.17	-5.46
728.195	5.54
728.221	13.54
728.246	5.54
728.271	14.54
728.297	12.54
728.322	-3.46
728.347	8.54
728.373	6.54
728.398	18.54
728.423	3.54
728.448	-1.46
728.474	1.54
728.499	18.54
728.524	-15.46
728.55	-11.46
728.575	4.54
728.6	-2.46
728.625	-7.46
728.651	12.54
728.676	10.54
728.701	0.54
728.727	8.54
728.752	-10.46
728.777	3.54
728.802	5.54
728.828	15.54
728.853	-1.46
728.878	2.54
728.903	1.54
728.929	7.54
728.954	-4.46
728.979	14.54
729.004	2.54
729.03	0.54
729.055	15.54
729.08	-14.46
729.105	-7.46
729.13	18.54
729.156	19.54
729.181	6.54
729.206	-5.46
729.231	-20.46
729.256	2.54
729.282	4.54
729.307	-12.46
729.332	-2.46
729.357	10.54
729.382	6.54
729.408	4.54
729.433	-10.46
729.458	5.54
729.483	12.54
729.508	10.54
729.533	4.54
729.559	12.54
729.584	-16.46
729.609	-0.46
729.634	0.54
729.659	-4.46
729.684	-1.46
729.71	36.54
729.735	12.54
729.76	10.54
729.785	-6.46
729.81	5.54
729.835	0.54
729.86	13.54
729.886	0.54
729.911	-3.46
729.936	-10.46
729.961	2.54
729.986	-6.46
730.011	5.54
730.036	5.54
730.061	8.54
730.086	16.54
730.112	8.54
730.137	13.54
730.162	0.54
730.187	-10.46
730.212	8.54
730.237	0.54
730.262	-3.46
730.287	6.54
730.312	16.54
730.337	2.54
730.362	22.54
730.387	12.54
730.413	4.54
730.438	7.54
730.463	18.54
730.488	-2.46
730.513	1.54
730.538	5.54
730.563	13.54
730.588	13.54
730.613	23.54
730.638	-3.46
730.663	-15.46
730.688	15.54
730.713	-6.46
730.738	2.54
730.763	0.54
730.788	-2.46
730.813	-3.46
730.838	3.54
730.863	6.54
730.888	-4.46
730.913	-5.46
730.938	-5.46
730.963	0.54
730.988	0.54
731.013	22.54
731.038	6.54
731.063	-0.46
731.088	9.54
731.113	9.54
731.138	22.54
731.163	-11.46
731.188	-5.46
731.213	11.54
731.238	14.54
731.263	8.54
731.288	0.54
731.313	-0.46
731.338	-7.46
731.363	-6.46
731.388	1.54
731.413	6.54
731.438	7.54
731.463	7.54
731.487	4.54
731.512	-8.46
731.537	1.54
731.562	7.54
731.587	11.54
731.612	4.54
731.637	-2.46
731.662	7.54
731.687	-0.46
731.712	-1.46
731.737	12.54
731.762	6.54
731.786	7.54
731.811	3.54
731.836	-2.46
731.861	-2.46
731.886	-6.46
731.911	14.54
731.936	17.54
731.961	-0.46
731.986	-1.46
732.01	4.54
732.035	8.54
732.06	12.54
732.085	2.54
732.11	1.54
732.135	4.54
732.16	4.54
732.184	-2.46
732.209	4.54
732.234	1.54
732.259	3.54
732.284	15.54
732.309	6.54
732.334	-1.46
732.358	-10.46
732.383	-1.46
732.408	-4.46
732.433	-2.46
732.458	-3.46
732.482	-2.46
732.507	4.54
732.532	8.54
732.557	23.54
732.582	8.54
732.607	1.54
732.631	-6.46
732.656	-7.46
732.681	-2.46
732.706	4.54
732.73	-3.46
732.755	0.54
732.78	2.54
732.805	-4.46
732.83	-14.46
732.854	2.54
732.879	17.54
732.904	2.54
732.929	8.54
732.953	15.54
732.978	6.54
733.003	-7.46
733.028	-1.46
733.052	13.54
733.077	2.54
733.102	7.54
733.127	6.54
733.151	-6.46
733.176	9.54
733.201	6.54
733.226	-3.46
733.25	2.54
733.275	-7.46
733.3	6.54
733.324	30.54
733.349	18.54
733.374	17.54
733.399	5.54
733.423	-7.46
733.448	1.54
733.473	-6.46
733.497	13.54
733.522	-1.46
733.547	10.54
733.571	26.54
733.596	13.54
733.621	6.54
733.646	0.54
733.67	-4.46
733.695	5.54
733.72	9.54
733.744	15.54
733.769	13.54
733.794	39.54
733.818	2.54
733.843	3.54
733.867	-15.46
733.892	-1.46
733.917	1.54
733.941	8.54
733.966	-9.46
733.991	0.54
734.015	28.54
734.04	3.54
734.065	10.54
734.089	11.54
734.114	3.54
734.138	8.54
734.163	-4.46
734.188	9.54
734.212	33.54
734.237	20.54
734.261	16.54
734.286	-1.46
734.311	-3.46
734.335	-12.46
734.36	4.54
734.384	5.54
734.409	-2.46
734.434	-3.46
734.458	-0.46
734.483	12.54
734.507	2.54
734.532	-14.46
734.556	12.54
734.581	3.54
734.606	5.54
734.63	1.54
734.655	2.54
734.679	12.54
734.704	12.54
734.728	0.54
734.753	-5.46
734.777	1.54
734.802	15.54
734.826	16.54
734.851	1.54
734.876	1.54
734.9	9.54
734.925	-6.46
734.949	-11.46
734.974	5.54
734.998	14.54
735.023	5.54
735.047	-7.46
735.072	27.54
735.096	1.54
735.121	10.54
735.145	0.54
735.17	12.54
735.194	21.54
735.219	-7.46
735.243	7.54
735.268	11.54
735.292	16.54
735.317	8.54
735.341	8.54
735.365	-11.46
735.39	1.54
735.414	5.54
735.439	7.54
735.463	4.54
735.488	5.54
735.512	10.54
735.537	-3.46
735.561	1.54
735.586	4.54
735.61	7.54
735.634	1.54
735.659	6.54
735.683	24.54
735.708	-5.46
735.732	-1.46
735.757	-6.46
735.781	6.54
735.805	12.54
735.83	-5.46
735.854	4.54
735.879	4.54
735.903	31.54
735.927	15.54
735.952	12.54
735.976	20.54
736.001	16.54
736.025	8.54
736.049	5.54
736.074	4.54
736.098	14.54
736.123	22.54
736.147	-9.46
736.171	-2.46
736.196	7.54
736.22	-9.46
736.244	2.54
736.269	8.54
736.293	0.54
736.317	-1.46
736.342	-2.46
736.366	4.54
736.39	-1.46
736.415	0.54
736.439	16.54
736.463	13.54
736.488	-3.46
736.512	9.54
736.536	10.54
736.561	8.54
736.585	-6.46
736.609	1.54
736.634	-1.46
736.658	11.54
736.682	-6.46
736.707	-13.46
736.731	-3.46
736.755	0.54
736.78	6.54
736.804	22.54
736.828	21.54
736.852	10.54
736.877	9.54
736.901	9.54
736.925	12.54
736.949	13.54
736.974	1.54
736.998	-8.46
737.022	-11.46
737.047	-6.46
737.071	-1.46
737.095	4.54
737.119	21.54
737.144	12.54
737.168	4.54
737.192	3.54
737.216	20.54
737.241	11.54
737.265	14.54
737.289	13.54
737.313	5.54
737.337	-1.46
737.362	-5.46
737.386	-4.46
737.41	4.54
737.434	10.54
737.459	8.54
737.483	15.54
737.507	1.54
737.531	8.54
737.555	-1.46
737.58	2.54
737.604	9.54
737.628	-5.46
737.652	-1.46
737.676	0.54
737.701	13.54
737.725	2.54
737.749	-1.46
737.773	0.54
737.797	0.54
737.821	10.54
737.846	-0.46
737.87	30.54
737.894	-2.46
737.918	-12.46
737.942	-2.46
737.966	11.54
737.99	-2.46
738.015	7.54
738.039	16.54
738.063	2.54
738.087	10.54
738.111	0.54
738.135	21.54
738.159	-7.46
738.184	3.54
738.208	9.54
738.232	-1.46
738.256	25.54
738.28	17.54
738.304	14.54
738.328	0.54
738.352	21.54
738.376	23.54
738.4	7.54
738.425	-10.46
738.449	6.54
738.473	9.54
738.497	7.54
738.521	12.54
738.545	15.54
738.569	3.54
738.593	2.54
738.617	0.54
738.641	8.54
738.665	7.54
738.689	1.54
738.713	3.54
738.737	5.54
738.762	17.54
738.786	1.54
738.81	-19.46
738.834	1.54
738.858	1.54
738.882	9.54
738.906	1.54
738.93	3.54
738.954	9.54
738.978	4.54
739.002	6.54
739.026	2.54
739.05	6.54
739.074	17.54
739.098	29.54
739.122	15.54
739.146	-1.46
739.17	12.54
739.194	18.54
739.218	1.54
739.242	-4.46
739.266	4.54
739.29	28.54
739.314	6.54
739.338	24.54
739.362	13.54
739.386	1.54
739.41	-12.46
739.434	-7.46
739.458	17.54
739.482	4.54
739.506	1.54
739.53	-5.46
739.554	9.54
739.577	6.54
739.601	16.54
739.625	-1.46
739.649	12.54
739.673	7.54
739.697	17.54
739.721	-3.46
739.745	9.54
739.769	26.54
739.793	13.54
739.817	5.54
739.841	-10.46
739.865	1.54
739.889	0.54
739.912	12.54
739.936	1.54
739.96	4.54
739.984	4.54
740.008	6.54
740.032	-2.46
740.056	-18.46
740.08	0.54
740.104	-4.46
740.127	14.54
740.151	13.54
740.175	22.54
740.199	15.54
740.223	56.54
740.247	17.54
740.271	16.54
740.295	0.54
740.318	10.54
740.342	2.54
740.366	12.54
740.39	20.54
740.414	7.54
740.438	3.54
740.461	17.54
740.485	3.54
740.509	6.54
740.533	2.54
740.557	2.54
740.581	5.54
740.604	-0.46
740.628	1.54
740.652	4.54
740.676	5.54
740.7	8.54
740.723	-1.46
740.747	0.54
740.771	-0.46
740.795	1.54
740.819	10.54
740.842	7.54
740.866	-2.46
740.89	12.54
740.914	0.54
740.938	0.54
740.961	16.54
740.985	16.54
741.009	19.54
741.033	12.54
741.056	4.54
741.08	1.54
741.104	18.54
741.128	-4.46
741.151	14.54
741.175	2.54
741.199	1.54
741.223	-3.46
741.246	-9.46
741.27	0.54
741.294	10.54
741.318	0.54
741.341	-1.46
741.365	15.54
741.389	0.54
741.413	28.54
741.436	21.54
741.46	6.54
741.484	8.54
741.507	9.54
741.531	23.54
741.555	14.54
741.579	13.54
741.602	8.54
741.626	9.54
741.65	-9.46
741.673	5.54
741.697	12.54
741.721	-3.46
741.744	-11.46
741.768	11.54
741.792	2.54
741.815	-2.46
741.839	17.54
741.863	23.54
741.886	15.54
741.91	13.54
741.934	-1.46
741.957	-8.46
741.981	17.54
742.005	3.54
742.028	-1.46
742.052	9.54
742.075	13.54
742.099	3.54
742.123	-3.46
742.146	10.54
742.17	16.54
742.194	-6.46
742.217	-5.46
742.241	-1.46
742.264	1.54
742.288	30.54
742.312	12.54
742.335	-2.46
742.359	12.54
742.382	13.54
742.406	12.54
742.43	-10.46
742.453	-1.46
742.477	-0.46
742.5	-1.46
742.524	-11.46
742.548	0.54
742.571	5.54
742.595	-1.46
742.618	0.54
742.642	-0.46
742.665	21.54
742.689	10.54
742.712	3.54
742.736	9.54
742.76	8.54
742.783	5.54
742.807	22.54
742.83	17.54
742.854	-15.46
742.877	1.54
742.901	5.54
742.924	-6.46
742.948	-1.46
742.971	2.54
742.995	11.54
743.018	-9.46
743.042	8.54
743.065	4.54
743.089	-12.46
743.112	-0.46
743.136	-8.46
743.159	-9.46
743.183	-3.46
743.206	1.54
743.23	-7.46
743.253	5.54
743.277	14.54
743.3	-7.46
743.324	1.54
743.347	3.54
743.371	4.54
743.394	10.54
743.418	13.54
743.441	-1.46
743.465	6.54
743.488	13.54
743.512	0.54
743.535	11.54
743.558	0.54
743.582	13.54
743.605	0.54
743.629	5.54
743.652	12.54
743.676	3.54
743.699	10.54
743.723	14.54
743.746	8.54
743.769	-2.46
743.793	6.54
743.816	-19.46
743.84	7.54
743.863	-8.46
743.886	8.54
743.91	4.54
743.933	23.54
743.957	13.54
743.98	5.54
744.003	4.54
744.027	3.54
744.05	7.54
744.074	-5.46
744.097	-16.46
744.12	8.54
744.144	1.54
744.167	14.54
744.19	0.54
744.214	0.54
744.237	-15.46
744.26	9.54
744.284	-7.46
744.307	0.54
744.331	10.54
744.354	-15.46
744.377	0.54
744.401	-1.46
744.424	-16.46
744.447	-21.46
744.471	-10.46
