Data from HighRes_H2D2_15_04_11_07_2024_HR4C61891__56__15-05-40-043.txt Node

Date: Thu Nov 07 15:05:40 EST 2024
User: crc00042
Spectrometer: HR4C6189
Trigger mode: 4
Integration Time (sec): 1.000000E-1
Scans to average: 1
Electric dark correction enabled: true
Nonlinearity correction enabled: false
Boxcar width: 0
XAxis mode: Wavelengths
Number of Pixels in Spectrum: 3648
>>>>>Begin Spectral Data<<<<<
639.567	-46.23
639.602	-46.23
639.636	-46.23
639.67	-19.23
639.704	-7.23
639.738	-13.23
639.773	7.77
639.807	-4.23
639.841	-1.23
639.875	12.77
639.909	-5.23
639.943	-8.23
639.978	-6.23
640.012	6.77
640.046	12.77
640.08	9.77
640.114	-6.23
640.148	-5.23
640.182	-0.23
640.217	-5.23
640.251	4.77
640.285	-2.23
640.319	-13.23
640.353	-4.23
640.387	0.77
640.421	11.77
640.455	-3.23
640.49	-7.23
640.524	2.77
640.558	25.77
640.592	1.77
640.626	0.77
640.66	19.77
640.694	-4.23
640.728	7.77
640.762	8.77
640.796	5.77
640.83	25.77
640.865	-1.23
640.899	4.77
640.933	10.77
640.967	-2.23
641.001	14.77
641.035	21.77
641.069	-5.23
641.103	-8.23
641.137	-12.23
641.171	-0.23
641.205	1.77
641.239	12.77
641.273	19.77
641.307	-3.23
641.341	-6.23
641.375	24.77
641.409	6.77
641.443	2.77
641.477	-0.23
641.511	16.77
641.545	10.77
641.579	-3.23
641.614	18.77
641.648	27.77
641.682	-1.23
641.716	15.77
641.75	17.77
641.784	7.77
641.818	-9.23
641.852	22.77
641.886	-15.23
641.919	9.77
641.953	7.77
641.987	-16.23
642.021	7.77
642.055	7.77
642.089	8.77
642.123	3.77
642.157	-5.23
642.191	-4.23
642.225	12.77
642.259	-7.23
642.293	-0.23
642.327	-0.23
642.361	4.77
642.395	0.77
642.429	24.77
642.463	2.77
642.497	23.77
642.531	1.77
642.565	4.77
642.599	4.77
642.633	-16.23
642.666	10.77
642.7	-15.23
642.734	7.77
642.768	-8.23
642.802	-6.23
642.836	12.77
642.87	1.77
642.904	3.77
642.938	7.77
642.972	-5.23
643.005	9.77
643.039	18.77
643.073	8.77
643.107	21.77
643.141	12.77
643.175	-5.23
643.209	0.77
643.243	10.77
643.276	0.77
643.31	-10.23
643.344	-0.23
643.378	1.77
643.412	15.77
643.446	8.77
643.48	5.77
643.513	15.77
643.547	2.77
643.581	-11.23
643.615	1.77
643.649	-0.23
643.683	2.77
643.716	-8.23
643.75	11.77
643.784	-3.23
643.818	6.77
643.852	-3.23
643.886	13.77
643.919	17.77
643.953	-6.23
643.987	6.77
644.021	7.77
644.055	7.77
644.088	8.77
644.122	-8.23
644.156	-8.23
644.19	4.77
644.224	-9.23
644.257	7.77
644.291	3.77
644.325	-11.23
644.359	15.77
644.392	9.77
644.426	15.77
644.46	9.77
644.494	-8.23
644.527	0.77
644.561	0.77
644.595	-1.23
644.629	-1.23
644.662	-1.23
644.696	14.77
644.73	12.77
644.764	3.77
644.797	-3.23
644.831	-7.23
644.865	7.77
644.899	1.77
644.932	28.77
644.966	10.77
645	4.77
645.033	9.77
645.067	0.77
645.101	1.77
645.135	-21.23
645.168	-2.23
645.202	-3.23
645.236	10.77
645.269	21.77
645.303	1.77
645.337	2.77
645.37	-6.23
645.404	-1.23
645.438	4.77
645.471	5.77
645.505	10.77
645.539	2.77
645.572	-19.23
645.606	-6.23
645.64	13.77
645.673	3.77
645.707	6.77
645.741	8.77
645.774	-6.23
645.808	23.77
645.842	-3.23
645.875	2.77
645.909	-0.23
645.943	14.77
645.976	-4.23
646.01	2.77
646.043	2.77
646.077	12.77
646.111	13.77
646.144	20.77
646.178	22.77
646.212	-7.23
646.245	-7.23
646.279	7.77
646.312	18.77
646.346	15.77
646.38	-1.23
646.413	2.77
646.447	7.77
646.48	13.77
646.514	14.77
646.547	-1.23
646.581	-2.23
646.615	-7.23
646.648	-15.23
646.682	8.77
646.715	11.77
646.749	1.77
646.782	1.77
646.816	-11.23
646.85	8.77
646.883	-6.23
646.917	9.77
646.95	-5.23
646.984	12.77
647.017	-3.23
647.051	8.77
647.084	18.77
647.118	15.77
647.151	8.77
647.185	19.77
647.218	-18.23
647.252	-0.23
647.285	0.77
647.319	0.77
647.353	2.77
647.386	14.77
647.42	20.77
647.453	7.77
647.487	15.77
647.52	5.77
647.553	-14.23
647.587	-6.23
647.62	3.77
647.654	3.77
647.687	-11.23
647.721	1.77
647.754	25.77
647.788	11.77
647.821	3.77
647.855	1.77
647.888	10.77
647.922	15.77
647.955	15.77
647.989	12.77
648.022	13.77
648.055	18.77
648.089	-1.23
648.122	26.77
648.156	-7.23
648.189	21.77
648.223	5.77
648.256	19.77
648.29	10.77
648.323	0.77
648.356	19.77
648.39	12.77
648.423	9.77
648.457	10.77
648.49	16.77
648.523	9.77
648.557	0.77
648.59	8.77
648.624	2.77
648.657	5.77
648.69	2.77
648.724	-13.23
648.757	4.77
648.791	-4.23
648.824	-3.23
648.857	20.77
648.891	11.77
648.924	17.77
648.957	10.77
648.991	7.77
649.024	23.77
649.057	5.77
649.091	-6.23
649.124	16.77
649.158	9.77
649.191	20.77
649.224	4.77
649.258	16.77
649.291	1.77
649.324	7.77
649.358	-6.23
649.391	11.77
649.424	9.77
649.458	12.77
649.491	11.77
649.524	5.77
649.557	2.77
649.591	-6.23
649.624	4.77
649.657	-8.23
649.691	12.77
649.724	0.77
649.757	5.77
649.791	-1.23
649.824	3.77
649.857	12.77
649.89	1.77
649.924	-10.23
649.957	-6.23
649.99	-6.23
650.023	12.77
650.057	0.77
650.09	5.77
650.123	-7.23
650.157	12.77
650.19	14.77
650.223	5.77
650.256	-4.23
650.29	3.77
650.323	13.77
650.356	8.77
650.389	19.77
650.423	19.77
650.456	18.77
650.489	3.77
650.522	13.77
650.555	18.77
650.589	5.77
650.622	12.77
650.655	13.77
650.688	-2.23
650.721	-3.23
650.755	7.77
650.788	22.77
650.821	6.77
650.854	17.77
650.887	11.77
650.921	2.77
650.954	-3.23
650.987	9.77
651.02	0.77
651.053	0.77
651.087	-5.23
651.12	33.77
651.153	19.77
651.186	-5.23
651.219	4.77
651.252	9.77
651.286	6.77
651.319	-1.23
651.352	9.77
651.385	8.77
651.418	-0.23
651.451	18.77
651.484	7.77
651.518	14.77
651.551	22.77
651.584	-8.23
651.617	10.77
651.65	11.77
651.683	12.77
651.716	1.77
651.749	3.77
651.783	-9.23
651.816	2.77
651.849	-0.23
651.882	9.77
651.915	-13.23
651.948	2.77
651.981	-6.23
652.014	-2.23
652.047	-11.23
652.08	-10.23
652.114	7.77
652.147	-10.23
652.18	19.77
652.213	31.77
652.246	9.77
652.279	2.77
652.312	1.77
652.345	20.77
652.378	-1.23
652.411	18.77
652.444	4.77
652.477	5.77
652.51	10.77
652.543	-1.23
652.576	11.77
652.609	3.77
652.642	11.77
652.675	27.77
652.709	4.77
652.742	-8.23
652.775	9.77
652.808	7.77
652.841	15.77
652.874	12.77
652.907	3.77
652.94	4.77
652.973	-2.23
653.006	-3.23
653.039	0.77
653.072	6.77
653.105	-0.23
653.138	9.77
653.171	-8.23
653.204	12.77
653.237	5.77
653.27	-8.23
653.303	22.77
653.336	7.77
653.368	-4.23
653.401	-5.23
653.434	-2.23
653.467	13.77
653.5	-2.23
653.533	-15.23
653.566	6.77
653.599	5.77
653.632	3.77
653.665	8.77
653.698	-6.23
653.731	-13.23
653.764	13.77
653.797	-2.23
653.83	25.77
653.863	16.77
653.896	12.77
653.929	22.77
653.961	8.77
653.994	17.77
654.027	-2.23
654.06	11.77
654.093	14.77
654.126	12.77
654.159	-13.23
654.192	4.77
654.225	-1.23
654.258	7.77
654.29	6.77
654.323	11.77
654.356	3.77
654.389	-3.23
654.422	-4.23
654.455	-8.23
654.488	6.77
654.521	-3.23
654.553	-7.23
654.586	11.77
654.619	11.77
654.652	11.77
654.685	27.77
654.718	14.77
654.751	13.77
654.783	9.77
654.816	15.77
654.849	9.77
654.882	-8.23
654.915	-2.23
654.948	8.77
654.98	-3.23
655.013	23.77
655.046	2.77
655.079	-7.23
655.112	-2.23
655.144	1.77
655.177	19.77
655.21	27.77
655.243	4.77
655.276	11.77
655.308	0.77
655.341	-2.23
655.374	4.77
655.407	12.77
655.44	-13.23
655.472	5.77
655.505	-0.23
655.538	-9.23
655.571	6.77
655.603	-5.23
655.636	15.77
655.669	4.77
655.702	13.77
655.734	6.77
655.767	2.77
655.8	11.77
655.833	11.77
655.865	26.77
655.898	21.77
655.931	19.77
655.964	21.77
655.996	25.77
656.029	38.77
656.062	32.77
656.095	48.77
656.127	90.77
656.16	213.77
656.193	607.77
656.225	943.77
656.258	536.77
656.291	226.77
656.324	187.77
656.356	387.77
656.389	765.77
656.422	670.77
656.454	233.77
656.487	79.77
656.52	34.77
656.552	4.77
656.585	10.77
656.618	25.77
656.65	19.77
656.683	5.77
656.716	8.77
656.748	16.77
656.781	13.77
656.814	-3.23
656.846	-2.23
656.879	-4.23
656.912	12.77
656.944	-21.23
656.977	-1.23
657.01	3.77
657.042	14.77
657.075	7.77
657.108	-0.23
657.14	3.77
657.173	16.77
657.205	17.77
657.238	14.77
657.271	10.77
657.303	-20.23
657.336	9.77
657.369	0.77
657.401	16.77
657.434	9.77
657.466	13.77
657.499	-3.23
657.532	-4.23
657.564	14.77
657.597	7.77
657.629	15.77
657.662	14.77
657.694	2.77
657.727	-5.23
657.76	13.77
657.792	10.77
657.825	7.77
657.857	-1.23
657.89	2.77
657.922	12.77
657.955	-8.23
657.987	4.77
658.02	9.77
658.053	18.77
658.085	5.77
658.118	9.77
658.15	21.77
658.183	19.77
658.215	9.77
658.248	5.77
658.28	5.77
658.313	2.77
658.345	6.77
658.378	3.77
658.41	2.77
658.443	11.77
658.475	1.77
658.508	-4.23
658.54	17.77
658.573	3.77
658.605	6.77
658.638	-1.23
658.67	4.77
658.703	-2.23
658.735	-7.23
658.768	-6.23
658.8	-16.23
658.833	28.77
658.865	4.77
658.898	-11.23
658.93	-0.23
658.963	8.77
658.995	-16.23
659.028	3.77
659.06	-12.23
659.092	1.77
659.125	-14.23
659.157	-4.23
659.19	-4.23
659.222	12.77
659.255	-0.23
659.287	-3.23
659.32	-0.23
659.352	2.77
659.384	10.77
659.417	-8.23
659.449	1.77
659.482	-2.23
659.514	-5.23
659.546	4.77
659.579	-0.23
659.611	0.77
659.644	0.77
659.676	1.77
659.708	4.77
659.741	3.77
659.773	6.77
659.806	3.77
659.838	1.77
659.87	0.77
659.903	-23.23
659.935	15.77
659.967	-2.23
660	3.77
660.032	-14.23
660.065	20.77
660.097	-0.23
660.129	10.77
660.162	-3.23
660.194	19.77
660.226	4.77
660.259	19.77
660.291	10.77
660.323	-5.23
660.356	-4.23
660.388	-11.23
660.42	-2.23
660.453	7.77
660.485	9.77
660.517	10.77
660.55	23.77
660.582	0.77
660.614	10.77
660.647	-22.23
660.679	-8.23
660.711	-8.23
660.743	-15.23
660.776	6.77
660.808	-3.23
660.84	-0.23
660.873	-1.23
660.905	6.77
660.937	-11.23
660.969	4.77
661.002	5.77
661.034	20.77
661.066	0.77
661.099	4.77
661.131	19.77
661.163	-1.23
661.195	-5.23
661.228	5.77
661.26	-1.23
661.292	-6.23
661.324	2.77
661.357	13.77
661.389	12.77
661.421	11.77
661.453	11.77
661.485	4.77
661.518	8.77
661.55	-11.23
661.582	-21.23
661.614	2.77
661.647	8.77
661.679	-9.23
661.711	7.77
661.743	12.77
661.775	3.77
661.808	15.77
661.84	-18.23
661.872	0.77
661.904	-4.23
661.936	10.77
661.969	3.77
662.001	-12.23
662.033	12.77
662.065	1.77
662.097	6.77
662.129	-6.23
662.162	-5.23
662.194	10.77
662.226	5.77
662.258	12.77
662.29	6.77
662.322	-11.23
662.355	-0.23
662.387	12.77
662.419	14.77
662.451	14.77
662.483	9.77
662.515	1.77
662.547	7.77
662.58	0.77
662.612	-4.23
662.644	4.77
662.676	0.77
662.708	18.77
662.74	-1.23
662.772	0.77
662.804	13.77
662.836	-1.23
662.869	3.77
662.901	25.77
662.933	7.77
662.965	14.77
662.997	11.77
663.029	-15.23
663.061	1.77
663.093	-6.23
663.125	13.77
663.157	10.77
663.189	2.77
663.221	3.77
663.254	2.77
663.286	1.77
663.318	6.77
663.35	-6.23
663.382	12.77
663.414	24.77
663.446	7.77
663.478	-19.23
663.51	17.77
663.542	-2.23
663.574	9.77
663.606	3.77
663.638	1.77
663.67	6.77
663.702	-5.23
663.734	1.77
663.766	5.77
663.798	-2.23
663.83	16.77
663.862	14.77
663.894	16.77
663.926	13.77
663.958	10.77
663.99	9.77
664.022	-4.23
664.054	7.77
664.086	-12.23
664.118	-5.23
664.15	-4.23
664.182	0.77
664.214	1.77
664.246	10.77
664.278	-7.23
664.31	-0.23
664.342	-3.23
664.374	7.77
664.406	10.77
664.438	2.77
664.47	20.77
664.502	1.77
664.534	13.77
664.566	7.77
664.598	17.77
664.63	4.77
664.662	-1.23
664.693	-6.23
664.725	-12.23
664.757	-1.23
664.789	-15.23
664.821	-5.23
664.853	15.77
664.885	10.77
664.917	4.77
664.949	11.77
664.981	11.77
665.013	5.77
665.045	-6.23
665.076	6.77
665.108	8.77
665.14	-4.23
665.172	8.77
665.204	-10.23
665.236	-9.23
665.268	7.77
665.3	0.77
665.331	-9.23
665.363	6.77
665.395	-2.23
665.427	-5.23
665.459	-0.23
665.491	4.77
665.523	10.77
665.555	7.77
665.586	4.77
665.618	4.77
665.65	7.77
665.682	11.77
665.714	6.77
665.746	-5.23
665.777	2.77
665.809	16.77
665.841	17.77
665.873	1.77
665.905	-4.23
665.937	12.77
665.968	9.77
666	-1.23
666.032	7.77
666.064	-0.23
666.096	5.77
666.127	14.77
666.159	14.77
666.191	26.77
666.223	18.77
666.255	-11.23
666.286	-9.23
666.318	13.77
666.35	24.77
666.382	7.77
666.413	-8.23
666.445	-9.23
666.477	-0.23
666.509	-4.23
666.54	17.77
666.572	4.77
666.604	0.77
666.636	4.77
666.667	2.77
666.699	26.77
666.731	-1.23
666.763	-3.23
666.794	-9.23
666.826	1.77
666.858	-0.23
666.89	3.77
666.921	11.77
666.953	2.77
666.985	9.77
667.017	21.77
667.048	2.77
667.08	7.77
667.112	6.77
667.143	-8.23
667.175	11.77
667.207	6.77
667.238	10.77
667.27	14.77
667.302	8.77
667.334	9.77
667.365	22.77
667.397	7.77
667.429	7.77
667.46	21.77
667.492	3.77
667.524	-7.23
667.555	-6.23
667.587	-1.23
667.619	-0.23
667.65	10.77
667.682	21.77
667.714	22.77
667.745	10.77
667.777	8.77
667.808	14.77
667.84	18.77
667.872	9.77
667.903	16.77
667.935	3.77
667.967	10.77
667.998	22.77
668.03	-4.23
668.061	20.77
668.093	6.77
668.125	7.77
668.156	12.77
668.188	-0.23
668.22	13.77
668.251	11.77
668.283	13.77
668.314	17.77
668.346	6.77
668.377	4.77
668.409	12.77
668.441	18.77
668.472	21.77
668.504	8.77
668.535	11.77
668.567	21.77
668.599	7.77
668.63	0.77
668.662	-1.23
668.693	12.77
668.725	-0.23
668.756	14.77
668.788	1.77
668.819	2.77
668.851	9.77
668.882	18.77
668.914	-6.23
668.946	10.77
668.977	4.77
669.009	7.77
669.04	8.77
669.072	1.77
669.103	13.77
669.135	10.77
669.166	4.77
669.198	8.77
669.229	10.77
669.261	-2.23
669.292	1.77
669.324	3.77
669.355	18.77
669.387	-4.23
669.418	6.77
669.45	-12.23
669.481	-5.23
669.513	7.77
669.544	9.77
669.576	-4.23
669.607	8.77
669.639	9.77
669.67	-6.23
669.701	20.77
669.733	-5.23
669.764	8.77
669.796	6.77
669.827	-1.23
669.859	-17.23
669.89	17.77
669.922	20.77
669.953	11.77
669.985	8.77
670.016	11.77
670.047	4.77
670.079	-0.23
670.11	18.77
670.142	7.77
670.173	5.77
670.204	8.77
670.236	16.77
670.267	-14.23
670.299	19.77
670.33	19.77
670.362	12.77
670.393	-8.23
670.424	-1.23
670.456	-19.23
670.487	7.77
670.518	11.77
670.55	3.77
670.581	8.77
670.613	9.77
670.644	9.77
670.675	-29.23
670.707	-6.23
670.738	13.77
670.769	10.77
670.801	-1.23
670.832	14.77
670.864	7.77
670.895	11.77
670.926	12.77
670.958	14.77
670.989	2.77
671.02	5.77
671.052	2.77
671.083	12.77
671.114	14.77
671.146	11.77
671.177	4.77
671.208	-3.23
671.24	0.77
671.271	-12.23
671.302	2.77
671.333	-2.23
671.365	6.77
671.396	-4.23
671.427	8.77
671.459	15.77
671.49	-2.23
671.521	15.77
671.553	10.77
671.584	15.77
671.615	10.77
671.646	7.77
671.678	-4.23
671.709	0.77
671.74	-8.23
671.771	-11.23
671.803	2.77
671.834	18.77
671.865	5.77
671.896	3.77
671.928	4.77
671.959	-2.23
671.99	10.77
672.021	-0.23
672.053	0.77
672.084	-0.23
672.115	-0.23
672.146	-3.23
672.178	-17.23
672.209	-2.23
672.24	15.77
672.271	31.77
672.303	0.77
672.334	-11.23
672.365	-8.23
672.396	7.77
672.427	-2.23
672.459	-6.23
672.49	25.77
672.521	28.77
672.552	16.77
672.583	16.77
672.615	8.77
672.646	4.77
672.677	-4.23
672.708	-13.23
672.739	-4.23
672.77	11.77
672.802	4.77
672.833	7.77
672.864	10.77
672.895	-13.23
672.926	-12.23
672.957	2.77
672.989	5.77
673.02	1.77
673.051	-12.23
673.082	23.77
673.113	14.77
673.144	18.77
673.175	2.77
673.206	-0.23
673.238	6.77
673.269	0.77
673.3	-23.23
673.331	20.77
673.362	-0.23
673.393	15.77
673.424	10.77
673.455	15.77
673.487	10.77
673.518	3.77
673.549	-1.23
673.58	-8.23
673.611	7.77
673.642	1.77
673.673	7.77
673.704	-3.23
673.735	7.77
673.766	4.77
673.797	10.77
673.828	10.77
673.86	-12.23
673.891	-16.23
673.922	-6.23
673.953	-2.23
673.984	2.77
674.015	-3.23
674.046	15.77
674.077	17.77
674.108	0.77
674.139	-10.23
674.17	-2.23
674.201	4.77
674.232	7.77
674.263	-4.23
674.294	-1.23
674.325	0.77
674.356	17.77
674.387	25.77
674.418	8.77
674.449	-9.23
674.48	-4.23
674.511	-5.23
674.542	14.77
674.573	-8.23
674.604	0.77
674.635	2.77
674.666	7.77
674.697	11.77
674.728	6.77
674.759	6.77
674.79	-12.23
674.821	-4.23
674.852	11.77
674.883	0.77
674.914	1.77
674.945	15.77
674.976	10.77
675.007	-5.23
675.038	-6.23
675.069	-13.23
675.1	-13.23
675.131	17.77
675.162	-4.23
675.193	-20.23
675.224	-15.23
675.254	6.77
675.285	5.77
675.316	13.77
675.347	3.77
675.378	7.77
675.409	-4.23
675.44	-1.23
675.471	-3.23
675.502	11.77
675.533	1.77
675.564	18.77
675.595	6.77
675.625	17.77
675.656	15.77
675.687	-0.23
675.718	4.77
675.749	16.77
675.78	4.77
675.811	4.77
675.842	5.77
675.873	-6.23
675.903	8.77
675.934	-9.23
675.965	8.77
675.996	8.77
676.027	2.77
676.058	6.77
676.089	-6.23
676.119	-0.23
676.15	-4.23
676.181	8.77
676.212	-0.23
676.243	7.77
676.274	1.77
676.304	17.77
676.335	-12.23
676.366	-0.23
676.397	-2.23
676.428	4.77
676.459	12.77
676.489	-5.23
676.52	8.77
676.551	7.77
676.582	-0.23
676.613	15.77
676.643	-2.23
676.674	7.77
676.705	11.77
676.736	8.77
676.767	15.77
676.797	9.77
676.828	17.77
676.859	-1.23
676.89	-7.23
676.92	21.77
676.951	4.77
676.982	-6.23
677.013	17.77
677.044	20.77
677.074	7.77
677.105	-6.23
677.136	10.77
677.167	15.77
677.197	18.77
677.228	-4.23
677.259	-11.23
677.289	0.77
677.32	-15.23
677.351	-1.23
677.382	-12.23
677.412	-16.23
677.443	6.77
677.474	12.77
677.505	3.77
677.535	20.77
677.566	-14.23
677.597	-9.23
677.627	0.77
677.658	-15.23
677.689	1.77
677.72	3.77
677.75	9.77
677.781	7.77
677.812	3.77
677.842	9.77
677.873	19.77
677.904	6.77
677.934	-2.23
677.965	-3.23
677.996	-2.23
678.026	5.77
678.057	4.77
678.088	-6.23
678.118	-2.23
678.149	7.77
678.18	-6.23
678.21	4.77
678.241	10.77
678.272	12.77
678.302	-1.23
678.333	-3.23
678.363	2.77
678.394	0.77
678.425	0.77
678.455	10.77
678.486	11.77
678.517	4.77
678.547	-4.23
678.578	-5.23
678.608	-8.23
678.639	9.77
678.67	7.77
678.7	-0.23
678.731	-13.23
678.761	1.77
678.792	11.77
678.823	11.77
678.853	0.77
678.884	-4.23
678.914	13.77
678.945	-7.23
678.975	-5.23
679.006	8.77
679.037	5.77
679.067	14.77
679.098	11.77
679.128	-4.23
679.159	-3.23
679.189	5.77
679.22	-4.23
679.25	21.77
679.281	-8.23
679.312	-0.23
679.342	8.77
679.373	31.77
679.403	6.77
679.434	-1.23
679.464	19.77
679.495	18.77
679.525	14.77
679.556	5.77
679.586	0.77
679.617	3.77
679.647	-2.23
679.678	-10.23
679.708	-1.23
679.739	4.77
679.769	8.77
679.8	8.77
679.83	5.77
679.861	13.77
679.891	3.77
679.922	-14.23
679.952	15.77
679.983	15.77
680.013	-0.23
680.044	-2.23
680.074	4.77
680.105	17.77
680.135	3.77
680.165	32.77
680.196	8.77
680.226	1.77
680.257	10.77
680.287	-3.23
680.318	-9.23
680.348	-6.23
680.379	15.77
680.409	4.77
680.439	-1.23
680.47	4.77
680.5	3.77
680.531	9.77
680.561	17.77
680.592	15.77
680.622	28.77
680.652	10.77
680.683	14.77
680.713	0.77
680.744	4.77
680.774	-11.23
680.804	4.77
680.835	-0.23
680.865	-7.23
680.896	25.77
680.926	11.77
680.956	-6.23
680.987	-3.23
681.017	-15.23
681.047	9.77
681.078	-4.23
681.108	4.77
681.139	1.77
681.169	-2.23
681.199	-2.23
681.23	11.77
681.26	0.77
681.29	1.77
681.321	-1.23
681.351	-3.23
681.381	4.77
681.412	5.77
681.442	-2.23
681.472	4.77
681.503	-0.23
681.533	-10.23
681.563	-13.23
681.594	-6.23
681.624	11.77
681.654	0.77
681.685	-9.23
681.715	-3.23
681.745	6.77
681.775	2.77
681.806	8.77
681.836	-0.23
681.866	3.77
681.897	8.77
681.927	1.77
681.957	-15.23
681.987	11.77
682.018	14.77
682.048	16.77
682.078	0.77
682.109	32.77
682.139	9.77
682.169	14.77
682.199	-3.23
682.23	-17.23
682.26	5.77
682.29	-2.23
682.32	-2.23
682.351	5.77
682.381	11.77
682.411	1.77
682.441	3.77
682.472	-6.23
682.502	-14.23
682.532	-14.23
682.562	10.77
682.592	1.77
682.623	19.77
682.653	3.77
682.683	-4.23
682.713	16.77
682.743	6.77
682.774	7.77
682.804	6.77
682.834	6.77
682.864	-12.23
682.894	-1.23
682.925	-15.23
682.955	6.77
682.985	-6.23
683.015	6.77
683.045	30.77
683.076	-9.23
683.106	15.77
683.136	-8.23
683.166	-4.23
683.196	-16.23
683.226	-3.23
683.257	2.77
683.287	18.77
683.317	-1.23
683.347	-9.23
683.377	-3.23
683.407	4.77
683.437	4.77
683.468	8.77
683.498	2.77
683.528	11.77
683.558	2.77
683.588	-13.23
683.618	-2.23
683.648	-8.23
683.678	14.77
683.708	21.77
683.739	-9.23
683.769	-3.23
683.799	4.77
683.829	14.77
683.859	8.77
683.889	9.77
683.919	0.77
683.949	-6.23
683.979	-10.23
684.009	-8.23
684.039	10.77
684.07	3.77
684.1	3.77
684.13	3.77
684.16	8.77
684.19	1.77
684.22	9.77
684.25	-0.23
684.28	-16.23
684.31	6.77
684.34	-4.23
684.37	-15.23
684.4	-9.23
684.43	-2.23
684.46	17.77
684.49	16.77
684.52	11.77
684.55	9.77
684.58	-6.23
684.61	13.77
684.64	10.77
684.67	25.77
684.7	-8.23
684.73	9.77
684.76	-1.23
684.79	17.77
684.82	2.77
684.85	8.77
684.88	15.77
684.91	12.77
684.94	5.77
684.97	-9.23
685	-1.23
685.03	1.77
685.06	-5.23
685.09	8.77
685.12	39.77
685.15	-0.23
685.18	16.77
685.21	-3.23
685.24	11.77
685.27	17.77
685.3	3.77
685.33	13.77
685.36	5.77
685.39	-0.23
685.42	1.77
685.45	8.77
685.48	18.77
685.51	1.77
685.54	20.77
685.569	5.77
685.599	1.77
685.629	7.77
685.659	14.77
685.689	-1.23
685.719	-7.23
685.749	-8.23
685.779	6.77
685.809	2.77
685.839	6.77
685.869	-8.23
685.898	6.77
685.928	18.77
685.958	10.77
685.988	12.77
686.018	10.77
686.048	5.77
686.078	39.77
686.108	20.77
686.137	23.77
686.167	12.77
686.197	-11.23
686.227	17.77
686.257	16.77
686.287	17.77
686.317	-3.23
686.346	7.77
686.376	-4.23
686.406	-3.23
686.436	11.77
686.466	4.77
686.496	9.77
686.525	9.77
686.555	2.77
686.585	7.77
686.615	29.77
686.645	13.77
686.675	12.77
686.704	24.77
686.734	10.77
686.764	-3.23
686.794	4.77
686.824	-2.23
686.853	12.77
686.883	10.77
686.913	15.77
686.943	13.77
686.973	-12.23
687.002	-1.23
687.032	8.77
687.062	-5.23
687.092	11.77
687.121	-1.23
687.151	4.77
687.181	-2.23
687.211	1.77
687.24	-2.23
687.27	3.77
687.3	-3.23
687.33	-15.23
687.359	-9.23
687.389	-0.23
687.419	0.77
687.449	-4.23
687.478	10.77
687.508	-7.23
687.538	20.77
687.568	11.77
687.597	12.77
687.627	29.77
687.657	16.77
687.686	7.77
687.716	35.77
687.746	-0.23
687.776	-2.23
687.805	11.77
687.835	8.77
687.865	35.77
687.894	11.77
687.924	-13.23
687.954	-0.23
687.983	2.77
688.013	10.77
688.043	12.77
688.072	1.77
688.102	13.77
688.132	1.77
688.161	-6.23
688.191	-2.23
688.221	31.77
688.25	18.77
688.28	-4.23
688.31	8.77
688.339	8.77
688.369	-12.23
688.399	2.77
688.428	-3.23
688.458	-4.23
688.488	-1.23
688.517	0.77
688.547	-0.23
688.576	38.77
688.606	14.77
688.636	2.77
688.665	1.77
688.695	2.77
688.725	0.77
688.754	16.77
688.784	0.77
688.813	27.77
688.843	10.77
688.873	4.77
688.902	-14.23
688.932	-3.23
688.961	6.77
688.991	10.77
689.02	11.77
689.05	4.77
689.08	16.77
689.109	24.77
689.139	17.77
689.168	7.77
689.198	3.77
689.227	0.77
689.257	-3.23
689.287	15.77
689.316	8.77
689.346	-1.23
689.375	7.77
689.405	8.77
689.434	15.77
689.464	7.77
689.493	-11.23
689.523	-3.23
689.552	6.77
689.582	1.77
689.611	6.77
689.641	17.77
689.67	-4.23
689.7	15.77
689.73	15.77
689.759	17.77
689.789	24.77
689.818	18.77
689.848	-1.23
689.877	28.77
689.906	-2.23
689.936	5.77
689.965	24.77
689.995	12.77
690.024	9.77
690.054	6.77
690.083	11.77
690.113	6.77
690.142	4.77
690.172	5.77
690.201	8.77
690.231	-8.23
690.26	6.77
690.29	5.77
690.319	15.77
690.348	13.77
690.378	13.77
690.407	10.77
690.437	10.77
690.466	-3.23
690.496	6.77
690.525	22.77
690.555	14.77
690.584	3.77
690.613	-7.23
690.643	5.77
690.672	17.77
690.702	14.77
690.731	5.77
690.76	17.77
690.79	0.77
690.819	4.77
690.849	2.77
690.878	-9.23
690.907	2.77
690.937	9.77
690.966	11.77
690.996	10.77
691.025	16.77
691.054	17.77
691.084	12.77
691.113	-1.23
691.142	7.77
691.172	7.77
691.201	13.77
691.23	9.77
691.26	9.77
691.289	13.77
691.319	-8.23
691.348	13.77
691.377	10.77
691.407	12.77
691.436	19.77
691.465	28.77
691.495	6.77
691.524	-12.23
691.553	3.77
691.583	4.77
691.612	18.77
691.641	3.77
691.67	-4.23
691.7	6.77
691.729	-3.23
691.758	16.77
691.788	11.77
691.817	-1.23
691.846	3.77
691.876	-4.23
691.905	10.77
691.934	2.77
691.963	8.77
691.993	8.77
692.022	3.77
692.051	2.77
692.081	14.77
692.11	5.77
692.139	0.77
692.168	16.77
692.198	28.77
692.227	31.77
692.256	18.77
692.285	9.77
692.315	6.77
692.344	11.77
692.373	4.77
692.402	-8.23
692.432	-7.23
692.461	16.77
692.49	-1.23
692.519	4.77
692.548	8.77
692.578	25.77
692.607	15.77
692.636	9.77
692.665	-6.23
692.694	0.77
692.724	12.77
692.753	19.77
692.782	10.77
692.811	-0.23
692.84	19.77
692.87	11.77
692.899	2.77
692.928	11.77
692.957	13.77
692.986	18.77
693.016	14.77
693.045	20.77
693.074	3.77
693.103	6.77
693.132	7.77
693.161	13.77
693.191	-6.23
693.22	-19.23
693.249	3.77
693.278	5.77
693.307	17.77
693.336	3.77
693.365	-2.23
693.395	7.77
693.424	8.77
693.453	32.77
693.482	3.77
693.511	27.77
693.54	10.77
693.569	1.77
693.598	12.77
693.628	19.77
693.657	24.77
693.686	20.77
693.715	6.77
693.744	4.77
693.773	18.77
693.802	11.77
693.831	-16.23
693.86	18.77
693.889	13.77
693.919	11.77
693.948	9.77
693.977	15.77
694.006	2.77
694.035	9.77
694.064	7.77
694.093	20.77
694.122	9.77
694.151	-2.23
694.18	7.77
694.209	31.77
694.238	25.77
694.267	23.77
694.296	4.77
694.325	9.77
694.354	27.77
694.383	12.77
694.412	-14.23
694.441	-13.23
694.471	3.77
694.5	6.77
694.529	23.77
694.558	26.77
694.587	14.77
694.616	5.77
694.645	11.77
694.674	19.77
694.703	18.77
694.732	6.77
694.761	18.77
694.79	28.77
694.819	-5.23
694.848	7.77
694.877	27.77
694.906	29.77
694.935	12.77
694.963	21.77
694.992	13.77
695.021	10.77
695.05	6.77
695.079	13.77
695.108	23.77
695.137	20.77
695.166	13.77
695.195	8.77
695.224	14.77
695.253	11.77
695.282	14.77
695.311	0.77
695.34	27.77
695.369	6.77
695.398	9.77
695.427	18.77
695.456	14.77
695.485	4.77
695.513	13.77
695.542	10.77
695.571	0.77
695.6	21.77
695.629	19.77
695.658	12.77
695.687	13.77
695.716	-13.23
695.745	27.77
695.774	7.77
695.802	-1.23
695.831	23.77
695.86	19.77
695.889	17.77
695.918	5.77
695.947	23.77
695.976	18.77
696.005	16.77
696.033	14.77
696.062	12.77
696.091	10.77
696.12	0.77
696.149	13.77
696.178	9.77
696.207	10.77
696.235	-11.23
696.264	12.77
696.293	11.77
696.322	22.77
696.351	18.77
696.38	-3.23
696.408	8.77
696.437	22.77
696.466	25.77
696.495	24.77
696.524	23.77
696.553	18.77
696.581	25.77
696.61	26.77
696.639	5.77
696.668	17.77
696.697	8.77
696.725	15.77
696.754	2.77
696.783	7.77
696.812	-5.23
696.84	14.77
696.869	23.77
696.898	2.77
696.927	-2.23
696.956	16.77
696.984	11.77
697.013	17.77
697.042	8.77
697.071	12.77
697.099	25.77
697.128	7.77
697.157	20.77
697.186	7.77
697.214	-5.23
697.243	-11.23
697.272	-0.23
697.301	10.77
697.329	16.77
697.358	7.77
697.387	34.77
697.415	17.77
697.444	7.77
697.473	-0.23
697.502	-6.23
697.53	5.77
697.559	10.77
697.588	16.77
697.616	5.77
697.645	4.77
697.674	6.77
697.703	6.77
697.731	5.77
697.76	17.77
697.789	1.77
697.817	9.77
697.846	22.77
697.875	10.77
697.903	33.77
697.932	22.77
697.961	12.77
697.989	10.77
698.018	13.77
698.047	6.77
698.075	12.77
698.104	4.77
698.133	9.77
698.161	-8.23
698.19	3.77
698.218	3.77
698.247	7.77
698.276	2.77
698.304	18.77
698.333	7.77
698.362	18.77
698.39	15.77
698.419	8.77
698.447	-2.23
698.476	9.77
698.505	18.77
698.533	18.77
698.562	20.77
698.591	3.77
698.619	-2.23
698.648	16.77
698.676	18.77
698.705	-1.23
698.733	-0.23
698.762	4.77
698.791	5.77
698.819	8.77
698.848	18.77
698.876	16.77
698.905	14.77
698.933	15.77
698.962	2.77
698.991	11.77
699.019	16.77
699.048	1.77
699.076	10.77
699.105	-6.23
699.133	0.77
699.162	0.77
699.19	18.77
699.219	15.77
699.248	17.77
699.276	0.77
699.305	17.77
699.333	23.77
699.362	3.77
699.39	3.77
699.419	-10.23
699.447	8.77
699.476	1.77
699.504	1.77
699.533	12.77
699.561	3.77
699.59	8.77
699.618	2.77
699.647	2.77
699.675	13.77
699.704	8.77
699.732	-13.23
699.761	12.77
699.789	13.77
699.818	9.77
699.846	4.77
699.874	0.77
699.903	-1.23
699.931	4.77
699.96	21.77
699.988	9.77
700.017	0.77
700.045	15.77
700.074	3.77
700.102	0.77
700.13	1.77
700.159	18.77
700.187	15.77
700.216	8.77
700.244	8.77
700.273	3.77
700.301	14.77
700.329	16.77
700.358	13.77
700.386	16.77
700.415	2.77
700.443	-4.23
700.472	10.77
700.5	14.77
700.528	11.77
700.557	2.77
700.585	-7.23
700.614	12.77
700.642	27.77
700.67	30.77
700.699	14.77
700.727	0.77
700.755	7.77
700.784	-2.23
700.812	-6.23
700.841	9.77
700.869	11.77
700.897	-7.23
700.926	1.77
700.954	13.77
700.982	27.77
701.011	7.77
701.039	25.77
701.067	11.77
701.096	1.77
701.124	-8.23
701.152	8.77
701.181	2.77
701.209	-6.23
701.237	0.77
701.266	-3.23
701.294	1.77
701.322	13.77
701.351	3.77
701.379	6.77
701.407	-2.23
701.435	-2.23
701.464	8.77
701.492	9.77
701.52	5.77
701.549	10.77
701.577	-6.23
701.605	-1.23
701.634	2.77
701.662	14.77
701.69	-6.23
701.718	-11.23
701.747	3.77
701.775	-0.23
701.803	6.77
701.831	21.77
701.86	7.77
701.888	13.77
701.916	2.77
701.944	12.77
701.973	-0.23
702.001	-0.23
702.029	-5.23
702.057	10.77
702.086	-1.23
702.114	-0.23
702.142	-11.23
702.17	-2.23
702.199	24.77
702.227	-3.23
702.255	2.77
702.283	1.77
702.311	24.77
702.34	4.77
702.368	3.77
702.396	11.77
702.424	-3.23
702.452	3.77
702.481	12.77
702.509	9.77
702.537	8.77
702.565	1.77
702.593	-15.23
702.621	0.77
702.65	14.77
702.678	10.77
702.706	20.77
702.734	-5.23
702.762	21.77
702.79	-0.23
702.819	6.77
702.847	11.77
702.875	16.77
702.903	5.77
702.931	-3.23
702.959	6.77
702.988	12.77
703.016	-7.23
703.044	-20.23
703.072	-2.23
703.1	1.77
703.128	15.77
703.156	8.77
703.184	1.77
703.212	6.77
703.241	11.77
703.269	9.77
703.297	-3.23
703.325	6.77
703.353	6.77
703.381	17.77
703.409	18.77
703.437	4.77
703.465	5.77
703.493	-11.23
703.522	19.77
703.55	9.77
703.578	12.77
703.606	-5.23
703.634	8.77
703.662	4.77
703.69	9.77
703.718	9.77
703.746	19.77
703.774	15.77
703.802	17.77
703.83	2.77
703.858	19.77
703.886	4.77
703.914	-4.23
703.942	14.77
703.97	20.77
703.998	12.77
704.027	9.77
704.055	9.77
704.083	8.77
704.111	-11.23
704.139	-3.23
704.167	-4.23
704.195	-11.23
704.223	0.77
704.251	3.77
704.279	4.77
704.307	8.77
704.335	1.77
704.363	0.77
704.391	-1.23
704.419	-6.23
704.447	-11.23
704.475	2.77
704.503	-13.23
704.531	13.77
704.558	29.77
704.586	10.77
704.614	-3.23
704.642	7.77
704.67	-7.23
704.698	7.77
704.726	3.77
704.754	8.77
704.782	8.77
704.81	-2.23
704.838	11.77
704.866	5.77
704.894	-5.23
704.922	-11.23
704.95	6.77
704.978	-0.23
705.006	2.77
705.034	17.77
705.061	7.77
705.089	13.77
705.117	0.77
705.145	2.77
705.173	-0.23
705.201	-0.23
705.229	5.77
705.257	2.77
705.285	1.77
705.313	10.77
705.34	4.77
705.368	-9.23
705.396	10.77
705.424	8.77
705.452	7.77
705.48	15.77
705.508	-12.23
705.536	-0.23
705.563	-9.23
705.591	6.77
705.619	8.77
705.647	2.77
705.675	-0.23
705.703	10.77
705.731	-2.23
705.758	6.77
705.786	10.77
705.814	14.77
705.842	-0.23
705.87	10.77
705.898	13.77
705.925	-3.23
705.953	12.77
705.981	-4.23
706.009	-12.23
706.037	10.77
706.065	16.77
706.092	-0.23
706.12	17.77
706.148	8.77
706.176	1.77
706.204	15.77
706.231	2.77
706.259	-6.23
706.287	3.77
706.315	17.77
706.342	6.77
706.37	16.77
706.398	5.77
706.426	7.77
706.454	-3.23
706.481	3.77
706.509	2.77
706.537	4.77
706.565	-8.23
706.592	7.77
706.62	12.77
706.648	14.77
706.676	-2.23
706.703	14.77
706.731	2.77
706.759	11.77
706.787	1.77
706.814	6.77
706.842	10.77
706.87	1.77
706.897	12.77
706.925	3.77
706.953	26.77
706.981	17.77
707.008	7.77
707.036	2.77
707.064	-0.23
707.091	-16.23
707.119	29.77
707.147	9.77
707.174	8.77
707.202	6.77
707.23	-3.23
707.258	35.77
707.285	-8.23
707.313	5.77
707.341	-4.23
707.368	-4.23
707.396	7.77
707.424	19.77
707.451	0.77
707.479	3.77
707.507	-2.23
707.534	-5.23
707.562	1.77
707.59	-6.23
707.617	-18.23
707.645	1.77
707.672	-1.23
707.7	2.77
707.728	4.77
707.755	7.77
707.783	9.77
707.811	4.77
707.838	-4.23
707.866	2.77
707.893	7.77
707.921	8.77
707.949	-5.23
707.976	7.77
708.004	17.77
708.031	-1.23
708.059	-13.23
708.087	7.77
708.114	-0.23
708.142	-9.23
708.169	9.77
708.197	7.77
708.225	4.77
708.252	-2.23
708.28	9.77
708.307	7.77
708.335	-2.23
708.362	5.77
708.39	-5.23
708.418	-0.23
708.445	-5.23
708.473	0.77
708.5	6.77
708.528	8.77
708.555	1.77
708.583	8.77
708.61	-4.23
708.638	9.77
708.665	0.77
708.693	10.77
708.72	9.77
708.748	-3.23
708.776	2.77
708.803	15.77
708.831	18.77
708.858	17.77
708.886	13.77
708.913	6.77
708.941	-2.23
708.968	10.77
708.996	6.77
709.023	29.77
709.051	5.77
709.078	7.77
709.105	2.77
709.133	11.77
709.16	2.77
709.188	1.77
709.215	2.77
709.243	8.77
709.27	-1.23
709.298	2.77
709.325	-8.23
709.353	-5.23
709.38	4.77
709.408	8.77
709.435	2.77
709.462	3.77
709.49	12.77
709.517	3.77
709.545	1.77
709.572	2.77
709.6	0.77
709.627	13.77
709.655	12.77
709.682	3.77
709.709	-10.23
709.737	10.77
709.764	-0.23
709.792	-7.23
709.819	3.77
709.846	-0.23
709.874	12.77
709.901	20.77
709.929	21.77
709.956	10.77
709.983	-6.23
710.011	-13.23
710.038	-13.23
710.066	9.77
710.093	15.77
710.12	23.77
710.148	16.77
710.175	-16.23
710.202	-17.23
710.23	16.77
710.257	0.77
710.284	8.77
710.312	6.77
710.339	-4.23
710.366	-5.23
710.394	-20.23
710.421	4.77
710.448	2.77
710.476	-16.23
710.503	14.77
710.53	18.77
710.558	5.77
710.585	6.77
710.612	-4.23
710.64	0.77
710.667	1.77
710.694	-2.23
710.722	7.77
710.749	-0.23
710.776	12.77
710.804	3.77
710.831	8.77
710.858	16.77
710.885	13.77
710.913	17.77
710.94	31.77
710.967	15.77
710.995	22.77
711.022	11.77
711.049	9.77
711.076	5.77
711.104	2.77
711.131	-13.23
711.158	8.77
711.185	16.77
711.213	-9.23
711.24	4.77
711.267	-14.23
711.294	7.77
711.322	7.77
711.349	-3.23
711.376	9.77
711.403	15.77
711.431	9.77
711.458	11.77
711.485	10.77
711.512	7.77
711.54	2.77
711.567	2.77
711.594	-5.23
711.621	-3.23
711.648	-0.23
711.676	13.77
711.703	0.77
711.73	-7.23
711.757	0.77
711.784	8.77
711.812	13.77
711.839	-6.23
711.866	4.77
711.893	3.77
711.92	8.77
711.947	6.77
711.975	17.77
712.002	-6.23
712.029	5.77
712.056	10.77
712.083	1.77
712.11	-16.23
712.138	-2.23
712.165	11.77
712.192	3.77
712.219	14.77
712.246	2.77
712.273	-25.23
712.3	-6.23
712.328	1.77
712.355	0.77
712.382	6.77
712.409	22.77
712.436	-7.23
712.463	23.77
712.49	26.77
712.517	3.77
712.544	0.77
712.572	16.77
712.599	9.77
712.626	19.77
712.653	-8.23
712.68	1.77
712.707	6.77
712.734	3.77
712.761	-3.23
712.788	-5.23
712.815	22.77
712.842	14.77
712.87	1.77
712.897	7.77
712.924	-3.23
712.951	11.77
712.978	8.77
713.005	17.77
713.032	24.77
713.059	2.77
713.086	1.77
713.113	1.77
713.14	-6.23
713.167	10.77
713.194	14.77
713.221	0.77
713.248	27.77
713.275	4.77
713.302	4.77
713.329	18.77
713.356	4.77
713.383	8.77
713.41	4.77
713.437	-2.23
713.464	7.77
713.491	10.77
713.518	14.77
713.545	0.77
713.572	-8.23
713.599	17.77
713.626	2.77
713.653	12.77
713.68	9.77
713.707	9.77
713.734	11.77
713.761	6.77
713.788	2.77
713.815	5.77
713.842	-8.23
713.869	10.77
713.896	-1.23
713.923	4.77
713.95	18.77
713.977	-9.23
714.004	6.77
714.031	8.77
714.058	8.77
714.085	7.77
714.112	32.77
714.139	28.77
714.165	8.77
714.192	11.77
714.219	20.77
714.246	9.77
714.273	-0.23
714.3	8.77
714.327	7.77
714.354	17.77
714.381	-1.23
714.408	7.77
714.435	2.77
714.461	11.77
714.488	8.77
714.515	-2.23
714.542	-13.23
714.569	-11.23
714.596	-5.23
714.623	3.77
714.65	4.77
714.677	-3.23
714.703	4.77
714.73	6.77
714.757	10.77
714.784	6.77
714.811	-7.23
714.838	0.77
714.865	-1.23
714.891	7.77
714.918	-5.23
714.945	-4.23
714.972	6.77
714.999	13.77
715.026	12.77
715.052	4.77
715.079	-9.23
715.106	-1.23
715.133	3.77
715.16	2.77
715.187	2.77
715.213	11.77
715.24	-7.23
715.267	-8.23
715.294	19.77
715.321	7.77
715.347	0.77
715.374	-2.23
715.401	-6.23
715.428	8.77
715.455	-5.23
715.481	2.77
715.508	18.77
715.535	11.77
715.562	21.77
715.588	15.77
715.615	-0.23
715.642	13.77
715.669	6.77
715.695	-5.23
715.722	6.77
715.749	22.77
715.776	24.77
715.802	1.77
715.829	9.77
715.856	1.77
715.883	11.77
715.909	1.77
715.936	17.77
715.963	7.77
715.99	-5.23
716.016	-0.23
716.043	-0.23
716.07	6.77
716.096	3.77
716.123	8.77
716.15	7.77
716.177	-2.23
716.203	16.77
716.23	7.77
716.257	4.77
716.283	23.77
716.31	9.77
716.337	7.77
716.363	-3.23
716.39	-4.23
716.417	11.77
716.443	2.77
716.47	21.77
716.497	14.77
716.523	14.77
716.55	6.77
716.577	24.77
716.603	-7.23
716.63	18.77
716.657	22.77
716.683	-13.23
716.71	3.77
716.737	11.77
716.763	6.77
716.79	6.77
716.817	14.77
716.843	7.77
716.87	-12.23
716.897	-4.23
716.923	21.77
716.95	13.77
716.976	7.77
717.003	6.77
717.03	25.77
717.056	1.77
717.083	-1.23
717.109	7.77
717.136	16.77
717.163	-19.23
717.189	13.77
717.216	15.77
717.242	0.77
717.269	10.77
717.296	12.77
717.322	11.77
717.349	6.77
717.375	4.77
717.402	5.77
717.428	9.77
717.455	8.77
717.481	0.77
717.508	9.77
717.535	9.77
717.561	-5.23
717.588	-8.23
717.614	-0.23
717.641	10.77
717.667	16.77
717.694	-5.23
717.72	-1.23
717.747	8.77
717.773	0.77
717.8	-2.23
717.826	-6.23
717.853	8.77
717.88	8.77
717.906	4.77
717.933	9.77
717.959	9.77
717.986	11.77
718.012	8.77
718.039	20.77
718.065	25.77
718.092	26.77
718.118	-5.23
718.144	-10.23
718.171	14.77
718.197	5.77
718.224	13.77
718.25	9.77
718.277	10.77
718.303	13.77
718.33	4.77
718.356	-0.23
718.383	0.77
718.409	2.77
718.436	10.77
718.462	6.77
718.489	2.77
718.515	25.77
718.541	27.77
718.568	-4.23
718.594	12.77
718.621	9.77
718.647	18.77
718.674	17.77
718.7	26.77
718.726	4.77
718.753	20.77
718.779	7.77
718.806	8.77
718.832	8.77
718.858	4.77
718.885	6.77
718.911	3.77
718.938	20.77
718.964	5.77
718.99	1.77
719.017	-3.23
719.043	2.77
719.07	12.77
719.096	-7.23
719.122	9.77
719.149	16.77
719.175	1.77
719.201	-3.23
719.228	6.77
719.254	14.77
719.281	1.77
719.307	15.77
719.333	4.77
719.36	20.77
719.386	6.77
719.412	9.77
719.439	6.77
719.465	6.77
719.491	2.77
719.518	25.77
719.544	3.77
719.57	9.77
719.597	6.77
719.623	4.77
719.649	22.77
719.675	15.77
719.702	2.77
719.728	10.77
719.754	-18.23
719.781	6.77
719.807	0.77
719.833	4.77
719.86	6.77
719.886	7.77
719.912	9.77
719.938	8.77
719.965	11.77
719.991	17.77
720.017	21.77
720.044	12.77
720.07	7.77
720.096	18.77
720.122	4.77
720.149	17.77
720.175	15.77
720.201	12.77
720.227	7.77
720.254	8.77
720.28	11.77
720.306	0.77
720.332	11.77
720.359	19.77
720.385	3.77
720.411	23.77
720.437	12.77
720.463	0.77
720.49	13.77
720.516	19.77
720.542	5.77
720.568	6.77
720.595	0.77
720.621	-2.23
720.647	3.77
720.673	17.77
720.699	5.77
720.725	5.77
720.752	-8.23
720.778	1.77
720.804	3.77
720.83	4.77
720.856	4.77
720.883	-5.23
720.909	2.77
720.935	12.77
720.961	22.77
720.987	4.77
721.013	11.77
721.04	6.77
721.066	-3.23
721.092	-11.23
721.118	8.77
721.144	14.77
721.17	-4.23
721.196	-8.23
721.223	1.77
721.249	7.77
721.275	28.77
721.301	7.77
721.327	10.77
721.353	15.77
721.379	-0.23
721.405	0.77
721.432	9.77
721.458	-0.23
721.484	9.77
721.51	-3.23
721.536	12.77
721.562	3.77
721.588	0.77
721.614	-13.23
721.64	3.77
721.666	2.77
721.693	-3.23
721.719	4.77
721.745	-14.23
721.771	-4.23
721.797	0.77
721.823	20.77
721.849	8.77
721.875	20.77
721.901	19.77
721.927	12.77
721.953	10.77
721.979	17.77
722.005	12.77
722.031	0.77
722.057	16.77
722.083	19.77
722.109	12.77
722.135	29.77
722.161	15.77
722.187	3.77
722.214	-1.23
722.24	6.77
722.266	-3.23
722.292	7.77
722.318	-2.23
722.344	7.77
722.37	15.77
722.396	15.77
722.422	-5.23
722.448	-0.23
722.474	-2.23
722.5	7.77
722.526	16.77
722.552	9.77
722.578	10.77
722.603	0.77
722.629	5.77
722.655	-2.23
722.681	-3.23
722.707	6.77
722.733	4.77
722.759	6.77
722.785	-2.23
722.811	1.77
722.837	0.77
722.863	32.77
722.889	10.77
722.915	6.77
722.941	-3.23
722.967	9.77
722.993	20.77
723.019	10.77
723.045	16.77
723.071	-4.23
723.097	15.77
723.122	6.77
723.148	-12.23
723.174	20.77
723.2	14.77
723.226	14.77
723.252	14.77
723.278	-5.23
723.304	-0.23
723.33	-5.23
723.356	-0.23
723.381	9.77
723.407	1.77
723.433	-0.23
723.459	1.77
723.485	-2.23
723.511	12.77
723.537	1.77
723.563	-22.23
723.588	10.77
723.614	11.77
723.64	7.77
723.666	6.77
723.692	20.77
723.718	7.77
723.744	20.77
723.769	4.77
723.795	-4.23
723.821	-0.23
723.847	-1.23
723.873	-6.23
723.899	10.77
723.924	9.77
723.95	-0.23
723.976	-3.23
724.002	19.77
724.028	6.77
724.053	-4.23
724.079	-3.23
724.105	6.77
724.131	3.77
724.157	9.77
724.182	7.77
724.208	-3.23
724.234	6.77
724.26	3.77
724.286	7.77
724.311	5.77
724.337	-16.23
724.363	0.77
724.389	-1.23
724.415	0.77
724.44	18.77
724.466	0.77
724.492	1.77
724.518	3.77
724.543	13.77
724.569	0.77
724.595	7.77
724.621	0.77
724.646	-1.23
724.672	10.77
724.698	-6.23
724.723	-4.23
724.749	7.77
724.775	15.77
724.801	2.77
724.826	-0.23
724.852	3.77
724.878	-0.23
724.904	-6.23
724.929	20.77
724.955	0.77
724.981	-5.23
725.006	-18.23
725.032	4.77
725.058	12.77
725.083	0.77
725.109	-1.23
725.135	6.77
725.161	5.77
725.186	11.77
725.212	-5.23
725.238	18.77
725.263	2.77
725.289	-8.23
725.315	-12.23
725.34	3.77
725.366	11.77
725.392	10.77
725.417	18.77
725.443	12.77
725.468	10.77
725.494	7.77
725.52	12.77
725.545	11.77
725.571	4.77
725.597	6.77
725.622	10.77
725.648	11.77
725.674	11.77
725.699	12.77
725.725	32.77
725.75	31.77
725.776	0.77
725.802	3.77
725.827	3.77
725.853	12.77
725.878	16.77
725.904	2.77
725.93	7.77
725.955	6.77
725.981	-8.23
726.006	1.77
726.032	12.77
726.057	9.77
726.083	9.77
726.109	22.77
726.134	22.77
726.16	5.77
726.185	11.77
726.211	4.77
726.236	23.77
726.262	3.77
726.288	19.77
726.313	8.77
726.339	-8.23
726.364	25.77
726.39	17.77
726.415	-1.23
726.441	15.77
726.466	14.77
726.492	8.77
726.517	12.77
726.543	12.77
726.568	1.77
726.594	-5.23
726.619	14.77
726.645	8.77
726.67	10.77
726.696	16.77
726.721	3.77
726.747	-0.23
726.772	12.77
726.798	6.77
726.823	4.77
726.849	-1.23
726.874	16.77
726.9	21.77
726.925	6.77
726.951	1.77
726.976	11.77
727.002	1.77
727.027	6.77
727.053	13.77
727.078	4.77
727.104	20.77
727.129	-9.23
727.155	4.77
727.18	13.77
727.205	15.77
727.231	1.77
727.256	7.77
727.282	3.77
727.307	22.77
727.333	10.77
727.358	3.77
727.383	-14.23
727.409	-9.23
727.434	-0.23
727.46	2.77
727.485	2.77
727.511	6.77
727.536	-9.23
727.561	-16.23
727.587	-4.23
727.612	1.77
727.637	7.77
727.663	15.77
727.688	29.77
727.714	9.77
727.739	8.77
727.764	6.77
727.79	2.77
727.815	13.77
727.841	6.77
727.866	17.77
727.891	22.77
727.917	-15.23
727.942	-9.23
727.967	2.77
727.993	-9.23
728.018	25.77
728.043	7.77
728.069	12.77
728.094	16.77
728.119	-6.23
728.145	27.77
728.17	10.77
728.195	12.77
728.221	22.77
728.246	7.77
728.271	-9.23
728.297	-8.23
728.322	11.77
728.347	-2.23
728.373	17.77
728.398	13.77
728.423	-0.23
728.448	16.77
728.474	22.77
728.499	10.77
728.524	-3.23
728.55	-3.23
728.575	-9.23
728.6	-0.23
728.625	5.77
728.651	7.77
728.676	-3.23
728.701	8.77
728.727	-2.23
728.752	-3.23
728.777	4.77
728.802	6.77
728.828	23.77
728.853	13.77
728.878	3.77
728.903	0.77
728.929	3.77
728.954	0.77
728.979	12.77
729.004	2.77
729.03	-7.23
729.055	7.77
729.08	-9.23
729.105	4.77
729.13	15.77
729.156	10.77
729.181	6.77
729.206	-9.23
729.231	2.77
729.256	14.77
729.282	11.77
729.307	-4.23
729.332	-7.23
729.357	11.77
729.382	3.77
729.408	8.77
729.433	16.77
729.458	15.77
729.483	23.77
729.508	11.77
729.533	-4.23
729.559	10.77
729.584	1.77
729.609	20.77
729.634	24.77
729.659	-5.23
729.684	-13.23
729.71	28.77
729.735	9.77
729.76	10.77
729.785	4.77
729.81	7.77
729.835	-1.23
729.86	2.77
729.886	24.77
729.911	12.77
729.936	5.77
729.961	-4.23
729.986	-0.23
730.011	13.77
730.036	2.77
730.061	-6.23
730.086	-5.23
730.112	20.77
730.137	10.77
730.162	10.77
730.187	5.77
730.212	9.77
730.237	9.77
730.262	0.77
730.287	-8.23
730.312	24.77
730.337	7.77
730.362	3.77
730.387	3.77
730.413	-17.23
730.438	4.77
730.463	2.77
730.488	-9.23
730.513	1.77
730.538	1.77
730.563	23.77
730.588	17.77
730.613	11.77
730.638	-3.23
730.663	-3.23
730.688	24.77
730.713	7.77
730.738	1.77
730.763	8.77
730.788	-6.23
730.813	-3.23
730.838	-3.23
730.863	-5.23
730.888	2.77
730.913	-8.23
730.938	-3.23
730.963	-4.23
730.988	0.77
731.013	7.77
731.038	-1.23
731.063	-0.23
731.088	7.77
731.113	-10.23
731.138	0.77
731.163	-3.23
731.188	8.77
731.213	26.77
731.238	6.77
731.263	-1.23
731.288	-3.23
731.313	9.77
731.338	7.77
731.363	7.77
731.388	17.77
731.413	-2.23
731.438	14.77
731.463	12.77
731.487	13.77
731.512	-3.23
731.537	-4.23
731.562	4.77
731.587	20.77
731.612	5.77
731.637	-7.23
731.662	12.77
731.687	-6.23
731.712	-0.23
731.737	10.77
731.762	0.77
731.786	12.77
731.811	-7.23
731.836	7.77
731.861	17.77
731.886	3.77
731.911	10.77
731.936	15.77
731.961	3.77
731.986	3.77
732.01	3.77
732.035	7.77
732.06	22.77
732.085	6.77
732.11	13.77
732.135	-6.23
732.16	6.77
732.184	7.77
732.209	-0.23
732.234	11.77
732.259	3.77
732.284	16.77
732.309	3.77
732.334	1.77
732.358	-2.23
732.383	11.77
732.408	10.77
732.433	5.77
732.458	9.77
732.482	-1.23
732.507	7.77
732.532	2.77
732.557	1.77
732.582	15.77
732.607	6.77
732.631	-14.23
732.656	-5.23
732.681	-0.23
732.706	6.77
732.73	14.77
732.755	8.77
732.78	13.77
732.805	18.77
732.83	4.77
732.854	2.77
732.879	7.77
732.904	5.77
732.929	8.77
732.953	8.77
732.978	8.77
733.003	5.77
733.028	2.77
733.052	14.77
733.077	8.77
733.102	14.77
733.127	6.77
733.151	3.77
733.176	6.77
733.201	1.77
733.226	2.77
733.25	10.77
733.275	8.77
733.3	17.77
733.324	26.77
733.349	1.77
733.374	6.77
733.399	11.77
733.423	1.77
733.448	-0.23
733.473	-5.23
733.497	-4.23
733.522	8.77
733.547	11.77
733.571	28.77
733.596	0.77
733.621	14.77
733.646	5.77
733.67	0.77
733.695	11.77
733.72	8.77
733.744	12.77
733.769	-15.23
733.794	7.77
733.818	6.77
733.843	8.77
733.867	-6.23
733.892	-0.23
733.917	7.77
733.941	-0.23
733.966	4.77
733.991	10.77
734.015	31.77
734.04	6.77
734.065	27.77
734.089	14.77
734.114	2.77
734.138	4.77
734.163	-4.23
734.188	8.77
734.212	23.77
734.237	18.77
734.261	4.77
734.286	10.77
734.311	5.77
734.335	-1.23
734.36	-1.23
734.384	4.77
734.409	12.77
734.434	15.77
734.458	1.77
734.483	17.77
734.507	2.77
734.532	0.77
734.556	8.77
734.581	4.77
734.606	6.77
734.63	-8.23
734.655	14.77
734.679	4.77
734.704	4.77
734.728	9.77
734.753	27.77
734.777	4.77
734.802	5.77
734.826	11.77
734.851	13.77
734.876	24.77
734.9	11.77
734.925	19.77
734.949	14.77
734.974	-0.23
734.998	8.77
735.023	2.77
735.047	1.77
735.072	27.77
735.096	10.77
735.121	10.77
735.145	10.77
735.17	14.77
735.194	22.77
735.219	9.77
735.243	10.77
735.268	30.77
735.292	17.77
735.317	-7.23
735.341	12.77
735.365	-4.23
735.39	18.77
735.414	14.77
735.439	14.77
735.463	11.77
735.488	17.77
735.512	21.77
735.537	4.77
735.561	-7.23
735.586	12.77
735.61	24.77
735.634	-4.23
735.659	18.77
735.683	28.77
735.708	10.77
735.732	-1.23
735.757	6.77
735.781	17.77
735.805	14.77
735.83	7.77
735.854	0.77
735.879	10.77
735.903	21.77
735.927	9.77
735.952	9.77
735.976	19.77
736.001	28.77
736.025	6.77
736.049	8.77
736.074	11.77
736.098	17.77
736.123	26.77
736.147	10.77
736.171	16.77
736.196	21.77
736.22	3.77
736.244	3.77
736.269	1.77
736.293	6.77
736.317	19.77
736.342	15.77
736.366	13.77
736.39	10.77
736.415	6.77
736.439	3.77
736.463	20.77
736.488	17.77
736.512	11.77
736.536	12.77
736.561	3.77
736.585	1.77
736.609	8.77
736.634	-1.23
736.658	3.77
736.682	4.77
736.707	4.77
736.731	-7.23
736.755	-2.23
736.78	34.77
736.804	35.77
736.828	17.77
736.852	-5.23
736.877	2.77
736.901	16.77
736.925	5.77
736.949	20.77
736.974	0.77
736.998	-13.23
737.022	3.77
737.047	0.77
737.071	3.77
737.095	22.77
737.119	24.77
737.144	2.77
737.168	4.77
737.192	-0.23
737.216	11.77
737.241	4.77
737.265	19.77
737.289	11.77
737.313	3.77
737.337	15.77
737.362	12.77
737.386	-2.23
737.41	0.77
737.434	27.77
737.459	10.77
737.483	16.77
737.507	6.77
737.531	12.77
737.555	6.77
737.58	15.77
737.604	8.77
737.628	9.77
737.652	3.77
737.676	-0.23
737.701	9.77
737.725	-4.23
737.749	11.77
737.773	20.77
737.797	-4.23
737.821	-1.23
737.846	16.77
737.87	28.77
737.894	4.77
737.918	3.77
737.942	-1.23
737.966	21.77
737.99	19.77
738.015	7.77
738.039	14.77
738.063	1.77
738.087	12.77
738.111	6.77
738.135	26.77
738.159	-3.23
738.184	4.77
738.208	13.77
738.232	13.77
738.256	14.77
738.28	10.77
738.304	2.77
738.328	6.77
738.352	10.77
738.376	2.77
738.4	3.77
738.425	19.77
738.449	0.77
738.473	15.77
738.497	3.77
738.521	10.77
738.545	-1.23
738.569	8.77
738.593	19.77
738.617	12.77
738.641	9.77
738.665	4.77
738.689	15.77
738.713	4.77
738.737	6.77
738.762	26.77
738.786	10.77
738.81	-10.23
738.834	17.77
738.858	-0.23
738.882	-8.23
738.906	-5.23
738.93	8.77
738.954	7.77
738.978	-0.23
739.002	8.77
739.026	16.77
739.05	24.77
739.074	-8.23
739.098	32.77
739.122	12.77
739.146	4.77
739.17	12.77
739.194	6.77
739.218	-6.23
739.242	2.77
739.266	-4.23
739.29	4.77
739.314	5.77
739.338	6.77
739.362	1.77
739.386	14.77
739.41	-3.23
739.434	-6.23
739.458	9.77
739.482	1.77
739.506	28.77
739.53	-1.23
739.554	20.77
739.577	16.77
739.601	24.77
739.625	3.77
739.649	0.77
739.673	-1.23
739.697	12.77
739.721	9.77
739.745	12.77
739.769	18.77
739.793	4.77
739.817	21.77
739.841	10.77
739.865	-0.23
739.889	7.77
739.912	18.77
739.936	16.77
739.96	12.77
739.984	20.77
740.008	13.77
740.032	7.77
740.056	16.77
740.08	13.77
740.104	-1.23
740.127	9.77
740.151	17.77
740.175	11.77
740.199	23.77
740.223	62.77
740.247	15.77
740.271	8.77
740.295	6.77
740.318	3.77
740.342	7.77
740.366	6.77
740.39	-1.23
740.414	1.77
740.438	-0.23
740.461	16.77
740.485	1.77
740.509	1.77
740.533	8.77
740.557	7.77
740.581	4.77
740.604	-11.23
740.628	2.77
740.652	11.77
740.676	6.77
740.7	10.77
740.723	14.77
740.747	-1.23
740.771	1.77
740.795	0.77
740.819	11.77
740.842	-1.23
740.866	8.77
740.89	20.77
740.914	-3.23
740.938	-5.23
740.961	21.77
740.985	2.77
741.009	-2.23
741.033	17.77
741.056	33.77
741.08	12.77
741.104	2.77
741.128	7.77
741.151	6.77
741.175	-3.23
741.199	11.77
741.223	21.77
741.246	-7.23
741.27	14.77
741.294	7.77
741.318	6.77
741.341	16.77
741.365	0.77
741.389	2.77
741.413	17.77
741.436	18.77
741.46	10.77
741.484	20.77
741.507	15.77
741.531	16.77
741.555	14.77
741.579	1.77
741.602	6.77
741.626	16.77
741.65	5.77
741.673	16.77
741.697	16.77
741.721	13.77
741.744	-22.23
741.768	-5.23
741.792	-8.23
741.815	-4.23
741.839	7.77
741.863	19.77
741.886	13.77
741.91	19.77
741.934	9.77
741.957	-3.23
741.981	16.77
742.005	16.77
742.028	0.77
742.052	12.77
742.075	10.77
742.099	20.77
742.123	7.77
742.146	1.77
742.17	31.77
742.194	-3.23
742.217	-1.23
742.241	-4.23
742.264	-1.23
742.288	8.77
742.312	13.77
742.335	6.77
742.359	-0.23
742.382	18.77
742.406	7.77
742.43	-0.23
742.453	7.77
742.477	-7.23
742.5	-0.23
742.524	-9.23
742.548	-3.23
742.571	6.77
742.595	8.77
742.618	-4.23
742.642	-3.23
742.665	7.77
742.689	9.77
742.712	13.77
742.736	5.77
742.76	2.77
742.783	-1.23
742.807	14.77
742.83	4.77
742.854	-6.23
742.877	-14.23
742.901	11.77
742.924	3.77
742.948	2.77
742.971	9.77
742.995	11.77
743.018	2.77
743.042	-1.23
743.065	1.77
743.089	-12.23
743.112	1.77
743.136	-21.23
743.159	0.77
743.183	-2.23
743.206	4.77
743.23	-15.23
743.253	8.77
743.277	11.77
743.3	-10.23
743.324	-6.23
743.347	2.77
743.371	19.77
743.394	9.77
743.418	18.77
743.441	7.77
743.465	3.77
743.488	2.77
743.512	-1.23
743.535	-6.23
743.558	-1.23
743.582	11.77
743.605	3.77
743.629	10.77
743.652	6.77
743.676	13.77
743.699	12.77
743.723	10.77
743.746	18.77
743.769	1.77
743.793	0.77
743.816	4.77
743.84	15.77
743.863	-2.23
743.886	13.77
743.91	21.77
743.933	4.77
743.957	2.77
743.98	12.77
744.003	12.77
744.027	-0.23
744.05	1.77
744.074	13.77
744.097	-0.23
744.12	-7.23
744.144	-14.23
744.167	18.77
744.19	-2.23
744.214	1.77
744.237	-2.23
744.26	13.77
744.284	-0.23
744.307	-0.23
744.331	14.77
744.354	-3.23
744.377	-1.23
744.401	-0.23
744.424	-11.23
744.447	-0.23
744.471	-10.23
