Data from HighRes_H2D2_15_04_11_07_2024_HR4C61891__100__15-05-44-442.txt Node

Date: Thu Nov 07 15:05:44 EST 2024
User: crc00042
Spectrometer: HR4C6189
Trigger mode: 4
Integration Time (sec): 1.000000E-1
Scans to average: 1
Electric dark correction enabled: true
Nonlinearity correction enabled: false
Boxcar width: 0
XAxis mode: Wavelengths
Number of Pixels in Spectrum: 3648
>>>>>Begin Spectral Data<<<<<
639.567	-50.54
639.602	-50.54
639.636	-50.54
639.67	-40.54
639.704	-24.54
639.738	-8.54
639.773	-10.54
639.807	-9.54
639.841	3.46
639.875	11.46
639.909	10.46
639.943	-12.54
639.978	-1.54
640.012	2.46
640.046	8.46
640.08	1.46
640.114	14.46
640.148	-9.54
640.182	2.46
640.217	-0.54
640.251	9.46
640.285	-6.54
640.319	-7.54
640.353	3.46
640.387	10.46
640.421	7.46
640.455	1.46
640.49	-4.54
640.524	-7.54
640.558	8.46
640.592	9.46
640.626	-15.54
640.66	11.46
640.694	-13.54
640.728	6.46
640.762	-0.54
640.796	12.46
640.83	23.46
640.865	10.46
640.899	12.46
640.933	-9.54
640.967	-8.54
641.001	1.46
641.035	5.46
641.069	-1.54
641.103	-28.54
641.137	-13.54
641.171	1.46
641.205	7.46
641.239	-1.54
641.273	19.46
641.307	8.46
641.341	-1.54
641.375	-1.54
641.409	2.46
641.443	5.46
641.477	6.46
641.511	4.46
641.545	4.46
641.579	1.46
641.614	19.46
641.648	12.46
641.682	-3.54
641.716	4.46
641.75	6.46
641.784	-6.54
641.818	-0.54
641.852	8.46
641.886	-16.54
641.919	12.46
641.953	-1.54
641.987	-24.54
642.021	-14.54
642.055	-6.54
642.089	8.46
642.123	-29.54
642.157	-22.54
642.191	-7.54
642.225	10.46
642.259	-2.54
642.293	9.46
642.327	8.46
642.361	-6.54
642.395	-0.54
642.429	19.46
642.463	3.46
642.497	8.46
642.531	16.46
642.565	-0.54
642.599	-9.54
642.633	-11.54
642.666	18.46
642.7	18.46
642.734	11.46
642.768	-15.54
642.802	0.46
642.836	4.46
642.87	5.46
642.904	4.46
642.938	5.46
642.972	-3.54
643.005	7.46
643.039	17.46
643.073	-13.54
643.107	-2.54
643.141	9.46
643.175	5.46
643.209	2.46
643.243	7.46
643.276	3.46
643.31	-8.54
643.344	-6.54
643.378	-9.54
643.412	-0.54
643.446	5.46
643.48	-10.54
643.513	7.46
643.547	-0.54
643.581	-4.54
643.615	24.46
643.649	7.46
643.683	6.46
643.716	5.46
643.75	10.46
643.784	-11.54
643.818	8.46
643.852	5.46
643.886	-16.54
643.919	9.46
643.953	-2.54
643.987	-5.54
644.021	-7.54
644.055	7.46
644.088	-12.54
644.122	-11.54
644.156	-11.54
644.19	-4.54
644.224	7.46
644.257	19.46
644.291	7.46
644.325	5.46
644.359	7.46
644.392	17.46
644.426	23.46
644.46	-9.54
644.494	-5.54
644.527	-8.54
644.561	7.46
644.595	11.46
644.629	1.46
644.662	-9.54
644.696	23.46
644.73	5.46
644.764	3.46
644.797	7.46
644.831	-3.54
644.865	13.46
644.899	-10.54
644.932	9.46
644.966	7.46
645	5.46
645.033	22.46
645.067	-8.54
645.101	2.46
645.135	-4.54
645.168	0.46
645.202	-0.54
645.236	-1.54
645.269	18.46
645.303	4.46
645.337	-4.54
645.37	3.46
645.404	18.46
645.438	7.46
645.471	2.46
645.505	11.46
645.539	18.46
645.572	-4.54
645.606	1.46
645.64	-0.54
645.673	7.46
645.707	10.46
645.741	-5.54
645.774	-14.54
645.808	15.46
645.842	-14.54
645.875	2.46
645.909	9.46
645.943	9.46
645.976	-2.54
646.01	8.46
646.043	11.46
646.077	19.46
646.111	17.46
646.144	18.46
646.178	22.46
646.212	-3.54
646.245	-9.54
646.279	8.46
646.312	12.46
646.346	-6.54
646.38	10.46
646.413	16.46
646.447	18.46
646.48	0.46
646.514	14.46
646.547	-4.54
646.581	-2.54
646.615	-12.54
646.648	-8.54
646.682	8.46
646.715	-7.54
646.749	14.46
646.782	14.46
646.816	-5.54
646.85	4.46
646.883	-4.54
646.917	2.46
646.95	-10.54
646.984	-1.54
647.017	-0.54
647.051	8.46
647.084	-2.54
647.118	-4.54
647.151	6.46
647.185	20.46
647.218	0.46
647.252	-0.54
647.285	5.46
647.319	-8.54
647.353	10.46
647.386	21.46
647.42	12.46
647.453	11.46
647.487	0.46
647.52	-1.54
647.553	-3.54
647.587	-1.54
647.62	4.46
647.654	11.46
647.687	8.46
647.721	7.46
647.754	-3.54
647.788	-3.54
647.821	-7.54
647.855	6.46
647.888	11.46
647.922	22.46
647.955	15.46
647.989	7.46
648.022	-1.54
648.055	8.46
648.089	0.46
648.122	19.46
648.156	-9.54
648.189	8.46
648.223	7.46
648.256	13.46
648.29	-0.54
648.323	1.46
648.356	8.46
648.39	10.46
648.423	-0.54
648.457	5.46
648.49	4.46
648.523	0.46
648.557	-0.54
648.59	0.46
648.624	4.46
648.657	-8.54
648.69	5.46
648.724	11.46
648.757	18.46
648.791	15.46
648.824	-13.54
648.857	23.46
648.891	-4.54
648.924	16.46
648.957	24.46
648.991	-10.54
649.024	13.46
649.057	10.46
649.091	10.46
649.124	11.46
649.158	22.46
649.191	3.46
649.224	-4.54
649.258	6.46
649.291	6.46
649.324	8.46
649.358	0.46
649.391	9.46
649.424	5.46
649.458	0.46
649.491	8.46
649.524	-19.54
649.557	-5.54
649.591	-12.54
649.624	-0.54
649.657	-3.54
649.691	9.46
649.724	9.46
649.757	14.46
649.791	9.46
649.824	9.46
649.857	12.46
649.89	-0.54
649.924	-14.54
649.957	0.46
649.99	6.46
650.023	6.46
650.057	10.46
650.09	4.46
650.123	-2.54
650.157	13.46
650.19	31.46
650.223	-2.54
650.256	-13.54
650.29	-1.54
650.323	-8.54
650.356	-2.54
650.389	-8.54
650.423	-17.54
650.456	-0.54
650.489	5.46
650.522	4.46
650.555	28.46
650.589	6.46
650.622	-6.54
650.655	15.46
650.688	0.46
650.721	-2.54
650.755	13.46
650.788	13.46
650.821	11.46
650.854	-6.54
650.887	13.46
650.921	-4.54
650.954	-2.54
650.987	-0.54
651.02	-2.54
651.053	-12.54
651.087	-12.54
651.12	-1.54
651.153	9.46
651.186	10.46
651.219	-5.54
651.252	9.46
651.286	17.46
651.319	6.46
651.352	-2.54
651.385	7.46
651.418	22.46
651.451	8.46
651.484	13.46
651.518	3.46
651.551	20.46
651.584	-6.54
651.617	26.46
651.65	2.46
651.683	6.46
651.716	0.46
651.749	-3.54
651.783	4.46
651.816	6.46
651.849	9.46
651.882	-4.54
651.915	-5.54
651.948	12.46
651.981	-2.54
652.014	-18.54
652.047	-1.54
652.08	-5.54
652.114	9.46
652.147	13.46
652.18	5.46
652.213	15.46
652.246	5.46
652.279	1.46
652.312	14.46
652.345	6.46
652.378	5.46
652.411	30.46
652.444	19.46
652.477	2.46
652.51	-2.54
652.543	-1.54
652.576	11.46
652.609	5.46
652.642	-17.54
652.675	4.46
652.709	-0.54
652.742	4.46
652.775	-8.54
652.808	12.46
652.841	6.46
652.874	5.46
652.907	5.46
652.94	10.46
652.973	-7.54
653.006	-3.54
653.039	-5.54
653.072	12.46
653.105	-5.54
653.138	-9.54
653.171	5.46
653.204	16.46
653.237	11.46
653.27	2.46
653.303	-10.54
653.336	10.46
653.368	7.46
653.401	8.46
653.434	2.46
653.467	7.46
653.5	-2.54
653.533	0.46
653.566	-3.54
653.599	-0.54
653.632	9.46
653.665	16.46
653.698	-14.54
653.731	-19.54
653.764	-3.54
653.797	17.46
653.83	14.46
653.863	-1.54
653.896	0.46
653.929	0.46
653.961	9.46
653.994	4.46
654.027	-14.54
654.06	11.46
654.093	3.46
654.126	9.46
654.159	-0.54
654.192	8.46
654.225	0.46
654.258	-3.54
654.29	11.46
654.323	18.46
654.356	-4.54
654.389	-8.54
654.422	-0.54
654.455	7.46
654.488	15.46
654.521	-16.54
654.553	-19.54
654.586	22.46
654.619	7.46
654.652	13.46
654.685	9.46
654.718	12.46
654.751	-3.54
654.783	-3.54
654.816	12.46
654.849	10.46
654.882	9.46
654.915	-15.54
654.948	-0.54
654.98	-12.54
655.013	12.46
655.046	-1.54
655.079	-3.54
655.112	11.46
655.144	-0.54
655.177	-2.54
655.21	25.46
655.243	12.46
655.276	12.46
655.308	-11.54
655.341	5.46
655.374	17.46
655.407	6.46
655.44	9.46
655.472	0.46
655.505	9.46
655.538	-0.54
655.571	-2.54
655.603	19.46
655.636	7.46
655.669	13.46
655.702	5.46
655.734	-11.54
655.767	9.46
655.8	25.46
655.833	13.46
655.865	4.46
655.898	11.46
655.931	24.46
655.964	25.46
655.996	35.46
656.029	28.46
656.062	25.46
656.095	51.46
656.127	89.46
656.16	229.46
656.193	617.46
656.225	954.46
656.258	549.46
656.291	223.46
656.324	165.46
656.356	363.46
656.389	810.46
656.422	698.46
656.454	235.46
656.487	81.46
656.52	13.46
656.552	8.46
656.585	21.46
656.618	14.46
656.65	17.46
656.683	5.46
656.716	4.46
656.748	10.46
656.781	0.46
656.814	5.46
656.846	8.46
656.879	-5.54
656.912	-7.54
656.944	-4.54
656.977	15.46
657.01	-10.54
657.042	11.46
657.075	21.46
657.108	-9.54
657.14	1.46
657.173	-12.54
657.205	32.46
657.238	14.46
657.271	-8.54
657.303	-4.54
657.336	-8.54
657.369	1.46
657.401	8.46
657.434	-4.54
657.466	10.46
657.499	13.46
657.532	13.46
657.564	4.46
657.597	9.46
657.629	9.46
657.662	-3.54
657.694	6.46
657.727	2.46
657.76	8.46
657.792	5.46
657.825	-3.54
657.857	-5.54
657.89	-12.54
657.922	11.46
657.955	6.46
657.987	9.46
658.02	8.46
658.053	15.46
658.085	7.46
658.118	2.46
658.15	7.46
658.183	20.46
658.215	0.46
658.248	2.46
658.28	-7.54
658.313	4.46
658.345	2.46
658.378	0.46
658.41	-5.54
658.443	13.46
658.475	7.46
658.508	-1.54
658.54	-4.54
658.573	-7.54
658.605	15.46
658.638	-4.54
658.67	-10.54
658.703	5.46
658.735	1.46
658.768	4.46
658.8	-12.54
658.833	12.46
658.865	-4.54
658.898	2.46
658.93	-3.54
658.963	-1.54
658.995	-7.54
659.028	-0.54
659.06	-17.54
659.092	-10.54
659.125	5.46
659.157	7.46
659.19	1.46
659.222	1.46
659.255	2.46
659.287	-3.54
659.32	-13.54
659.352	-11.54
659.384	13.46
659.417	1.46
659.449	13.46
659.482	-1.54
659.514	-8.54
659.546	-1.54
659.579	-9.54
659.611	0.46
659.644	2.46
659.676	5.46
659.708	0.46
659.741	-4.54
659.773	3.46
659.806	-3.54
659.838	-10.54
659.87	-0.54
659.903	-6.54
659.935	3.46
659.967	7.46
660	-0.54
660.032	-18.54
660.065	20.46
660.097	6.46
660.129	0.46
660.162	1.46
660.194	6.46
660.226	-2.54
660.259	11.46
660.291	-7.54
660.323	-0.54
660.356	6.46
660.388	-2.54
660.42	5.46
660.453	22.46
660.485	25.46
660.517	15.46
660.55	18.46
660.582	-10.54
660.614	0.46
660.647	3.46
660.679	-14.54
660.711	12.46
660.743	11.46
660.776	3.46
660.808	-10.54
660.84	-14.54
660.873	-8.54
660.905	-1.54
660.937	-12.54
660.969	2.46
661.002	11.46
661.034	33.46
661.066	1.46
661.099	9.46
661.131	12.46
661.163	9.46
661.195	-10.54
661.228	22.46
661.26	-1.54
661.292	-10.54
661.324	7.46
661.357	11.46
661.389	-6.54
661.421	16.46
661.453	1.46
661.485	4.46
661.518	-1.54
661.55	-15.54
661.582	-12.54
661.614	5.46
661.647	8.46
661.679	-2.54
661.711	2.46
661.743	-7.54
661.775	6.46
661.808	17.46
661.84	5.46
661.872	12.46
661.904	5.46
661.936	-9.54
661.969	-0.54
662.001	1.46
662.033	5.46
662.065	8.46
662.097	20.46
662.129	1.46
662.162	4.46
662.194	10.46
662.226	2.46
662.258	7.46
662.29	7.46
662.322	-5.54
662.355	-11.54
662.387	7.46
662.419	10.46
662.451	16.46
662.483	9.46
662.515	4.46
662.547	-16.54
662.58	-9.54
662.612	-11.54
662.644	-24.54
662.676	4.46
662.708	22.46
662.74	-0.54
662.772	4.46
662.804	20.46
662.836	15.46
662.869	-3.54
662.901	9.46
662.933	9.46
662.965	21.46
662.997	5.46
663.029	7.46
663.061	3.46
663.093	-6.54
663.125	8.46
663.157	-6.54
663.189	1.46
663.221	-1.54
663.254	10.46
663.286	23.46
663.318	3.46
663.35	5.46
663.382	-6.54
663.414	10.46
663.446	1.46
663.478	-5.54
663.51	32.46
663.542	-9.54
663.574	-5.54
663.606	-2.54
663.638	5.46
663.67	-17.54
663.702	9.46
663.734	3.46
663.766	9.46
663.798	-12.54
663.83	-2.54
663.862	11.46
663.894	13.46
663.926	4.46
663.958	9.46
663.99	0.46
664.022	-2.54
664.054	5.46
664.086	-0.54
664.118	7.46
664.15	7.46
664.182	19.46
664.214	7.46
664.246	4.46
664.278	4.46
664.31	2.46
664.342	-7.54
664.374	0.46
664.406	6.46
664.438	1.46
664.47	7.46
664.502	10.46
664.534	0.46
664.566	-3.54
664.598	7.46
664.63	1.46
664.662	2.46
664.693	5.46
664.725	-4.54
664.757	3.46
664.789	-2.54
664.821	2.46
664.853	7.46
664.885	8.46
664.917	-1.54
664.949	-0.54
664.981	15.46
665.013	-2.54
665.045	-10.54
665.076	9.46
665.108	-9.54
665.14	-16.54
665.172	2.46
665.204	2.46
665.236	-0.54
665.268	9.46
665.3	-5.54
665.331	-1.54
665.363	1.46
665.395	-8.54
665.427	8.46
665.459	-6.54
665.491	-1.54
665.523	9.46
665.555	0.46
665.586	17.46
665.618	0.46
665.65	-8.54
665.682	7.46
665.714	2.46
665.746	-3.54
665.777	-13.54
665.809	2.46
665.841	3.46
665.873	1.46
665.905	12.46
665.937	42.46
665.968	13.46
666	7.46
666.032	13.46
666.064	0.46
666.096	0.46
666.127	2.46
666.159	28.46
666.191	11.46
666.223	-2.54
666.255	8.46
666.286	9.46
666.318	14.46
666.35	11.46
666.382	-2.54
666.413	-2.54
666.445	-8.54
666.477	-9.54
666.509	4.46
666.54	-0.54
666.572	-11.54
666.604	-10.54
666.636	17.46
666.667	28.46
666.699	21.46
666.731	-2.54
666.763	-15.54
666.794	-7.54
666.826	-5.54
666.858	-9.54
666.89	9.46
666.921	2.46
666.953	11.46
666.985	25.46
667.017	11.46
667.048	2.46
667.08	1.46
667.112	-6.54
667.143	-11.54
667.175	-0.54
667.207	8.46
667.238	1.46
667.27	8.46
667.302	-0.54
667.334	-13.54
667.365	-4.54
667.397	-6.54
667.429	-18.54
667.46	16.46
667.492	11.46
667.524	10.46
667.555	-6.54
667.587	8.46
667.619	-6.54
667.65	0.46
667.682	17.46
667.714	16.46
667.745	14.46
667.777	8.46
667.808	19.46
667.84	6.46
667.872	-2.54
667.903	24.46
667.935	1.46
667.967	5.46
667.998	-2.54
668.03	-4.54
668.061	16.46
668.093	-3.54
668.125	13.46
668.156	9.46
668.188	0.46
668.22	-9.54
668.251	18.46
668.283	8.46
668.314	21.46
668.346	-5.54
668.377	-1.54
668.409	7.46
668.441	17.46
668.472	8.46
668.504	0.46
668.535	17.46
668.567	20.46
668.599	8.46
668.63	1.46
668.662	-0.54
668.693	7.46
668.725	5.46
668.756	-1.54
668.788	-5.54
668.819	-4.54
668.851	9.46
668.882	20.46
668.914	9.46
668.946	11.46
668.977	-10.54
669.009	-3.54
669.04	-7.54
669.072	5.46
669.103	-1.54
669.135	-0.54
669.166	14.46
669.198	3.46
669.229	8.46
669.261	-10.54
669.292	1.46
669.324	4.46
669.355	8.46
669.387	-5.54
669.418	1.46
669.45	1.46
669.481	9.46
669.513	12.46
669.544	1.46
669.576	-7.54
669.607	12.46
669.639	20.46
669.67	-5.54
669.701	22.46
669.733	-11.54
669.764	8.46
669.796	11.46
669.827	-0.54
669.859	-17.54
669.89	9.46
669.922	7.46
669.953	1.46
669.985	8.46
670.016	4.46
670.047	-5.54
670.079	3.46
670.11	-0.54
670.142	-9.54
670.173	8.46
670.204	3.46
670.236	12.46
670.267	-15.54
670.299	6.46
670.33	-12.54
670.362	12.46
670.393	-0.54
670.424	13.46
670.456	-3.54
670.487	-8.54
670.518	5.46
670.55	6.46
670.581	0.46
670.613	3.46
670.644	-0.54
670.675	-9.54
670.707	10.46
670.738	8.46
670.769	5.46
670.801	10.46
670.832	-0.54
670.864	-9.54
670.895	-5.54
670.926	5.46
670.958	13.46
670.989	-4.54
671.02	-4.54
671.052	11.46
671.083	3.46
671.114	-14.54
671.146	17.46
671.177	5.46
671.208	-10.54
671.24	-11.54
671.271	-8.54
671.302	-2.54
671.333	-8.54
671.365	-4.54
671.396	5.46
671.427	4.46
671.459	0.46
671.49	10.46
671.521	11.46
671.553	16.46
671.584	3.46
671.615	-2.54
671.646	7.46
671.678	6.46
671.709	-4.54
671.74	-3.54
671.771	1.46
671.803	4.46
671.834	-0.54
671.865	-1.54
671.896	14.46
671.928	6.46
671.959	1.46
671.99	-5.54
672.021	-5.54
672.053	-1.54
672.084	9.46
672.115	7.46
672.146	0.46
672.178	-8.54
672.209	-16.54
672.24	-14.54
672.271	18.46
672.303	11.46
672.334	-1.54
672.365	-1.54
672.396	6.46
672.427	6.46
672.459	17.46
672.49	19.46
672.521	-3.54
672.552	2.46
672.583	5.46
672.615	1.46
672.646	6.46
672.677	-7.54
672.708	-2.54
672.739	3.46
672.77	3.46
672.802	5.46
672.833	-17.54
672.864	-7.54
672.895	6.46
672.926	0.46
672.957	9.46
672.989	1.46
673.02	14.46
673.051	-2.54
673.082	15.46
673.113	11.46
673.144	7.46
673.175	-10.54
673.206	-5.54
673.238	4.46
673.269	15.46
673.3	11.46
673.331	23.46
673.362	6.46
673.393	23.46
673.424	6.46
673.455	24.46
673.487	1.46
673.518	18.46
673.549	13.46
673.58	6.46
673.611	12.46
673.642	-7.54
673.673	-12.54
673.704	-4.54
673.735	10.46
673.766	4.46
673.797	-5.54
673.828	10.46
673.86	-16.54
673.891	-5.54
673.922	-6.54
673.953	-7.54
673.984	-2.54
674.015	-4.54
674.046	9.46
674.077	8.46
674.108	-5.54
674.139	3.46
674.17	-4.54
674.201	-6.54
674.232	-9.54
674.263	-11.54
674.294	2.46
674.325	-21.54
674.356	9.46
674.387	35.46
674.418	22.46
674.449	6.46
674.48	7.46
674.511	0.46
674.542	16.46
674.573	-6.54
674.604	14.46
674.635	3.46
674.666	9.46
674.697	-3.54
674.728	0.46
674.759	0.46
674.79	-18.54
674.821	-1.54
674.852	-13.54
674.883	-3.54
674.914	9.46
674.945	5.46
674.976	4.46
675.007	2.46
675.038	-0.54
675.069	-2.54
675.1	17.46
675.131	-2.54
675.162	-16.54
675.193	-7.54
675.224	15.46
675.254	14.46
675.285	9.46
675.316	19.46
675.347	15.46
675.378	-1.54
675.409	-1.54
675.44	13.46
675.471	8.46
675.502	-3.54
675.533	5.46
675.564	3.46
675.595	12.46
675.625	13.46
675.656	-0.54
675.687	20.46
675.718	-25.54
675.749	4.46
675.78	18.46
675.811	0.46
675.842	8.46
675.873	0.46
675.903	3.46
675.934	5.46
675.965	6.46
675.996	-8.54
676.027	-2.54
676.058	-5.54
676.089	-16.54
676.119	-6.54
676.15	0.46
676.181	6.46
676.212	-1.54
676.243	14.46
676.274	-1.54
676.304	12.46
676.335	-10.54
676.366	9.46
676.397	6.46
676.428	-2.54
676.459	8.46
676.489	-0.54
676.52	9.46
676.551	14.46
676.582	7.46
676.613	2.46
676.643	-6.54
676.674	9.46
676.705	6.46
676.736	15.46
676.767	28.46
676.797	30.46
676.828	9.46
676.859	15.46
676.89	-17.54
676.92	4.46
676.951	-11.54
676.982	6.46
677.013	7.46
677.044	1.46
677.074	10.46
677.105	-0.54
677.136	4.46
677.167	4.46
677.197	9.46
677.228	1.46
677.259	-14.54
677.289	1.46
677.32	-16.54
677.351	-13.54
677.382	9.46
677.412	-1.54
677.443	5.46
677.474	1.46
677.505	-8.54
677.535	-8.54
677.566	-6.54
677.597	-9.54
677.627	-7.54
677.658	-9.54
677.689	-7.54
677.72	-23.54
677.75	-1.54
677.781	0.46
677.812	1.46
677.842	-1.54
677.873	7.46
677.904	11.46
677.934	-0.54
677.965	2.46
677.996	4.46
678.026	-11.54
678.057	8.46
678.088	-11.54
678.118	3.46
678.149	-2.54
678.18	3.46
678.21	-2.54
678.241	6.46
678.272	5.46
678.302	6.46
678.333	10.46
678.363	17.46
678.394	12.46
678.425	13.46
678.455	7.46
678.486	19.46
678.517	8.46
678.547	1.46
678.578	-3.54
678.608	-9.54
678.639	0.46
678.67	-3.54
678.7	-3.54
678.731	2.46
678.761	-6.54
678.792	16.46
678.823	9.46
678.853	-2.54
678.884	-19.54
678.914	16.46
678.945	8.46
678.975	-9.54
679.006	11.46
679.037	-3.54
679.067	19.46
679.098	5.46
679.128	-13.54
679.159	-3.54
679.189	13.46
679.22	-1.54
679.25	4.46
679.281	15.46
679.312	-9.54
679.342	12.46
679.373	13.46
679.403	6.46
679.434	18.46
679.464	18.46
679.495	12.46
679.525	9.46
679.556	11.46
679.586	5.46
679.617	18.46
679.647	9.46
679.678	17.46
679.708	11.46
679.739	-1.54
679.769	-11.54
679.8	-13.54
679.83	10.46
679.861	7.46
679.891	-2.54
679.922	0.46
679.952	-14.54
679.983	-4.54
680.013	8.46
680.044	-15.54
680.074	16.46
680.105	20.46
680.135	-4.54
680.165	-8.54
680.196	5.46
680.226	2.46
680.257	10.46
680.287	-1.54
680.318	-8.54
680.348	-21.54
680.379	5.46
680.409	15.46
680.439	-3.54
680.47	0.46
680.5	-11.54
680.531	1.46
680.561	2.46
680.592	-0.54
680.622	22.46
680.652	13.46
680.683	13.46
680.713	-0.54
680.744	9.46
680.774	-7.54
680.804	20.46
680.835	-9.54
680.865	-11.54
680.896	14.46
680.926	19.46
680.956	8.46
680.987	13.46
681.017	-3.54
681.047	-4.54
681.078	-22.54
681.108	1.46
681.139	3.46
681.169	0.46
681.199	-5.54
681.23	-5.54
681.26	10.46
681.29	-2.54
681.321	-11.54
681.351	3.46
681.381	-3.54
681.412	8.46
681.442	3.46
681.472	13.46
681.503	11.46
681.533	14.46
681.563	5.46
681.594	5.46
681.624	18.46
681.654	6.46
681.685	-5.54
681.715	-2.54
681.745	7.46
681.775	-9.54
681.806	-3.54
681.836	2.46
681.866	-15.54
681.897	-0.54
681.927	-1.54
681.957	-13.54
681.987	15.46
682.018	5.46
682.048	4.46
682.078	-5.54
682.109	14.46
682.139	-1.54
682.169	11.46
682.199	-1.54
682.23	0.46
682.26	9.46
682.29	-6.54
682.32	1.46
682.351	9.46
682.381	3.46
682.411	1.46
682.441	-3.54
682.472	-5.54
682.502	4.46
682.532	6.46
682.562	7.46
682.592	9.46
682.623	9.46
682.653	13.46
682.683	0.46
682.713	17.46
682.743	-9.54
682.774	-7.54
682.804	-0.54
682.834	25.46
682.864	-15.54
682.894	9.46
682.925	-6.54
682.955	-16.54
682.985	1.46
683.015	8.46
683.045	15.46
683.076	-11.54
683.106	3.46
683.136	6.46
683.166	-0.54
683.196	-3.54
683.226	-7.54
683.257	6.46
683.287	-7.54
683.317	-16.54
683.347	-11.54
683.377	-5.54
683.407	4.46
683.437	8.46
683.468	4.46
683.498	-4.54
683.528	-1.54
683.558	11.46
683.588	7.46
683.618	-6.54
683.648	-10.54
683.678	8.46
683.708	10.46
683.739	4.46
683.769	5.46
683.799	0.46
683.829	5.46
683.859	0.46
683.889	5.46
683.919	9.46
683.949	2.46
683.979	-19.54
684.009	8.46
684.039	14.46
684.07	-18.54
684.1	13.46
684.13	10.46
684.16	17.46
684.19	5.46
684.22	0.46
684.25	3.46
684.28	9.46
684.31	27.46
684.34	10.46
684.37	11.46
684.4	2.46
684.43	2.46
684.46	9.46
684.49	13.46
684.52	14.46
684.55	23.46
684.58	-10.54
684.61	4.46
684.64	5.46
684.67	6.46
684.7	-5.54
684.73	4.46
684.76	2.46
684.79	14.46
684.82	9.46
684.85	-4.54
684.88	-2.54
684.91	0.46
684.94	-9.54
684.97	0.46
685	-7.54
685.03	-8.54
685.06	1.46
685.09	-5.54
685.12	9.46
685.15	-14.54
685.18	6.46
685.21	13.46
685.24	15.46
685.27	32.46
685.3	5.46
685.33	9.46
685.36	10.46
685.39	8.46
685.42	-10.54
685.45	4.46
685.48	-14.54
685.51	7.46
685.54	2.46
685.569	7.46
685.599	8.46
685.629	2.46
685.659	7.46
685.689	10.46
685.719	8.46
685.749	2.46
685.779	3.46
685.809	4.46
685.839	-10.54
685.869	-4.54
685.898	15.46
685.928	-9.54
685.958	-5.54
685.988	6.46
686.018	0.46
686.048	9.46
686.078	28.46
686.108	18.46
686.137	12.46
686.167	22.46
686.197	-5.54
686.227	-6.54
686.257	23.46
686.287	6.46
686.317	1.46
686.346	-2.54
686.376	-7.54
686.406	6.46
686.436	2.46
686.466	-4.54
686.496	7.46
686.525	13.46
686.555	-2.54
686.585	14.46
686.615	18.46
686.645	16.46
686.675	9.46
686.704	11.46
686.734	5.46
686.764	-12.54
686.794	3.46
686.824	-8.54
686.853	16.46
686.883	11.46
686.913	2.46
686.943	8.46
686.973	1.46
687.002	8.46
687.032	19.46
687.062	-0.54
687.092	18.46
687.121	-4.54
687.151	7.46
687.181	-2.54
687.211	-2.54
687.24	-4.54
687.27	-9.54
687.3	-6.54
687.33	7.46
687.359	-2.54
687.389	6.46
687.419	2.46
687.449	9.46
687.478	-6.54
687.508	9.46
687.538	12.46
687.568	10.46
687.597	-16.54
687.627	0.46
687.657	7.46
687.686	-9.54
687.716	33.46
687.746	9.46
687.776	-3.54
687.805	8.46
687.835	-7.54
687.865	17.46
687.894	12.46
687.924	-8.54
687.954	5.46
687.983	13.46
688.013	15.46
688.043	-1.54
688.072	5.46
688.102	13.46
688.132	-1.54
688.161	-4.54
688.191	-2.54
688.221	18.46
688.25	5.46
688.28	5.46
688.31	1.46
688.339	8.46
688.369	-8.54
688.399	-16.54
688.428	7.46
688.458	12.46
688.488	-7.54
688.517	4.46
688.547	5.46
688.576	23.46
688.606	21.46
688.636	0.46
688.665	15.46
688.695	16.46
688.725	12.46
688.754	18.46
688.784	18.46
688.813	12.46
688.843	10.46
688.873	7.46
688.902	16.46
688.932	7.46
688.961	4.46
688.991	1.46
689.02	-1.54
689.05	-6.54
689.08	23.46
689.109	12.46
689.139	6.46
689.168	6.46
689.198	14.46
689.227	10.46
689.257	15.46
689.287	5.46
689.316	2.46
689.346	-13.54
689.375	-6.54
689.405	-1.54
689.434	-5.54
689.464	3.46
689.493	-3.54
689.523	8.46
689.552	-9.54
689.582	-5.54
689.611	-16.54
689.641	6.46
689.67	-3.54
689.7	9.46
689.73	2.46
689.759	15.46
689.789	24.46
689.818	-5.54
689.848	4.46
689.877	26.46
689.906	9.46
689.936	8.46
689.965	21.46
689.995	15.46
690.024	16.46
690.054	18.46
690.083	-4.54
690.113	4.46
690.142	8.46
690.172	-4.54
690.201	20.46
690.231	9.46
690.26	11.46
690.29	17.46
690.319	14.46
690.348	14.46
690.378	10.46
690.407	6.46
690.437	-5.54
690.466	9.46
690.496	-3.54
690.525	-0.54
690.555	-29.54
690.584	5.46
690.613	0.46
690.643	7.46
690.672	23.46
690.702	21.46
690.731	0.46
690.76	-3.54
690.79	-15.54
690.819	-3.54
690.849	-1.54
690.878	10.46
690.907	8.46
690.937	10.46
690.966	14.46
690.996	12.46
691.025	7.46
691.054	5.46
691.084	7.46
691.113	16.46
691.142	-3.54
691.172	3.46
691.201	20.46
691.23	-8.54
691.26	18.46
691.289	-11.54
691.319	1.46
691.348	5.46
691.377	26.46
691.407	15.46
691.436	5.46
691.465	8.46
691.495	10.46
691.524	-7.54
691.553	-3.54
691.583	-15.54
691.612	18.46
691.641	3.46
691.67	0.46
691.7	5.46
691.729	-9.54
691.758	1.46
691.788	-8.54
691.817	0.46
691.846	-9.54
691.876	3.46
691.905	6.46
691.934	-0.54
691.963	1.46
691.993	7.46
692.022	-0.54
692.051	-9.54
692.081	21.46
692.11	21.46
692.139	5.46
692.168	-6.54
692.198	25.46
692.227	17.46
692.256	0.46
692.285	-4.54
692.315	2.46
692.344	9.46
692.373	0.46
692.402	-21.54
692.432	-0.54
692.461	-5.54
692.49	11.46
692.519	12.46
692.548	11.46
692.578	23.46
692.607	0.46
692.636	-5.54
692.665	14.46
692.694	9.46
692.724	5.46
692.753	14.46
692.782	13.46
692.811	-13.54
692.84	-4.54
692.87	-1.54
692.899	3.46
692.928	-1.54
692.957	6.46
692.986	24.46
693.016	14.46
693.045	5.46
693.074	15.46
693.103	2.46
693.132	-8.54
693.161	6.46
693.191	1.46
693.22	-30.54
693.249	4.46
693.278	9.46
693.307	25.46
693.336	7.46
693.365	-9.54
693.395	-5.54
693.424	-6.54
693.453	0.46
693.482	6.46
693.511	14.46
693.54	19.46
693.569	17.46
693.598	12.46
693.628	8.46
693.657	6.46
693.686	19.46
693.715	8.46
693.744	11.46
693.773	8.46
693.802	7.46
693.831	9.46
693.86	7.46
693.889	2.46
693.919	4.46
693.948	4.46
693.977	2.46
694.006	-10.54
694.035	-2.54
694.064	0.46
694.093	15.46
694.122	4.46
694.151	9.46
694.18	5.46
694.209	27.46
694.238	5.46
694.267	29.46
694.296	-1.54
694.325	25.46
694.354	28.46
694.383	23.46
694.412	-0.54
694.441	-2.54
694.471	0.46
694.5	2.46
694.529	18.46
694.558	26.46
694.587	16.46
694.616	7.46
694.645	7.46
694.674	13.46
694.703	19.46
694.732	4.46
694.761	9.46
694.79	22.46
694.819	-2.54
694.848	10.46
694.877	16.46
694.906	18.46
694.935	4.46
694.963	21.46
694.992	8.46
695.021	4.46
695.05	4.46
695.079	4.46
695.108	0.46
695.137	23.46
695.166	13.46
695.195	-1.54
695.224	0.46
695.253	0.46
695.282	-0.54
695.311	15.46
695.34	1.46
695.369	18.46
695.398	7.46
695.427	8.46
695.456	3.46
695.485	4.46
695.513	4.46
695.542	2.46
695.571	8.46
695.6	19.46
695.629	16.46
695.658	22.46
695.687	5.46
695.716	8.46
695.745	13.46
695.774	-13.54
695.802	0.46
695.831	9.46
695.86	14.46
695.889	16.46
695.918	17.46
695.947	7.46
695.976	-0.54
696.005	12.46
696.033	25.46
696.062	-0.54
696.091	4.46
696.12	4.46
696.149	22.46
696.178	4.46
696.207	-2.54
696.235	-18.54
696.264	14.46
696.293	24.46
696.322	12.46
696.351	19.46
696.38	4.46
696.408	-0.54
696.437	6.46
696.466	0.46
696.495	2.46
696.524	24.46
696.553	23.46
696.581	6.46
696.61	-1.54
696.639	-1.54
696.668	1.46
696.697	-4.54
696.725	9.46
696.754	16.46
696.783	3.46
696.812	0.46
696.84	1.46
696.869	20.46
696.898	14.46
696.927	-7.54
696.956	29.46
696.984	2.46
697.013	-0.54
697.042	0.46
697.071	8.46
697.099	21.46
697.128	18.46
697.157	7.46
697.186	-6.54
697.214	3.46
697.243	5.46
697.272	5.46
697.301	12.46
697.329	1.46
697.358	16.46
697.387	38.46
697.415	13.46
697.444	12.46
697.473	3.46
697.502	2.46
697.53	13.46
697.559	9.46
697.588	5.46
697.616	5.46
697.645	2.46
697.674	19.46
697.703	8.46
697.731	21.46
697.76	8.46
697.789	10.46
697.817	9.46
697.846	16.46
697.875	-0.54
697.903	12.46
697.932	29.46
697.961	2.46
697.989	3.46
698.018	8.46
698.047	10.46
698.075	6.46
698.104	-3.54
698.133	6.46
698.161	9.46
698.19	-9.54
698.218	-5.54
698.247	12.46
698.276	4.46
698.304	11.46
698.333	5.46
698.362	24.46
698.39	2.46
698.419	2.46
698.447	2.46
698.476	13.46
698.505	8.46
698.533	5.46
698.562	4.46
698.591	-10.54
698.619	-9.54
698.648	7.46
698.676	9.46
698.705	2.46
698.733	5.46
698.762	1.46
698.791	0.46
698.819	-3.54
698.848	4.46
698.876	18.46
698.905	11.46
698.933	1.46
698.962	-10.54
698.991	11.46
699.019	5.46
699.048	9.46
699.076	10.46
699.105	-10.54
699.133	-10.54
699.162	27.46
699.19	22.46
699.219	17.46
699.248	5.46
699.276	5.46
699.305	-13.54
699.333	13.46
699.362	-10.54
699.39	12.46
699.419	-5.54
699.447	5.46
699.476	12.46
699.504	-9.54
699.533	8.46
699.561	3.46
699.59	9.46
699.618	19.46
699.647	3.46
699.675	22.46
699.704	29.46
699.732	9.46
699.761	14.46
699.789	4.46
699.818	8.46
699.846	-3.54
699.874	-5.54
699.903	9.46
699.931	13.46
699.96	7.46
699.988	8.46
700.017	-0.54
700.045	4.46
700.074	-8.54
700.102	-13.54
700.13	-9.54
700.159	10.46
700.187	1.46
700.216	-5.54
700.244	-1.54
700.273	9.46
700.301	2.46
700.329	-0.54
700.358	19.46
700.386	8.46
700.415	11.46
700.443	3.46
700.472	14.46
700.5	1.46
700.528	17.46
700.557	27.46
700.585	2.46
700.614	3.46
700.642	11.46
700.67	22.46
700.699	13.46
700.727	-3.54
700.755	-1.54
700.784	16.46
700.812	6.46
700.841	15.46
700.869	-2.54
700.897	-6.54
700.926	11.46
700.954	5.46
700.982	-0.54
701.011	12.46
701.039	20.46
701.067	10.46
701.096	16.46
701.124	-10.54
701.152	3.46
701.181	-0.54
701.209	-5.54
701.237	7.46
701.266	-10.54
701.294	-3.54
701.322	5.46
701.351	18.46
701.379	2.46
701.407	3.46
701.435	9.46
701.464	21.46
701.492	15.46
701.52	-3.54
701.549	7.46
701.577	-2.54
701.605	10.46
701.634	4.46
701.662	7.46
701.69	-10.54
701.718	-2.54
701.747	20.46
701.775	1.46
701.803	-0.54
701.831	5.46
701.86	-14.54
701.888	-6.54
701.916	1.46
701.944	-4.54
701.973	-0.54
702.001	-9.54
702.029	-15.54
702.057	-3.54
702.086	-6.54
702.114	-8.54
702.142	14.46
702.17	-11.54
702.199	2.46
702.227	13.46
702.255	12.46
702.283	5.46
702.311	18.46
702.34	7.46
702.368	5.46
702.396	4.46
702.424	7.46
702.452	15.46
702.481	-2.54
702.509	4.46
702.537	5.46
702.565	2.46
702.593	-11.54
702.621	6.46
702.65	24.46
702.678	2.46
702.706	8.46
702.734	-2.54
702.762	8.46
702.79	-7.54
702.819	3.46
702.847	17.46
702.875	12.46
702.903	19.46
702.931	8.46
702.959	9.46
702.988	13.46
703.016	3.46
703.044	12.46
703.072	2.46
703.1	13.46
703.128	10.46
703.156	-4.54
703.184	9.46
703.212	16.46
703.241	8.46
703.269	6.46
703.297	2.46
703.325	0.46
703.353	-4.54
703.381	9.46
703.409	-0.54
703.437	-3.54
703.465	4.46
703.493	-11.54
703.522	0.46
703.55	-0.54
703.578	-4.54
703.606	-0.54
703.634	-2.54
703.662	-6.54
703.69	6.46
703.718	8.46
703.746	10.46
703.774	5.46
703.802	19.46
703.83	-9.54
703.858	-7.54
703.886	-11.54
703.914	-12.54
703.942	12.46
703.97	4.46
703.998	-8.54
704.027	25.46
704.055	16.46
704.083	-0.54
704.111	-6.54
704.139	9.46
704.167	-16.54
704.195	11.46
704.223	-6.54
704.251	-5.54
704.279	-3.54
704.307	0.46
704.335	-10.54
704.363	-5.54
704.391	5.46
704.419	-8.54
704.447	-5.54
704.475	18.46
704.503	3.46
704.531	14.46
704.558	12.46
704.586	5.46
704.614	6.46
704.642	6.46
704.67	-0.54
704.698	15.46
704.726	5.46
704.754	4.46
704.782	2.46
704.81	5.46
704.838	9.46
704.866	27.46
704.894	-9.54
704.922	-11.54
704.95	15.46
704.978	0.46
705.006	-0.54
705.034	18.46
705.061	-18.54
705.089	-6.54
705.117	-4.54
705.145	-8.54
705.173	1.46
705.201	4.46
705.229	5.46
705.257	11.46
705.285	7.46
705.313	11.46
705.34	-4.54
705.368	5.46
705.396	-1.54
705.424	20.46
705.452	-8.54
705.48	-10.54
705.508	1.46
705.536	0.46
705.563	-14.54
705.591	18.46
705.619	10.46
705.647	-4.54
705.675	21.46
705.703	7.46
705.731	0.46
705.758	8.46
705.786	1.46
705.814	16.46
705.842	13.46
705.87	9.46
705.898	25.46
705.925	6.46
705.953	13.46
705.981	0.46
706.009	12.46
706.037	-2.54
706.065	-10.54
706.092	-0.54
706.12	18.46
706.148	-2.54
706.176	2.46
706.204	22.46
706.231	-7.54
706.259	-8.54
706.287	13.46
706.315	17.46
706.342	-10.54
706.37	1.46
706.398	3.46
706.426	-3.54
706.454	-1.54
706.481	8.46
706.509	-2.54
706.537	3.46
706.565	6.46
706.592	5.46
706.62	3.46
706.648	17.46
706.676	-8.54
706.703	5.46
706.731	-15.54
706.759	-21.54
706.787	2.46
706.814	5.46
706.842	-1.54
706.87	-6.54
706.897	-0.54
706.925	-0.54
706.953	6.46
706.981	15.46
707.008	7.46
707.036	-1.54
707.064	4.46
707.091	-9.54
707.119	13.46
707.147	1.46
707.174	-18.54
707.202	9.46
707.23	-5.54
707.258	18.46
707.285	-13.54
707.313	-10.54
707.341	-8.54
707.368	2.46
707.396	6.46
707.424	33.46
707.451	3.46
707.479	9.46
707.507	3.46
707.534	-15.54
707.562	-11.54
707.59	-15.54
707.617	-13.54
707.645	-4.54
707.672	-1.54
707.7	1.46
707.728	21.46
707.755	-5.54
707.783	4.46
707.811	-2.54
707.838	4.46
707.866	2.46
707.893	10.46
707.921	9.46
707.949	9.46
707.976	22.46
708.004	5.46
708.031	2.46
708.059	1.46
708.087	5.46
708.114	6.46
708.142	-10.54
708.169	1.46
708.197	-13.54
708.225	-2.54
708.252	-7.54
708.28	3.46
708.307	4.46
708.335	-0.54
708.362	-2.54
708.39	-14.54
708.418	-5.54
708.445	-13.54
708.473	-4.54
708.5	4.46
708.528	25.46
708.555	-1.54
708.583	0.46
708.61	-6.54
708.638	9.46
708.665	-6.54
708.693	-2.54
708.72	-13.54
708.748	-1.54
708.776	-11.54
708.803	5.46
708.831	0.46
708.858	17.46
708.886	-2.54
708.913	2.46
708.941	-16.54
708.968	4.46
708.996	1.46
709.023	30.46
709.051	1.46
709.078	5.46
709.105	1.46
709.133	4.46
709.16	5.46
709.188	18.46
709.215	7.46
709.243	4.46
709.27	-9.54
709.298	-19.54
709.325	-17.54
709.353	4.46
709.38	2.46
709.408	0.46
709.435	14.46
709.462	-5.54
709.49	6.46
709.517	-3.54
709.545	-5.54
709.572	2.46
709.6	-1.54
709.627	3.46
709.655	-1.54
709.682	0.46
709.709	4.46
709.737	12.46
709.764	-14.54
709.792	-1.54
709.819	1.46
709.846	11.46
709.874	10.46
709.901	16.46
709.929	9.46
709.956	1.46
709.983	-10.54
710.011	-6.54
710.038	-1.54
710.066	11.46
710.093	20.46
710.12	6.46
710.148	4.46
710.175	-6.54
710.202	5.46
710.23	5.46
710.257	1.46
710.284	10.46
710.312	8.46
710.339	-11.54
710.366	6.46
710.394	7.46
710.421	14.46
710.448	-2.54
710.476	1.46
710.503	0.46
710.53	2.46
710.558	5.46
710.585	13.46
710.612	1.46
710.64	-3.54
710.667	0.46
710.694	-13.54
710.722	-10.54
710.749	-2.54
710.776	-3.54
710.804	7.46
710.831	-0.54
710.858	-1.54
710.885	1.46
710.913	-2.54
710.94	11.46
710.967	-16.54
710.995	5.46
711.022	4.46
711.049	-3.54
711.076	-6.54
711.104	-3.54
711.131	-8.54
711.158	-1.54
711.185	24.46
711.213	-0.54
711.24	4.46
711.267	-11.54
711.294	1.46
711.322	19.46
711.349	24.46
711.376	-0.54
711.403	4.46
711.431	-6.54
711.458	-0.54
711.485	12.46
711.512	4.46
711.54	1.46
711.567	10.46
711.594	8.46
711.621	12.46
711.648	0.46
711.676	-7.54
711.703	5.46
711.73	-17.54
711.757	20.46
711.784	6.46
711.812	4.46
711.839	2.46
711.866	6.46
711.893	-16.54
711.92	5.46
711.947	0.46
711.975	-5.54
712.002	0.46
712.029	20.46
712.056	0.46
712.083	4.46
712.11	-2.54
712.138	3.46
712.165	7.46
712.192	6.46
712.219	7.46
712.246	-6.54
712.273	8.46
712.3	2.46
712.328	-0.54
712.355	-1.54
712.382	-17.54
712.409	13.46
712.436	-5.54
712.463	13.46
712.49	10.46
712.517	-2.54
712.544	-11.54
712.572	-5.54
712.599	-4.54
712.626	10.46
712.653	-4.54
712.68	-0.54
712.707	5.46
712.734	0.46
712.761	-2.54
712.788	4.46
712.815	3.46
712.842	13.46
712.87	-1.54
712.897	-24.54
712.924	1.46
712.951	-1.54
712.978	10.46
713.005	10.46
713.032	19.46
713.059	7.46
713.086	-2.54
713.113	-6.54
713.14	-5.54
713.167	-6.54
713.194	15.46
713.221	21.46
713.248	26.46
713.275	-3.54
713.302	-9.54
713.329	11.46
713.356	7.46
713.383	10.46
713.41	17.46
713.437	-11.54
713.464	5.46
713.491	-2.54
713.518	8.46
713.545	-12.54
713.572	-2.54
713.599	17.46
713.626	10.46
713.653	13.46
713.68	3.46
713.707	-3.54
713.734	2.46
713.761	1.46
713.788	-2.54
713.815	-1.54
713.842	11.46
713.869	-5.54
713.896	0.46
713.923	5.46
713.95	-0.54
713.977	-3.54
714.004	-5.54
714.031	7.46
714.058	7.46
714.085	13.46
714.112	9.46
714.139	0.46
714.165	-9.54
714.192	-16.54
714.219	7.46
714.246	5.46
714.273	-0.54
714.3	-9.54
714.327	-0.54
714.354	16.46
714.381	-3.54
714.408	-13.54
714.435	-0.54
714.461	-3.54
714.488	3.46
714.515	-6.54
714.542	-5.54
714.569	-14.54
714.596	-29.54
714.623	-9.54
714.65	0.46
714.677	6.46
714.703	-6.54
714.73	7.46
714.757	-10.54
714.784	7.46
714.811	0.46
714.838	4.46
714.865	-1.54
714.891	19.46
714.918	17.46
714.945	-1.54
714.972	8.46
714.999	30.46
715.026	-10.54
715.052	4.46
715.079	2.46
715.106	8.46
715.133	4.46
715.16	-10.54
715.187	10.46
715.213	23.46
715.24	-8.54
715.267	10.46
715.294	-1.54
715.321	1.46
715.347	6.46
715.374	-10.54
715.401	6.46
715.428	13.46
715.455	15.46
715.481	-1.54
715.508	21.46
715.535	9.46
715.562	10.46
715.588	4.46
715.615	-2.54
715.642	9.46
715.669	13.46
715.695	-3.54
715.722	-2.54
715.749	11.46
715.776	4.46
715.802	5.46
715.829	19.46
715.856	1.46
715.883	-0.54
715.909	-7.54
715.936	2.46
715.963	6.46
715.99	-13.54
716.016	-15.54
716.043	-1.54
716.07	-6.54
716.096	1.46
716.123	-0.54
716.15	12.46
716.177	8.46
716.203	8.46
716.23	5.46
716.257	6.46
716.283	4.46
716.31	-1.54
716.337	-0.54
716.363	-4.54
716.39	-1.54
716.417	22.46
716.443	7.46
716.47	1.46
716.497	14.46
716.523	19.46
716.55	-0.54
716.577	13.46
716.603	-16.54
716.63	6.46
716.657	18.46
716.683	12.46
716.71	4.46
716.737	0.46
716.763	10.46
716.79	16.46
716.817	15.46
716.843	4.46
716.87	-6.54
716.897	5.46
716.923	22.46
716.95	10.46
716.976	-6.54
717.003	4.46
717.03	8.46
717.056	8.46
717.083	9.46
717.109	1.46
717.136	10.46
717.163	5.46
717.189	6.46
717.216	-5.54
717.242	7.46
717.269	1.46
717.296	8.46
717.322	7.46
717.349	16.46
717.375	2.46
717.402	6.46
717.428	5.46
717.455	-0.54
717.481	-4.54
717.508	23.46
717.535	6.46
717.561	-8.54
717.588	-18.54
717.614	-7.54
717.641	-8.54
717.667	10.46
717.694	13.46
717.72	3.46
717.747	5.46
717.773	-10.54
717.8	12.46
717.826	0.46
717.853	16.46
717.88	31.46
717.906	4.46
717.933	9.46
717.959	2.46
717.986	13.46
718.012	5.46
718.039	15.46
718.065	21.46
718.092	4.46
718.118	-11.54
718.144	4.46
718.171	6.46
718.197	23.46
718.224	-0.54
718.25	-9.54
718.277	2.46
718.303	5.46
718.33	1.46
718.356	-6.54
718.383	-8.54
718.409	-11.54
718.436	0.46
718.462	-2.54
718.489	9.46
718.515	12.46
718.541	26.46
718.568	7.46
718.594	-3.54
718.621	6.46
718.647	1.46
718.674	13.46
718.7	21.46
718.726	7.46
718.753	19.46
718.779	17.46
718.806	1.46
718.832	1.46
718.858	-0.54
718.885	1.46
718.911	-9.54
718.938	12.46
718.964	-0.54
718.99	12.46
719.017	2.46
719.043	-5.54
719.07	28.46
719.096	0.46
719.122	9.46
719.149	10.46
719.175	14.46
719.201	-8.54
719.228	-2.54
719.254	-0.54
719.281	2.46
719.307	6.46
719.333	-10.54
719.36	20.46
719.386	8.46
719.412	6.46
719.439	-14.54
719.465	-6.54
719.491	-8.54
719.518	10.46
719.544	20.46
719.57	14.46
719.597	12.46
719.623	-4.54
719.649	3.46
719.675	12.46
719.702	25.46
719.728	16.46
719.754	6.46
719.781	-1.54
719.807	3.46
719.833	-2.54
719.86	-6.54
719.886	-2.54
719.912	2.46
719.938	2.46
719.965	-0.54
719.991	18.46
720.017	8.46
720.044	-5.54
720.07	1.46
720.096	4.46
720.122	-0.54
720.149	10.46
720.175	18.46
720.201	-22.54
720.227	-10.54
720.254	0.46
720.28	8.46
720.306	-18.54
720.332	0.46
720.359	1.46
720.385	8.46
720.411	0.46
720.437	2.46
720.463	1.46
720.49	22.46
720.516	-6.54
720.542	-10.54
720.568	2.46
720.595	18.46
720.621	3.46
720.647	-2.54
720.673	2.46
720.699	-1.54
720.725	-8.54
720.752	5.46
720.778	13.46
720.804	19.46
720.83	19.46
720.856	0.46
720.883	-8.54
720.909	0.46
720.935	24.46
720.961	22.46
720.987	6.46
721.013	-1.54
721.04	0.46
721.066	-2.54
721.092	-9.54
721.118	15.46
721.144	8.46
721.17	6.46
721.196	6.46
721.223	-5.54
721.249	-3.54
721.275	19.46
721.301	21.46
721.327	13.46
721.353	14.46
721.379	8.46
721.405	-2.54
721.432	4.46
721.458	4.46
721.484	24.46
721.51	-4.54
721.536	18.46
721.562	2.46
721.588	-5.54
721.614	-7.54
721.64	1.46
721.666	-1.54
721.693	-15.54
721.719	-5.54
721.745	-3.54
721.771	0.46
721.797	3.46
721.823	14.46
721.849	29.46
721.875	7.46
721.901	2.46
721.927	-3.54
721.953	-4.54
721.979	16.46
722.005	27.46
722.031	-0.54
722.057	13.46
722.083	-5.54
722.109	9.46
722.135	18.46
722.161	4.46
722.187	12.46
722.214	-9.54
722.24	-0.54
722.266	-10.54
722.292	8.46
722.318	7.46
722.344	-2.54
722.37	-0.54
722.396	3.46
722.422	2.46
722.448	-13.54
722.474	-19.54
722.5	9.46
722.526	8.46
722.552	15.46
722.578	17.46
722.603	15.46
722.629	-5.54
722.655	0.46
722.681	-2.54
722.707	5.46
722.733	-1.54
722.759	-15.54
722.785	-0.54
722.811	3.46
722.837	8.46
722.863	15.46
722.889	13.46
722.915	1.46
722.941	-8.54
722.967	2.46
722.993	16.46
723.019	4.46
723.045	18.46
723.071	4.46
723.097	8.46
723.122	5.46
723.148	-13.54
723.174	-5.54
723.2	18.46
723.226	3.46
723.252	6.46
723.278	-1.54
723.304	8.46
723.33	-1.54
723.356	-5.54
723.381	-6.54
723.407	-17.54
723.433	11.46
723.459	-3.54
723.485	0.46
723.511	-0.54
723.537	1.46
723.563	7.46
723.588	20.46
723.614	15.46
723.64	-7.54
723.666	-0.54
723.692	5.46
723.718	6.46
723.744	11.46
723.769	16.46
723.795	-5.54
723.821	5.46
723.847	4.46
723.873	16.46
723.899	-7.54
723.924	16.46
723.95	6.46
723.976	-5.54
724.002	0.46
724.028	10.46
724.053	4.46
724.079	-2.54
724.105	-0.54
724.131	4.46
724.157	21.46
724.182	5.46
724.208	-9.54
724.234	-5.54
724.26	4.46
724.286	11.46
724.311	5.46
724.337	-2.54
724.363	-1.54
724.389	2.46
724.415	0.46
724.44	18.46
724.466	2.46
724.492	10.46
724.518	14.46
724.543	8.46
724.569	30.46
724.595	12.46
724.621	-2.54
724.646	2.46
724.672	-5.54
724.698	6.46
724.723	10.46
724.749	1.46
724.775	12.46
724.801	5.46
724.826	0.46
724.852	5.46
724.878	-4.54
724.904	-6.54
724.929	-5.54
724.955	1.46
724.981	14.46
725.006	-6.54
725.032	0.46
725.058	16.46
725.083	5.46
725.109	5.46
725.135	7.46
725.161	12.46
725.186	11.46
725.212	10.46
725.238	12.46
725.263	14.46
725.289	-18.54
725.315	-15.54
725.34	-9.54
725.366	18.46
725.392	10.46
725.417	17.46
725.443	13.46
725.468	21.46
725.494	14.46
725.52	5.46
725.545	11.46
725.571	4.46
725.597	2.46
725.622	9.46
725.648	-2.54
725.674	17.46
725.699	15.46
725.725	1.46
725.75	26.46
725.776	1.46
725.802	4.46
725.827	-3.54
725.853	-2.54
725.878	1.46
725.904	13.46
725.93	10.46
725.955	4.46
725.981	-2.54
726.006	11.46
726.032	14.46
726.057	-2.54
726.083	-11.54
726.109	-4.54
726.134	-2.54
726.16	-6.54
726.185	-12.54
726.211	-13.54
726.236	11.46
726.262	19.46
726.288	-3.54
726.313	9.46
726.339	13.46
726.364	11.46
726.39	4.46
726.415	-0.54
726.441	-2.54
726.466	4.46
726.492	3.46
726.517	14.46
726.543	12.46
726.568	2.46
726.594	14.46
726.619	7.46
726.645	14.46
726.67	1.46
726.696	-1.54
726.721	-10.54
726.747	-1.54
726.772	11.46
726.798	2.46
726.823	8.46
726.849	5.46
726.874	11.46
726.9	27.46
726.925	15.46
726.951	-12.54
726.976	12.46
727.002	2.46
727.027	12.46
727.053	21.46
727.078	0.46
727.104	19.46
727.129	0.46
727.155	14.46
727.18	19.46
727.205	9.46
727.231	-1.54
727.256	-1.54
727.282	7.46
727.307	16.46
727.333	-0.54
727.358	-1.54
727.383	-18.54
727.409	-7.54
727.434	20.46
727.46	4.46
727.485	12.46
727.511	1.46
727.536	-5.54
727.561	-14.54
727.587	6.46
727.612	-7.54
727.637	-0.54
727.663	5.46
727.688	19.46
727.714	-0.54
727.739	-7.54
727.764	-1.54
727.79	7.46
727.815	16.46
727.841	5.46
727.866	-5.54
727.891	11.46
727.917	-9.54
727.942	-15.54
727.967	8.46
727.993	-9.54
728.018	2.46
728.043	-9.54
728.069	14.46
728.094	-0.54
728.119	7.46
728.145	16.46
728.17	17.46
728.195	6.46
728.221	0.46
728.246	-5.54
728.271	-6.54
728.297	5.46
728.322	1.46
728.347	4.46
728.373	15.46
728.398	8.46
728.423	-6.54
728.448	20.46
728.474	8.46
728.499	9.46
728.524	2.46
728.55	-17.54
728.575	-7.54
728.6	5.46
728.625	1.46
728.651	4.46
728.676	4.46
728.701	-1.54
728.727	16.46
728.752	4.46
728.777	8.46
728.802	10.46
728.828	14.46
728.853	18.46
728.878	-0.54
728.903	-1.54
728.929	-0.54
728.954	5.46
728.979	2.46
729.004	-6.54
729.03	8.46
729.055	14.46
729.08	-9.54
729.105	-4.54
729.13	8.46
729.156	0.46
729.181	4.46
729.206	-17.54
729.231	-4.54
729.256	7.46
729.282	-1.54
729.307	-17.54
729.332	-6.54
729.357	0.46
729.382	0.46
729.408	13.46
729.433	-5.54
729.458	20.46
729.483	19.46
729.508	15.46
729.533	10.46
729.559	-3.54
729.584	-18.54
729.609	2.46
729.634	10.46
729.659	7.46
729.684	5.46
729.71	21.46
729.735	0.46
729.76	12.46
729.785	10.46
729.81	21.46
729.835	12.46
729.86	-1.54
729.886	0.46
729.911	-3.54
729.936	5.46
729.961	0.46
729.986	-18.54
730.011	-2.54
730.036	-0.54
730.061	13.46
730.086	8.46
730.112	4.46
730.137	10.46
730.162	6.46
730.187	5.46
730.212	15.46
730.237	-8.54
730.262	-3.54
730.287	-5.54
730.312	11.46
730.337	-1.54
730.362	18.46
730.387	2.46
730.413	-2.54
730.438	0.46
730.463	0.46
730.488	0.46
730.513	0.46
730.538	-3.54
730.563	18.46
730.588	5.46
730.613	9.46
730.638	14.46
730.663	13.46
730.688	21.46
730.713	3.46
730.738	17.46
730.763	8.46
730.788	-1.54
730.813	13.46
730.838	4.46
730.863	7.46
730.888	-8.54
730.913	-4.54
730.938	-18.54
730.963	1.46
730.988	-1.54
731.013	22.46
731.038	-0.54
731.063	1.46
731.088	0.46
731.113	4.46
731.138	2.46
731.163	-0.54
731.188	-15.54
731.213	2.46
731.238	17.46
731.263	-4.54
731.288	0.46
731.313	14.46
731.338	5.46
731.363	21.46
731.388	-0.54
731.413	1.46
731.438	18.46
731.463	16.46
731.487	11.46
731.512	-0.54
731.537	-0.54
731.562	-3.54
731.587	4.46
731.612	0.46
731.637	11.46
731.662	0.46
731.687	1.46
731.712	-16.54
731.737	5.46
731.762	-9.54
731.786	22.46
731.811	2.46
731.836	2.46
731.861	5.46
731.886	4.46
731.911	-5.54
731.936	22.46
731.961	0.46
731.986	5.46
732.01	1.46
732.035	26.46
732.06	17.46
732.085	2.46
732.11	-1.54
732.135	-1.54
732.16	6.46
732.184	7.46
732.209	-2.54
732.234	7.46
732.259	-11.54
732.284	6.46
732.309	6.46
732.334	4.46
732.358	-0.54
732.383	-3.54
732.408	-5.54
732.433	-10.54
732.458	-7.54
732.482	6.46
732.507	6.46
732.532	-1.54
732.557	24.46
732.582	17.46
732.607	0.46
732.631	-17.54
732.656	-0.54
732.681	2.46
732.706	-0.54
732.73	14.46
732.755	1.46
732.78	9.46
732.805	-0.54
732.83	9.46
732.854	5.46
732.879	8.46
732.904	14.46
732.929	0.46
732.953	13.46
732.978	4.46
733.003	8.46
733.028	-0.54
733.052	10.46
733.077	20.46
733.102	6.46
733.127	8.46
733.151	0.46
733.176	13.46
733.201	-0.54
733.226	12.46
733.25	1.46
733.275	-1.54
733.3	3.46
733.324	13.46
733.349	5.46
733.374	18.46
733.399	2.46
733.423	-6.54
733.448	-10.54
733.473	0.46
733.497	5.46
733.522	-5.54
733.547	17.46
733.571	15.46
733.596	-8.54
733.621	17.46
733.646	0.46
733.67	9.46
733.695	-11.54
733.72	-3.54
733.744	-6.54
733.769	15.46
733.794	20.46
733.818	-2.54
733.843	-10.54
733.867	-0.54
733.892	-1.54
733.917	-2.54
733.941	6.46
733.966	0.46
733.991	14.46
734.015	22.46
734.04	17.46
734.065	18.46
734.089	16.46
734.114	9.46
734.138	5.46
734.163	-1.54
734.188	10.46
734.212	24.46
734.237	7.46
734.261	16.46
734.286	6.46
734.311	-3.54
734.335	9.46
734.36	-5.54
734.384	16.46
734.409	18.46
734.434	-3.54
734.458	4.46
734.483	-5.54
734.507	1.46
734.532	0.46
734.556	0.46
734.581	4.46
734.606	1.46
734.63	-6.54
734.655	4.46
734.679	4.46
734.704	-5.54
734.728	7.46
734.753	13.46
734.777	1.46
734.802	-1.54
734.826	6.46
734.851	3.46
734.876	8.46
734.9	19.46
734.925	14.46
734.949	0.46
734.974	-1.54
734.998	6.46
735.023	-9.54
735.047	-7.54
735.072	17.46
735.096	22.46
735.121	13.46
735.145	9.46
735.17	23.46
735.194	22.46
735.219	-4.54
735.243	4.46
735.268	8.46
735.292	6.46
735.317	0.46
735.341	12.46
735.365	-0.54
735.39	11.46
735.414	16.46
735.439	-4.54
735.463	6.46
735.488	1.46
735.512	9.46
735.537	-1.54
735.561	8.46
735.586	4.46
735.61	4.46
735.634	-0.54
735.659	9.46
735.683	13.46
735.708	-6.54
735.732	-4.54
735.757	-2.54
735.781	5.46
735.805	19.46
735.83	-2.54
735.854	12.46
735.879	7.46
735.903	4.46
735.927	4.46
735.952	3.46
735.976	-3.54
736.001	2.46
736.025	5.46
736.049	2.46
736.074	8.46
736.098	15.46
736.123	15.46
736.147	6.46
736.171	15.46
736.196	13.46
736.22	3.46
736.244	2.46
736.269	-1.54
736.293	-2.54
736.317	5.46
736.342	13.46
736.366	14.46
736.39	21.46
736.415	2.46
736.439	-2.54
736.463	4.46
736.488	-0.54
736.512	14.46
736.536	8.46
736.561	17.46
736.585	9.46
736.609	3.46
736.634	-6.54
736.658	17.46
736.682	-7.54
736.707	3.46
736.731	7.46
736.755	-0.54
736.78	1.46
736.804	10.46
736.828	10.46
736.852	-3.54
736.877	14.46
736.901	15.46
736.925	1.46
736.949	12.46
736.974	8.46
736.998	1.46
737.022	1.46
737.047	5.46
737.071	-4.54
737.095	16.46
737.119	29.46
737.144	7.46
737.168	7.46
737.192	3.46
737.216	12.46
737.241	-2.54
737.265	1.46
737.289	-5.54
737.313	3.46
737.337	18.46
737.362	26.46
737.386	4.46
737.41	4.46
737.434	8.46
737.459	5.46
737.483	18.46
737.507	11.46
737.531	30.46
737.555	14.46
737.58	20.46
737.604	1.46
737.628	-16.54
737.652	6.46
737.676	7.46
737.701	14.46
737.725	13.46
737.749	11.46
737.773	6.46
737.797	5.46
737.821	-1.54
737.846	2.46
737.87	32.46
737.894	-5.54
737.918	11.46
737.942	-1.54
737.966	15.46
737.99	26.46
738.015	6.46
738.039	12.46
738.063	-3.54
738.087	13.46
738.111	14.46
738.135	5.46
738.159	-6.54
738.184	7.46
738.208	9.46
738.232	-1.54
738.256	8.46
738.28	22.46
738.304	22.46
738.328	1.46
738.352	14.46
738.376	-12.54
738.4	0.46
738.425	9.46
738.449	-10.54
738.473	5.46
738.497	-3.54
738.521	2.46
738.545	7.46
738.569	15.46
738.593	14.46
738.617	-6.54
738.641	1.46
738.665	19.46
738.689	6.46
738.713	5.46
738.737	5.46
738.762	1.46
738.786	12.46
738.81	3.46
738.834	10.46
738.858	7.46
738.882	4.46
738.906	-14.54
738.93	-14.54
738.954	0.46
738.978	7.46
739.002	4.46
739.026	22.46
739.05	8.46
739.074	-4.54
739.098	11.46
739.122	7.46
739.146	-2.54
739.17	21.46
739.194	17.46
739.218	-6.54
739.242	-6.54
739.266	-13.54
739.29	17.46
739.314	21.46
739.338	13.46
739.362	5.46
739.386	-1.54
739.41	-0.54
739.434	4.46
739.458	10.46
739.482	8.46
739.506	1.46
739.53	4.46
739.554	26.46
739.577	13.46
739.601	9.46
739.625	6.46
739.649	-3.54
739.673	-0.54
739.697	5.46
739.721	-1.54
739.745	16.46
739.769	19.46
739.793	7.46
739.817	16.46
739.841	-6.54
739.865	-2.54
739.889	-12.54
739.912	13.46
739.936	-13.54
739.96	0.46
739.984	12.46
740.008	-9.54
740.032	3.46
740.056	9.46
740.08	-1.54
740.104	-11.54
740.127	10.46
740.151	18.46
740.175	24.46
740.199	13.46
740.223	50.46
740.247	6.46
740.271	4.46
740.295	4.46
740.318	1.46
740.342	6.46
740.366	1.46
740.39	8.46
740.414	6.46
740.438	-7.54
740.461	5.46
740.485	4.46
740.509	6.46
740.533	12.46
740.557	10.46
740.581	6.46
740.604	-10.54
740.628	-14.54
740.652	7.46
740.676	3.46
740.7	24.46
740.723	-1.54
740.747	7.46
740.771	8.46
740.795	-3.54
740.819	11.46
740.842	-5.54
740.866	-2.54
740.89	4.46
740.914	-1.54
740.938	-3.54
740.961	24.46
740.985	-2.54
741.009	-10.54
741.033	11.46
741.056	2.46
741.08	9.46
741.104	11.46
741.128	13.46
741.151	28.46
741.175	13.46
741.199	10.46
741.223	15.46
741.246	-6.54
741.27	11.46
741.294	12.46
741.318	-3.54
741.341	0.46
741.365	5.46
741.389	11.46
741.413	4.46
741.436	1.46
741.46	14.46
741.484	5.46
741.507	13.46
741.531	13.46
741.555	-1.54
741.579	11.46
741.602	18.46
741.626	21.46
741.65	-2.54
741.673	8.46
741.697	13.46
741.721	3.46
741.744	-7.54
741.768	12.46
741.792	5.46
741.815	-4.54
741.839	27.46
741.863	26.46
741.886	8.46
741.91	9.46
741.934	-1.54
741.957	1.46
741.981	22.46
742.005	1.46
742.028	-2.54
742.052	-9.54
742.075	21.46
742.099	19.46
742.123	5.46
742.146	11.46
742.17	3.46
742.194	-1.54
742.217	8.46
742.241	-5.54
742.264	12.46
742.288	14.46
742.312	10.46
742.335	2.46
742.359	2.46
742.382	16.46
742.406	14.46
742.43	-6.54
742.453	6.46
742.477	-6.54
742.5	15.46
742.524	5.46
742.548	1.46
742.571	12.46
742.595	4.46
742.618	-1.54
742.642	-2.54
742.665	6.46
742.689	-11.54
742.712	-1.54
742.736	-3.54
742.76	26.46
742.783	9.46
742.807	8.46
742.83	13.46
742.854	-2.54
742.877	11.46
742.901	-9.54
742.924	-1.54
742.948	4.46
742.971	-1.54
742.995	0.46
743.018	-10.54
743.042	-3.54
743.065	-6.54
743.089	-5.54
743.112	-17.54
743.136	-10.54
743.159	-10.54
743.183	-2.54
743.206	6.46
743.23	1.46
743.253	8.46
743.277	8.46
743.3	-0.54
743.324	8.46
743.347	-8.54
743.371	9.46
743.394	12.46
743.418	15.46
743.441	1.46
743.465	5.46
743.488	21.46
743.512	8.46
743.535	11.46
743.558	-7.54
743.582	-2.54
743.605	-3.54
743.629	-1.54
743.652	7.46
743.676	-13.54
743.699	6.46
743.723	-6.54
743.746	17.46
743.769	-1.54
743.793	11.46
743.816	-0.54
743.84	9.46
743.863	4.46
743.886	6.46
743.91	20.46
743.933	14.46
743.957	-3.54
743.98	3.46
744.003	14.46
744.027	6.46
744.05	-0.54
744.074	4.46
744.097	-19.54
744.12	-10.54
744.144	1.46
744.167	4.46
744.19	8.46
744.214	3.46
744.237	-9.54
744.26	11.46
744.284	-3.54
744.307	-4.54
744.331	1.46
744.354	-5.54
744.377	-2.54
744.401	-5.54
744.424	4.46
744.447	-20.54
744.471	-6.54
