Data from HighRes_H2D2_15_04_11_07_2024_HR4C61891__88__15-05-43-242.txt Node

Date: Thu Nov 07 15:05:43 EST 2024
User: crc00042
Spectrometer: HR4C6189
Trigger mode: 4
Integration Time (sec): 1.000000E-1
Scans to average: 1
Electric dark correction enabled: true
Nonlinearity correction enabled: false
Boxcar width: 0
XAxis mode: Wavelengths
Number of Pixels in Spectrum: 3648
>>>>>Begin Spectral Data<<<<<
639.567	-39.62
639.602	-39.62
639.636	-39.62
639.67	-36.62
639.704	-24.62
639.738	-0.62
639.773	4.38
639.807	-3.62
639.841	4.38
639.875	4.38
639.909	-11.62
639.943	-15.62
639.978	-0.62
640.012	6.38
640.046	4.38
640.08	8.38
640.114	6.38
640.148	-6.62
640.182	-7.62
640.217	12.38
640.251	20.38
640.285	12.38
640.319	-18.62
640.353	-10.62
640.387	7.38
640.421	-15.62
640.455	4.38
640.49	-3.62
640.524	-6.62
640.558	4.38
640.592	-5.62
640.626	5.38
640.66	8.38
640.694	9.38
640.728	18.38
640.762	17.38
640.796	12.38
640.83	15.38
640.865	-7.62
640.899	-2.62
640.933	7.38
640.967	0.38
641.001	-0.62
641.035	-4.62
641.069	-4.62
641.103	-0.62
641.137	12.38
641.171	-14.62
641.205	-2.62
641.239	9.38
641.273	15.38
641.307	7.38
641.341	10.38
641.375	-2.62
641.409	-10.62
641.443	4.38
641.477	6.38
641.511	-0.62
641.545	7.38
641.579	-3.62
641.614	-1.62
641.648	-8.62
641.682	-9.62
641.716	-0.62
641.75	20.38
641.784	9.38
641.818	1.38
641.852	8.38
641.886	-4.62
641.919	19.38
641.953	4.38
641.987	3.38
642.021	8.38
642.055	-9.62
642.089	1.38
642.123	-17.62
642.157	-5.62
642.191	-14.62
642.225	3.38
642.259	-0.62
642.293	15.38
642.327	2.38
642.361	8.38
642.395	21.38
642.429	2.38
642.463	-2.62
642.497	27.38
642.531	-6.62
642.565	-20.62
642.599	11.38
642.633	-5.62
642.666	9.38
642.7	16.38
642.734	8.38
642.768	-9.62
642.802	10.38
642.836	1.38
642.87	7.38
642.904	11.38
642.938	18.38
642.972	0.38
643.005	-4.62
643.039	24.38
643.073	1.38
643.107	12.38
643.141	1.38
643.175	5.38
643.209	-15.62
643.243	7.38
643.276	8.38
643.31	2.38
643.344	-1.62
643.378	2.38
643.412	13.38
643.446	-14.62
643.48	-0.62
643.513	0.38
643.547	0.38
643.581	3.38
643.615	8.38
643.649	-1.62
643.683	9.38
643.716	2.38
643.75	11.38
643.784	-8.62
643.818	2.38
643.852	-4.62
643.886	6.38
643.919	1.38
643.953	-8.62
643.987	-10.62
644.021	16.38
644.055	7.38
644.088	-1.62
644.122	-1.62
644.156	15.38
644.19	1.38
644.224	1.38
644.257	-0.62
644.291	4.38
644.325	-1.62
644.359	-5.62
644.392	12.38
644.426	5.38
644.46	-12.62
644.494	4.38
644.527	8.38
644.561	8.38
644.595	1.38
644.629	-3.62
644.662	-13.62
644.696	6.38
644.73	6.38
644.764	8.38
644.797	7.38
644.831	8.38
644.865	5.38
644.899	0.38
644.932	29.38
644.966	-9.62
645	10.38
645.033	10.38
645.067	6.38
645.101	13.38
645.135	-5.62
645.168	5.38
645.202	2.38
645.236	-11.62
645.269	3.38
645.303	1.38
645.337	-11.62
645.37	0.38
645.404	-0.62
645.438	-2.62
645.471	-17.62
645.505	7.38
645.539	-6.62
645.572	-6.62
645.606	13.38
645.64	-7.62
645.673	-6.62
645.707	27.38
645.741	6.38
645.774	10.38
645.808	4.38
645.842	-4.62
645.875	16.38
645.909	24.38
645.943	-0.62
645.976	-5.62
646.01	5.38
646.043	15.38
646.077	9.38
646.111	4.38
646.144	11.38
646.178	28.38
646.212	-15.62
646.245	-11.62
646.279	0.38
646.312	-10.62
646.346	13.38
646.38	14.38
646.413	9.38
646.447	-3.62
646.48	2.38
646.514	7.38
646.547	-16.62
646.581	4.38
646.615	-14.62
646.648	-20.62
646.682	-1.62
646.715	6.38
646.749	21.38
646.782	-12.62
646.816	9.38
646.85	14.38
646.883	-17.62
646.917	-9.62
646.95	6.38
646.984	-5.62
647.017	-15.62
647.051	4.38
647.084	-0.62
647.118	-13.62
647.151	-3.62
647.185	8.38
647.218	-11.62
647.252	-6.62
647.285	-15.62
647.319	-2.62
647.353	-0.62
647.386	27.38
647.42	8.38
647.453	-4.62
647.487	13.38
647.52	7.38
647.553	5.38
647.587	12.38
647.62	-6.62
647.654	-2.62
647.687	-3.62
647.721	18.38
647.754	5.38
647.788	-1.62
647.821	-20.62
647.855	1.38
647.888	-2.62
647.922	1.38
647.955	13.38
647.989	-11.62
648.022	-3.62
648.055	12.38
648.089	-5.62
648.122	29.38
648.156	0.38
648.189	5.38
648.223	8.38
648.256	18.38
648.29	22.38
648.323	4.38
648.356	15.38
648.39	8.38
648.423	14.38
648.457	0.38
648.49	0.38
648.523	3.38
648.557	-6.62
648.59	3.38
648.624	-4.62
648.657	-7.62
648.69	32.38
648.724	10.38
648.757	-2.62
648.791	11.38
648.824	-2.62
648.857	10.38
648.891	7.38
648.924	0.38
648.957	11.38
648.991	-4.62
649.024	14.38
649.057	-6.62
649.091	-2.62
649.124	10.38
649.158	10.38
649.191	15.38
649.224	4.38
649.258	15.38
649.291	-4.62
649.324	-3.62
649.358	-3.62
649.391	1.38
649.424	10.38
649.458	9.38
649.491	15.38
649.524	-0.62
649.557	-8.62
649.591	-10.62
649.624	15.38
649.657	-6.62
649.691	10.38
649.724	5.38
649.757	-9.62
649.791	-8.62
649.824	5.38
649.857	13.38
649.89	7.38
649.924	-8.62
649.957	5.38
649.99	-15.62
650.023	12.38
650.057	-3.62
650.09	8.38
650.123	2.38
650.157	3.38
650.19	10.38
650.223	-4.62
650.256	-2.62
650.29	-10.62
650.323	3.38
650.356	-6.62
650.389	8.38
650.423	1.38
650.456	0.38
650.489	-4.62
650.522	2.38
650.555	11.38
650.589	14.38
650.622	5.38
650.655	1.38
650.688	10.38
650.721	9.38
650.755	2.38
650.788	7.38
650.821	-16.62
650.854	-16.62
650.887	-5.62
650.921	-7.62
650.954	-15.62
650.987	-6.62
651.02	-7.62
651.053	-10.62
651.087	-13.62
651.12	19.38
651.153	7.38
651.186	3.38
651.219	-7.62
651.252	2.38
651.286	8.38
651.319	-0.62
651.352	-8.62
651.385	-6.62
651.418	-3.62
651.451	13.38
651.484	-2.62
651.518	-0.62
651.551	19.38
651.584	-14.62
651.617	20.38
651.65	9.38
651.683	21.38
651.716	4.38
651.749	-17.62
651.783	4.38
651.816	4.38
651.849	12.38
651.882	10.38
651.915	-0.62
651.948	0.38
651.981	-14.62
652.014	-21.62
652.047	-6.62
652.08	-19.62
652.114	-12.62
652.147	-3.62
652.18	16.38
652.213	21.38
652.246	1.38
652.279	-6.62
652.312	0.38
652.345	5.38
652.378	14.38
652.411	25.38
652.444	13.38
652.477	6.38
652.51	-14.62
652.543	-23.62
652.576	11.38
652.609	-5.62
652.642	0.38
652.675	8.38
652.709	-9.62
652.742	10.38
652.775	0.38
652.808	8.38
652.841	-8.62
652.874	1.38
652.907	9.38
652.94	2.38
652.973	-16.62
653.006	-7.62
653.039	-11.62
653.072	-3.62
653.105	12.38
653.138	10.38
653.171	1.38
653.204	4.38
653.237	1.38
653.27	2.38
653.303	9.38
653.336	7.38
653.368	-3.62
653.401	23.38
653.434	4.38
653.467	3.38
653.5	-17.62
653.533	-5.62
653.566	3.38
653.599	-5.62
653.632	2.38
653.665	9.38
653.698	-21.62
653.731	-10.62
653.764	13.38
653.797	10.38
653.83	1.38
653.863	5.38
653.896	-17.62
653.929	1.38
653.961	10.38
653.994	7.38
654.027	-23.62
654.06	-7.62
654.093	3.38
654.126	5.38
654.159	3.38
654.192	9.38
654.225	0.38
654.258	2.38
654.29	16.38
654.323	16.38
654.356	-3.62
654.389	9.38
654.422	1.38
654.455	-5.62
654.488	3.38
654.521	-0.62
654.553	-17.62
654.586	12.38
654.619	-6.62
654.652	-5.62
654.685	5.38
654.718	7.38
654.751	5.38
654.783	1.38
654.816	10.38
654.849	9.38
654.882	6.38
654.915	-17.62
654.948	1.38
654.98	2.38
655.013	2.38
655.046	-10.62
655.079	-7.62
655.112	-9.62
655.144	-3.62
655.177	4.38
655.21	8.38
655.243	20.38
655.276	12.38
655.308	-7.62
655.341	-16.62
655.374	5.38
655.407	5.38
655.44	-13.62
655.472	12.38
655.505	11.38
655.538	16.38
655.571	8.38
655.603	1.38
655.636	-1.62
655.669	3.38
655.702	17.38
655.734	-1.62
655.767	10.38
655.8	4.38
655.833	9.38
655.865	7.38
655.898	1.38
655.931	24.38
655.964	17.38
655.996	30.38
656.029	39.38
656.062	17.38
656.095	42.38
656.127	61.38
656.16	219.38
656.193	639.38
656.225	948.38
656.258	556.38
656.291	210.38
656.324	191.38
656.356	387.38
656.389	765.38
656.422	696.38
656.454	238.38
656.487	91.38
656.52	54.38
656.552	14.38
656.585	7.38
656.618	20.38
656.65	3.38
656.683	7.38
656.716	10.38
656.748	6.38
656.781	-1.62
656.814	0.38
656.846	19.38
656.879	7.38
656.912	14.38
656.944	-19.62
656.977	-10.62
657.01	-9.62
657.042	6.38
657.075	21.38
657.108	8.38
657.14	7.38
657.173	17.38
657.205	26.38
657.238	6.38
657.271	-18.62
657.303	-24.62
657.336	9.38
657.369	5.38
657.401	-0.62
657.434	-1.62
657.466	3.38
657.499	-0.62
657.532	1.38
657.564	22.38
657.597	7.38
657.629	21.38
657.662	-9.62
657.694	-2.62
657.727	-11.62
657.76	8.38
657.792	-20.62
657.825	-8.62
657.857	8.38
657.89	4.38
657.922	9.38
657.955	-8.62
657.987	0.38
658.02	17.38
658.053	5.38
658.085	-19.62
658.118	8.38
658.15	10.38
658.183	30.38
658.215	2.38
658.248	-5.62
658.28	0.38
658.313	20.38
658.345	27.38
658.378	-7.62
658.41	-0.62
658.443	16.38
658.475	3.38
658.508	1.38
658.54	-8.62
658.573	-17.62
658.605	5.38
658.638	-7.62
658.67	0.38
658.703	12.38
658.735	6.38
658.768	-0.62
658.8	-1.62
658.833	22.38
658.865	4.38
658.898	6.38
658.93	-8.62
658.963	-3.62
658.995	-22.62
659.028	9.38
659.06	4.38
659.092	-1.62
659.125	1.38
659.157	5.38
659.19	-17.62
659.222	3.38
659.255	9.38
659.287	-4.62
659.32	-1.62
659.352	-7.62
659.384	5.38
659.417	-1.62
659.449	-4.62
659.482	8.38
659.514	-2.62
659.546	-2.62
659.579	-8.62
659.611	9.38
659.644	7.38
659.676	-1.62
659.708	-12.62
659.741	0.38
659.773	1.38
659.806	8.38
659.838	-3.62
659.87	-1.62
659.903	3.38
659.935	2.38
659.967	4.38
660	10.38
660.032	-4.62
660.065	5.38
660.097	6.38
660.129	11.38
660.162	-13.62
660.194	7.38
660.226	4.38
660.259	4.38
660.291	-3.62
660.323	-0.62
660.356	-2.62
660.388	-12.62
660.42	0.38
660.453	0.38
660.485	-2.62
660.517	8.38
660.55	8.38
660.582	4.38
660.614	5.38
660.647	-4.62
660.679	-9.62
660.711	3.38
660.743	-0.62
660.776	-3.62
660.808	-1.62
660.84	-4.62
660.873	-10.62
660.905	-2.62
660.937	-4.62
660.969	-4.62
661.002	-10.62
661.034	1.38
661.066	-1.62
661.099	13.38
661.131	18.38
661.163	9.38
661.195	-10.62
661.228	16.38
661.26	-17.62
661.292	-7.62
661.324	1.38
661.357	-1.62
661.389	2.38
661.421	10.38
661.453	11.38
661.485	15.38
661.518	20.38
661.55	-17.62
661.582	-9.62
661.614	5.38
661.647	-4.62
661.679	-7.62
661.711	-1.62
661.743	-9.62
661.775	-5.62
661.808	24.38
661.84	-11.62
661.872	6.38
661.904	7.38
661.936	6.38
661.969	-3.62
662.001	7.38
662.033	-4.62
662.065	7.38
662.097	1.38
662.129	4.38
662.162	-17.62
662.194	-3.62
662.226	5.38
662.258	8.38
662.29	11.38
662.322	6.38
662.355	-11.62
662.387	14.38
662.419	6.38
662.451	14.38
662.483	28.38
662.515	-2.62
662.547	-10.62
662.58	-16.62
662.612	-20.62
662.644	-9.62
662.676	-9.62
662.708	13.38
662.74	-3.62
662.772	-0.62
662.804	20.38
662.836	12.38
662.869	-2.62
662.901	-5.62
662.933	-6.62
662.965	14.38
662.997	15.38
663.029	-20.62
663.061	-3.62
663.093	10.38
663.125	-1.62
663.157	22.38
663.189	-1.62
663.221	11.38
663.254	-0.62
663.286	8.38
663.318	-7.62
663.35	-6.62
663.382	3.38
663.414	5.38
663.446	17.38
663.478	-23.62
663.51	16.38
663.542	-2.62
663.574	4.38
663.606	5.38
663.638	-6.62
663.67	-3.62
663.702	-2.62
663.734	-11.62
663.766	9.38
663.798	-0.62
663.83	5.38
663.862	-0.62
663.894	17.38
663.926	-6.62
663.958	-1.62
663.99	4.38
664.022	12.38
664.054	8.38
664.086	-6.62
664.118	-21.62
664.15	-12.62
664.182	-1.62
664.214	-2.62
664.246	17.38
664.278	-3.62
664.31	9.38
664.342	4.38
664.374	1.38
664.406	-24.62
664.438	-6.62
664.47	0.38
664.502	-12.62
664.534	-13.62
664.566	-7.62
664.598	16.38
664.63	-5.62
664.662	2.38
664.693	-8.62
664.725	-8.62
664.757	-8.62
664.789	2.38
664.821	11.38
664.853	7.38
664.885	-1.62
664.917	-3.62
664.949	15.38
664.981	27.38
665.013	7.38
665.045	-7.62
665.076	9.38
665.108	3.38
665.14	-16.62
665.172	-5.62
665.204	-8.62
665.236	17.38
665.268	8.38
665.3	-14.62
665.331	10.38
665.363	12.38
665.395	10.38
665.427	6.38
665.459	2.38
665.491	-1.62
665.523	12.38
665.555	4.38
665.586	5.38
665.618	-8.62
665.65	-8.62
665.682	14.38
665.714	19.38
665.746	6.38
665.777	-11.62
665.809	0.38
665.841	11.38
665.873	-20.62
665.905	9.38
665.937	9.38
665.968	-10.62
666	-8.62
666.032	7.38
666.064	-0.62
666.096	-10.62
666.127	-6.62
666.159	8.38
666.191	-4.62
666.223	-1.62
666.255	-3.62
666.286	0.38
666.318	-8.62
666.35	4.38
666.382	7.38
666.413	-1.62
666.445	-10.62
666.477	-17.62
666.509	-5.62
666.54	6.38
666.572	5.38
666.604	9.38
666.636	-6.62
666.667	19.38
666.699	16.38
666.731	3.38
666.763	-2.62
666.794	-2.62
666.826	-3.62
666.858	-5.62
666.89	13.38
666.921	5.38
666.953	-1.62
666.985	21.38
667.017	10.38
667.048	4.38
667.08	-0.62
667.112	-6.62
667.143	-22.62
667.175	13.38
667.207	-7.62
667.238	-11.62
667.27	-17.62
667.302	-3.62
667.334	-3.62
667.365	25.38
667.397	7.38
667.429	4.38
667.46	-3.62
667.492	6.38
667.524	-0.62
667.555	-4.62
667.587	1.38
667.619	-3.62
667.65	-6.62
667.682	24.38
667.714	6.38
667.745	-0.62
667.777	-1.62
667.808	1.38
667.84	20.38
667.872	5.38
667.903	19.38
667.935	-9.62
667.967	-7.62
667.998	-0.62
668.03	-4.62
668.061	2.38
668.093	1.38
668.125	5.38
668.156	0.38
668.188	2.38
668.22	-1.62
668.251	7.38
668.283	3.38
668.314	0.38
668.346	-23.62
668.377	2.38
668.409	-7.62
668.441	11.38
668.472	14.38
668.504	24.38
668.535	18.38
668.567	16.38
668.599	0.38
668.63	5.38
668.662	2.38
668.693	15.38
668.725	5.38
668.756	9.38
668.788	9.38
668.819	7.38
668.851	3.38
668.882	12.38
668.914	6.38
668.946	1.38
668.977	2.38
669.009	-21.62
669.04	-23.62
669.072	6.38
669.103	3.38
669.135	15.38
669.166	14.38
669.198	-3.62
669.229	7.38
669.261	-4.62
669.292	-1.62
669.324	9.38
669.355	12.38
669.387	7.38
669.418	12.38
669.45	-5.62
669.481	1.38
669.513	-5.62
669.544	8.38
669.576	8.38
669.607	6.38
669.639	16.38
669.67	3.38
669.701	12.38
669.733	-14.62
669.764	5.38
669.796	-12.62
669.827	-28.62
669.859	-7.62
669.89	15.38
669.922	7.38
669.953	13.38
669.985	26.38
670.016	19.38
670.047	-11.62
670.079	-1.62
670.11	7.38
670.142	2.38
670.173	8.38
670.204	-1.62
670.236	11.38
670.267	-22.62
670.299	5.38
670.33	3.38
670.362	10.38
670.393	-6.62
670.424	-1.62
670.456	-1.62
670.487	3.38
670.518	-6.62
670.55	-0.62
670.581	-10.62
670.613	2.38
670.644	0.38
670.675	-17.62
670.707	-15.62
670.738	13.38
670.769	-2.62
670.801	-23.62
670.832	8.38
670.864	-2.62
670.895	6.38
670.926	3.38
670.958	-8.62
670.989	-6.62
671.02	3.38
671.052	7.38
671.083	-1.62
671.114	-9.62
671.146	8.38
671.177	9.38
671.208	-6.62
671.24	-10.62
671.271	4.38
671.302	12.38
671.333	-9.62
671.365	-3.62
671.396	-12.62
671.427	5.38
671.459	-1.62
671.49	3.38
671.521	3.38
671.553	5.38
671.584	11.38
671.615	-5.62
671.646	15.38
671.678	8.38
671.709	-6.62
671.74	-20.62
671.771	-11.62
671.803	8.38
671.834	11.38
671.865	11.38
671.896	4.38
671.928	4.38
671.959	-13.62
671.99	-12.62
672.021	-10.62
672.053	-1.62
672.084	11.38
672.115	5.38
672.146	4.38
672.178	-7.62
672.209	-1.62
672.24	-9.62
672.271	27.38
672.303	-0.62
672.334	-3.62
672.365	-9.62
672.396	8.38
672.427	4.38
672.459	-0.62
672.49	17.38
672.521	30.38
672.552	12.38
672.583	-7.62
672.615	4.38
672.646	15.38
672.677	-4.62
672.708	7.38
672.739	8.38
672.77	10.38
672.802	-9.62
672.833	-1.62
672.864	-12.62
672.895	-1.62
672.926	-12.62
672.957	-1.62
672.989	-11.62
673.02	-5.62
673.051	-9.62
673.082	20.38
673.113	20.38
673.144	11.38
673.175	-1.62
673.206	-7.62
673.238	-1.62
673.269	-15.62
673.3	-5.62
673.331	-1.62
673.362	3.38
673.393	6.38
673.424	14.38
673.455	16.38
673.487	9.38
673.518	10.38
673.549	-2.62
673.58	5.38
673.611	5.38
673.642	13.38
673.673	-6.62
673.704	17.38
673.735	-3.62
673.766	-1.62
673.797	3.38
673.828	23.38
673.86	6.38
673.891	-11.62
673.922	-7.62
673.953	-2.62
673.984	1.38
674.015	-3.62
674.046	1.38
674.077	-5.62
674.108	-9.62
674.139	5.38
674.17	-3.62
674.201	1.38
674.232	-1.62
674.263	-11.62
674.294	-8.62
674.325	-5.62
674.356	8.38
674.387	11.38
674.418	12.38
674.449	-8.62
674.48	1.38
674.511	1.38
674.542	11.38
674.573	-4.62
674.604	1.38
674.635	2.38
674.666	13.38
674.697	6.38
674.728	1.38
674.759	-0.62
674.79	-6.62
674.821	-24.62
674.852	-10.62
674.883	-27.62
674.914	-8.62
674.945	-14.62
674.976	0.38
675.007	-2.62
675.038	-5.62
675.069	-8.62
675.1	-3.62
675.131	5.38
675.162	-22.62
675.193	-4.62
675.224	-5.62
675.254	-2.62
675.285	4.38
675.316	2.38
675.347	-9.62
675.378	-4.62
675.409	-15.62
675.44	17.38
675.471	4.38
675.502	-30.62
675.533	8.38
675.564	-10.62
675.595	7.38
675.625	18.38
675.656	7.38
675.687	2.38
675.718	-9.62
675.749	15.38
675.78	-0.62
675.811	7.38
675.842	11.38
675.873	-0.62
675.903	4.38
675.934	-9.62
675.965	-2.62
675.996	-7.62
676.027	7.38
676.058	2.38
676.089	-12.62
676.119	-13.62
676.15	-10.62
676.181	-5.62
676.212	3.38
676.243	18.38
676.274	3.38
676.304	6.38
676.335	-12.62
676.366	6.38
676.397	2.38
676.428	6.38
676.459	1.38
676.489	12.38
676.52	6.38
676.551	-0.62
676.582	-8.62
676.613	-1.62
676.643	-16.62
676.674	-1.62
676.705	8.38
676.736	0.38
676.767	18.38
676.797	9.38
676.828	25.38
676.859	-12.62
676.89	-7.62
676.92	5.38
676.951	5.38
676.982	6.38
677.013	5.38
677.044	12.38
677.074	-9.62
677.105	-5.62
677.136	2.38
677.167	-6.62
677.197	7.38
677.228	3.38
677.259	3.38
677.289	-8.62
677.32	-31.62
677.351	2.38
677.382	-7.62
677.412	-11.62
677.443	2.38
677.474	-11.62
677.505	-22.62
677.535	-2.62
677.566	-11.62
677.597	-12.62
677.627	-9.62
677.658	-6.62
677.689	-16.62
677.72	-0.62
677.75	7.38
677.781	8.38
677.812	3.38
677.842	-0.62
677.873	0.38
677.904	-2.62
677.934	11.38
677.965	-0.62
677.996	-19.62
678.026	-11.62
678.057	1.38
678.088	0.38
678.118	-1.62
678.149	0.38
678.18	2.38
678.21	-9.62
678.241	-4.62
678.272	0.38
678.302	24.38
678.333	10.38
678.363	1.38
678.394	-6.62
678.425	-7.62
678.455	-6.62
678.486	-0.62
678.517	-9.62
678.547	4.38
678.578	-2.62
678.608	0.38
678.639	10.38
678.67	24.38
678.7	-17.62
678.731	-8.62
678.761	0.38
678.792	7.38
678.823	12.38
678.853	-17.62
678.884	-19.62
678.914	7.38
678.945	4.38
678.975	-3.62
679.006	0.38
679.037	-4.62
679.067	6.38
679.098	-3.62
679.128	-8.62
679.159	0.38
679.189	-2.62
679.22	5.38
679.25	0.38
679.281	-0.62
679.312	-20.62
679.342	10.38
679.373	34.38
679.403	-3.62
679.434	-2.62
679.464	7.38
679.495	2.38
679.525	5.38
679.556	1.38
679.586	8.38
679.617	4.38
679.647	-0.62
679.678	10.38
679.708	-9.62
679.739	-4.62
679.769	-5.62
679.8	-3.62
679.83	-11.62
679.861	0.38
679.891	1.38
679.922	-25.62
679.952	-1.62
679.983	-2.62
680.013	-10.62
680.044	-7.62
680.074	4.38
680.105	4.38
680.135	14.38
680.165	5.38
680.196	12.38
680.226	5.38
680.257	11.38
680.287	3.38
680.318	-8.62
680.348	-6.62
680.379	10.38
680.409	4.38
680.439	-7.62
680.47	4.38
680.5	-4.62
680.531	-2.62
680.561	17.38
680.592	9.38
680.622	12.38
680.652	-3.62
680.683	9.38
680.713	1.38
680.744	-6.62
680.774	4.38
680.804	16.38
680.835	1.38
680.865	-18.62
680.896	8.38
680.926	10.38
680.956	3.38
680.987	7.38
681.017	-0.62
681.047	-3.62
681.078	-12.62
681.108	-16.62
681.139	-4.62
681.169	2.38
681.199	4.38
681.23	8.38
681.26	2.38
681.29	-7.62
681.321	-11.62
681.351	0.38
681.381	6.38
681.412	11.38
681.442	1.38
681.472	7.38
681.503	12.38
681.533	4.38
681.563	-7.62
681.594	8.38
681.624	-3.62
681.654	-14.62
681.685	1.38
681.715	0.38
681.745	-0.62
681.775	-7.62
681.806	12.38
681.836	-7.62
681.866	-19.62
681.897	8.38
681.927	-9.62
681.957	-11.62
681.987	2.38
682.018	4.38
682.048	7.38
682.078	-0.62
682.109	21.38
682.139	1.38
682.169	-3.62
682.199	-12.62
682.23	-1.62
682.26	-7.62
682.29	4.38
682.32	10.38
682.351	5.38
682.381	3.38
682.411	6.38
682.441	6.38
682.472	-12.62
682.502	8.38
682.532	-2.62
682.562	16.38
682.592	-8.62
682.623	14.38
682.653	18.38
682.683	2.38
682.713	-10.62
682.743	0.38
682.774	1.38
682.804	0.38
682.834	10.38
682.864	-16.62
682.894	-5.62
682.925	-5.62
682.955	21.38
682.985	6.38
683.015	21.38
683.045	18.38
683.076	-10.62
683.106	-2.62
683.136	-10.62
683.166	-13.62
683.196	0.38
683.226	-8.62
683.257	-9.62
683.287	-2.62
683.317	-3.62
683.347	-3.62
683.377	-1.62
683.407	4.38
683.437	6.38
683.468	16.38
683.498	-6.62
683.528	18.38
683.558	16.38
683.588	-2.62
683.618	-11.62
683.648	-0.62
683.678	14.38
683.708	7.38
683.739	-10.62
683.769	-6.62
683.799	-2.62
683.829	-0.62
683.859	8.38
683.889	5.38
683.919	-4.62
683.949	0.38
683.979	-8.62
684.009	-5.62
684.039	5.38
684.07	1.38
684.1	-6.62
684.13	8.38
684.16	-7.62
684.19	1.38
684.22	13.38
684.25	-7.62
684.28	-11.62
684.31	15.38
684.34	-1.62
684.37	-8.62
684.4	-26.62
684.43	-3.62
684.46	2.38
684.49	-1.62
684.52	12.38
684.55	19.38
684.58	-1.62
684.61	10.38
684.64	23.38
684.67	16.38
684.7	0.38
684.73	12.38
684.76	6.38
684.79	20.38
684.82	4.38
684.85	0.38
684.88	11.38
684.91	3.38
684.94	-6.62
684.97	-5.62
685	-5.62
685.03	-15.62
685.06	0.38
685.09	-4.62
685.12	-1.62
685.15	-2.62
685.18	11.38
685.21	5.38
685.24	24.38
685.27	8.38
685.3	16.38
685.33	17.38
685.36	-0.62
685.39	-11.62
685.42	-11.62
685.45	-7.62
685.48	-3.62
685.51	3.38
685.54	18.38
685.569	13.38
685.599	10.38
685.629	4.38
685.659	0.38
685.689	-0.62
685.719	-4.62
685.749	-0.62
685.779	21.38
685.809	4.38
685.839	3.38
685.869	6.38
685.898	24.38
685.928	5.38
685.958	7.38
685.988	3.38
686.018	14.38
686.048	7.38
686.078	15.38
686.108	13.38
686.137	1.38
686.167	9.38
686.197	-10.62
686.227	5.38
686.257	31.38
686.287	16.38
686.317	5.38
686.346	1.38
686.376	-4.62
686.406	-6.62
686.436	21.38
686.466	4.38
686.496	3.38
686.525	11.38
686.555	-4.62
686.585	16.38
686.615	28.38
686.645	4.38
686.675	6.38
686.704	3.38
686.734	17.38
686.764	11.38
686.794	8.38
686.824	3.38
686.853	6.38
686.883	10.38
686.913	21.38
686.943	-3.62
686.973	5.38
687.002	-3.62
687.032	7.38
687.062	-10.62
687.092	31.38
687.121	-1.62
687.151	-6.62
687.181	-11.62
687.211	11.38
687.24	12.38
687.27	4.38
687.3	0.38
687.33	1.38
687.359	-7.62
687.389	11.38
687.419	6.38
687.449	7.38
687.478	6.38
687.508	0.38
687.538	9.38
687.568	10.38
687.597	3.38
687.627	-3.62
687.657	-16.62
687.686	0.38
687.716	28.38
687.746	-3.62
687.776	-8.62
687.805	-6.62
687.835	-3.62
687.865	17.38
687.894	22.38
687.924	-3.62
687.954	8.38
687.983	-2.62
688.013	16.38
688.043	5.38
688.072	3.38
688.102	11.38
688.132	-2.62
688.161	-4.62
688.191	7.38
688.221	22.38
688.25	1.38
688.28	10.38
688.31	-2.62
688.339	2.38
688.369	-0.62
688.399	7.38
688.428	-1.62
688.458	12.38
688.488	7.38
688.517	10.38
688.547	-6.62
688.576	23.38
688.606	9.38
688.636	-7.62
688.665	5.38
688.695	17.38
688.725	26.38
688.754	5.38
688.784	9.38
688.813	8.38
688.843	-8.62
688.873	-11.62
688.902	4.38
688.932	-10.62
688.961	9.38
688.991	10.38
689.02	14.38
689.05	1.38
689.08	1.38
689.109	-1.62
689.139	-4.62
689.168	8.38
689.198	11.38
689.227	-0.62
689.257	-0.62
689.287	3.38
689.316	-4.62
689.346	-0.62
689.375	-10.62
689.405	3.38
689.434	-3.62
689.464	17.38
689.493	2.38
689.523	4.38
689.552	8.38
689.582	4.38
689.611	-17.62
689.641	-9.62
689.67	11.38
689.7	-11.62
689.73	12.38
689.759	-0.62
689.789	18.38
689.818	6.38
689.848	6.38
689.877	22.38
689.906	-1.62
689.936	-0.62
689.965	-1.62
689.995	-1.62
690.024	19.38
690.054	-3.62
690.083	12.38
690.113	14.38
690.142	-4.62
690.172	-2.62
690.201	-4.62
690.231	-0.62
690.26	5.38
690.29	12.38
690.319	26.38
690.348	0.38
690.378	6.38
690.407	8.38
690.437	-1.62
690.466	6.38
690.496	6.38
690.525	17.38
690.555	6.38
690.584	6.38
690.613	-9.62
690.643	0.38
690.672	10.38
690.702	12.38
690.731	9.38
690.76	-1.62
690.79	-4.62
690.819	1.38
690.849	11.38
690.878	-8.62
690.907	4.38
690.937	-2.62
690.966	7.38
690.996	9.38
691.025	0.38
691.054	4.38
691.084	20.38
691.113	1.38
691.142	8.38
691.172	3.38
691.201	5.38
691.23	9.38
691.26	16.38
691.289	10.38
691.319	-0.62
691.348	1.38
691.377	18.38
691.407	-1.62
691.436	24.38
691.465	20.38
691.495	6.38
691.524	1.38
691.553	-7.62
691.583	-1.62
691.612	10.38
691.641	5.38
691.67	-0.62
691.7	-2.62
691.729	-9.62
691.758	-2.62
691.788	-0.62
691.817	4.38
691.846	0.38
691.876	-9.62
691.905	5.38
691.934	4.38
691.963	11.38
691.993	11.38
692.022	0.38
692.051	-7.62
692.081	1.38
692.11	32.38
692.139	13.38
692.168	8.38
692.198	11.38
692.227	11.38
692.256	6.38
692.285	1.38
692.315	12.38
692.344	14.38
692.373	-1.62
692.402	-10.62
692.432	-20.62
692.461	-16.62
692.49	7.38
692.519	0.38
692.548	9.38
692.578	20.38
692.607	-1.62
692.636	7.38
692.665	13.38
692.694	-0.62
692.724	-2.62
692.753	9.38
692.782	6.38
692.811	-7.62
692.84	-4.62
692.87	-13.62
692.899	8.38
692.928	5.38
692.957	5.38
692.986	4.38
693.016	8.38
693.045	3.38
693.074	2.38
693.103	4.38
693.132	5.38
693.161	14.38
693.191	0.38
693.22	-9.62
693.249	7.38
693.278	3.38
693.307	10.38
693.336	-3.62
693.365	-2.62
693.395	2.38
693.424	7.38
693.453	25.38
693.482	0.38
693.511	12.38
693.54	22.38
693.569	4.38
693.598	12.38
693.628	19.38
693.657	15.38
693.686	16.38
693.715	16.38
693.744	6.38
693.773	18.38
693.802	0.38
693.831	6.38
693.86	9.38
693.889	8.38
693.919	4.38
693.948	5.38
693.977	5.38
694.006	6.38
694.035	-0.62
694.064	-1.62
694.093	3.38
694.122	-0.62
694.151	-8.62
694.18	6.38
694.209	23.38
694.238	9.38
694.267	21.38
694.296	24.38
694.325	13.38
694.354	6.38
694.383	9.38
694.412	-4.62
694.441	10.38
694.471	-3.62
694.5	-3.62
694.529	4.38
694.558	20.38
694.587	9.38
694.616	0.38
694.645	13.38
694.674	8.38
694.703	0.38
694.732	2.38
694.761	10.38
694.79	6.38
694.819	-1.62
694.848	7.38
694.877	24.38
694.906	23.38
694.935	21.38
694.963	11.38
694.992	20.38
695.021	-0.62
695.05	6.38
695.079	13.38
695.108	9.38
695.137	4.38
695.166	1.38
695.195	-6.62
695.224	11.38
695.253	-3.62
695.282	-4.62
695.311	4.38
695.34	-6.62
695.369	18.38
695.398	18.38
695.427	8.38
695.456	12.38
695.485	0.38
695.513	10.38
695.542	2.38
695.571	10.38
695.6	16.38
695.629	15.38
695.658	14.38
695.687	8.38
695.716	0.38
695.745	27.38
695.774	4.38
695.802	-2.62
695.831	11.38
695.86	4.38
695.889	9.38
695.918	20.38
695.947	-1.62
695.976	-8.62
696.005	4.38
696.033	20.38
696.062	34.38
696.091	10.38
696.12	4.38
696.149	11.38
696.178	7.38
696.207	11.38
696.235	6.38
696.264	4.38
696.293	-2.62
696.322	4.38
696.351	14.38
696.38	-12.62
696.408	4.38
696.437	3.38
696.466	13.38
696.495	19.38
696.524	18.38
696.553	1.38
696.581	9.38
696.61	21.38
696.639	0.38
696.668	8.38
696.697	3.38
696.725	16.38
696.754	14.38
696.783	-1.62
696.812	-8.62
696.84	8.38
696.869	-5.62
696.898	9.38
696.927	0.38
696.956	12.38
696.984	-8.62
697.013	-2.62
697.042	-8.62
697.071	-0.62
697.099	9.38
697.128	13.38
697.157	10.38
697.186	1.38
697.214	8.38
697.243	3.38
697.272	4.38
697.301	23.38
697.329	18.38
697.358	23.38
697.387	36.38
697.415	15.38
697.444	8.38
697.473	0.38
697.502	-4.62
697.53	18.38
697.559	14.38
697.588	13.38
697.616	12.38
697.645	12.38
697.674	6.38
697.703	4.38
697.731	21.38
697.76	1.38
697.789	-1.62
697.817	4.38
697.846	12.38
697.875	8.38
697.903	33.38
697.932	11.38
697.961	2.38
697.989	23.38
698.018	13.38
698.047	0.38
698.075	10.38
698.104	0.38
698.133	5.38
698.161	-0.62
698.19	2.38
698.218	8.38
698.247	-0.62
698.276	13.38
698.304	18.38
698.333	5.38
698.362	15.38
698.39	6.38
698.419	-3.62
698.447	-3.62
698.476	2.38
698.505	9.38
698.533	13.38
698.562	30.38
698.591	9.38
698.619	8.38
698.648	7.38
698.676	14.38
698.705	-0.62
698.733	-8.62
698.762	-1.62
698.791	0.38
698.819	1.38
698.848	1.38
698.876	14.38
698.905	15.38
698.933	11.38
698.962	23.38
698.991	15.38
699.019	10.38
699.048	5.38
699.076	-1.62
699.105	-4.62
699.133	3.38
699.162	13.38
699.19	32.38
699.219	5.38
699.248	6.38
699.276	7.38
699.305	-4.62
699.333	13.38
699.362	4.38
699.39	5.38
699.419	-2.62
699.447	4.38
699.476	5.38
699.504	12.38
699.533	-4.62
699.561	-2.62
699.59	7.38
699.618	4.38
699.647	12.38
699.675	5.38
699.704	10.38
699.732	14.38
699.761	9.38
699.789	5.38
699.818	4.38
699.846	-6.62
699.874	1.38
699.903	-5.62
699.931	-4.62
699.96	5.38
699.988	6.38
700.017	-11.62
700.045	-1.62
700.074	-7.62
700.102	8.38
700.13	3.38
700.159	7.38
700.187	5.38
700.216	3.38
700.244	-2.62
700.273	-11.62
700.301	-11.62
700.329	5.38
700.358	-1.62
700.386	-2.62
700.415	-2.62
700.443	8.38
700.472	3.38
700.5	6.38
700.528	3.38
700.557	5.38
700.585	-0.62
700.614	7.38
700.642	12.38
700.67	9.38
700.699	11.38
700.727	7.38
700.755	-16.62
700.784	-15.62
700.812	1.38
700.841	7.38
700.869	9.38
700.897	-20.62
700.926	1.38
700.954	9.38
700.982	19.38
701.011	-6.62
701.039	5.38
701.067	1.38
701.096	10.38
701.124	-11.62
701.152	4.38
701.181	7.38
701.209	-12.62
701.237	5.38
701.266	11.38
701.294	7.38
701.322	13.38
701.351	17.38
701.379	-0.62
701.407	1.38
701.435	8.38
701.464	10.38
701.492	15.38
701.52	-2.62
701.549	0.38
701.577	-13.62
701.605	-5.62
701.634	10.38
701.662	13.38
701.69	-7.62
701.718	-4.62
701.747	10.38
701.775	-6.62
701.803	-1.62
701.831	5.38
701.86	0.38
701.888	15.38
701.916	5.38
701.944	1.38
701.973	-12.62
702.001	-6.62
702.029	8.38
702.057	2.38
702.086	-16.62
702.114	-17.62
702.142	0.38
702.17	-16.62
702.199	-14.62
702.227	-4.62
702.255	4.38
702.283	5.38
702.311	6.38
702.34	2.38
702.368	-0.62
702.396	-5.62
702.424	0.38
702.452	-14.62
702.481	1.38
702.509	15.38
702.537	5.38
702.565	11.38
702.593	-2.62
702.621	8.38
702.65	1.38
702.678	0.38
702.706	7.38
702.734	0.38
702.762	3.38
702.79	8.38
702.819	5.38
702.847	4.38
702.875	0.38
702.903	12.38
702.931	11.38
702.959	7.38
702.988	0.38
703.016	-5.62
703.044	-21.62
703.072	-20.62
703.1	-11.62
703.128	-1.62
703.156	-9.62
703.184	0.38
703.212	34.38
703.241	7.38
703.269	-4.62
703.297	-4.62
703.325	5.38
703.353	-6.62
703.381	-7.62
703.409	3.38
703.437	1.38
703.465	7.38
703.493	-0.62
703.522	-3.62
703.55	13.38
703.578	-4.62
703.606	-0.62
703.634	5.38
703.662	2.38
703.69	-7.62
703.718	-2.62
703.746	7.38
703.774	-22.62
703.802	0.38
703.83	-0.62
703.858	1.38
703.886	-0.62
703.914	-0.62
703.942	11.38
703.97	-1.62
703.998	-8.62
704.027	17.38
704.055	7.38
704.083	0.38
704.111	-11.62
704.139	10.38
704.167	14.38
704.195	4.38
704.223	-17.62
704.251	-7.62
704.279	-8.62
704.307	-17.62
704.335	-14.62
704.363	-2.62
704.391	-3.62
704.419	5.38
704.447	-9.62
704.475	9.38
704.503	-0.62
704.531	20.38
704.558	4.38
704.586	0.38
704.614	4.38
704.642	9.38
704.67	-5.62
704.698	-6.62
704.726	3.38
704.754	1.38
704.782	5.38
704.81	2.38
704.838	9.38
704.866	-1.62
704.894	-14.62
704.922	-4.62
704.95	6.38
704.978	32.38
705.006	5.38
705.034	14.38
705.061	-10.62
705.089	-4.62
705.117	-24.62
705.145	-9.62
705.173	8.38
705.201	-3.62
705.229	-4.62
705.257	-12.62
705.285	-5.62
705.313	8.38
705.34	-2.62
705.368	3.38
705.396	11.38
705.424	10.38
705.452	4.38
705.48	9.38
705.508	-5.62
705.536	4.38
705.563	-7.62
705.591	6.38
705.619	6.38
705.647	-1.62
705.675	-6.62
705.703	2.38
705.731	8.38
705.758	3.38
705.786	-2.62
705.814	13.38
705.842	7.38
705.87	-1.62
705.898	17.38
705.925	-8.62
705.953	-9.62
705.981	-17.62
706.009	-9.62
706.037	-0.62
706.065	-7.62
706.092	-7.62
706.12	3.38
706.148	-8.62
706.176	-12.62
706.204	3.38
706.231	1.38
706.259	-7.62
706.287	-8.62
706.315	7.38
706.342	-11.62
706.37	12.38
706.398	4.38
706.426	1.38
706.454	17.38
706.481	1.38
706.509	-8.62
706.537	-10.62
706.565	-5.62
706.592	15.38
706.62	-0.62
706.648	6.38
706.676	-6.62
706.703	0.38
706.731	-17.62
706.759	-1.62
706.787	5.38
706.814	-0.62
706.842	-8.62
706.87	-0.62
706.897	-2.62
706.925	4.38
706.953	10.38
706.981	19.38
707.008	12.38
707.036	6.38
707.064	13.38
707.091	-10.62
707.119	12.38
707.147	11.38
707.174	-3.62
707.202	4.38
707.23	-5.62
707.258	-3.62
707.285	-17.62
707.313	-6.62
707.341	-7.62
707.368	3.38
707.396	-10.62
707.424	11.38
707.451	10.38
707.479	5.38
707.507	-14.62
707.534	-6.62
707.562	-5.62
707.59	-8.62
707.617	-6.62
707.645	5.38
707.672	3.38
707.7	-12.62
707.728	0.38
707.755	-9.62
707.783	-13.62
707.811	-0.62
707.838	0.38
707.866	-1.62
707.893	-1.62
707.921	1.38
707.949	-3.62
707.976	-5.62
708.004	7.38
708.031	-0.62
708.059	-10.62
708.087	-1.62
708.114	8.38
708.142	-12.62
708.169	-6.62
708.197	-2.62
708.225	10.38
708.252	15.38
708.28	9.38
708.307	-4.62
708.335	-6.62
708.362	0.38
708.39	-10.62
708.418	-16.62
708.445	-3.62
708.473	-6.62
708.5	-12.62
708.528	3.38
708.555	-7.62
708.583	3.38
708.61	-3.62
708.638	-8.62
708.665	-3.62
708.693	-2.62
708.72	-3.62
708.748	-12.62
708.776	-5.62
708.803	27.38
708.831	-0.62
708.858	0.38
708.886	3.38
708.913	0.38
708.941	3.38
708.968	16.38
708.996	2.38
709.023	12.38
709.051	-3.62
709.078	-11.62
709.105	-4.62
709.133	-10.62
709.16	16.38
709.188	13.38
709.215	16.38
709.243	8.38
709.27	-7.62
709.298	-5.62
709.325	-6.62
709.353	6.38
709.38	-0.62
709.408	4.38
709.435	3.38
709.462	-7.62
709.49	-6.62
709.517	-1.62
709.545	3.38
709.572	4.38
709.6	7.38
709.627	-1.62
709.655	0.38
709.682	3.38
709.709	3.38
709.737	3.38
709.764	-8.62
709.792	3.38
709.819	-0.62
709.846	-7.62
709.874	-2.62
709.901	20.38
709.929	22.38
709.956	15.38
709.983	-11.62
710.011	-5.62
710.038	8.38
710.066	7.38
710.093	16.38
710.12	14.38
710.148	0.38
710.175	-3.62
710.202	4.38
710.23	-1.62
710.257	-8.62
710.284	11.38
710.312	5.38
710.339	-1.62
710.366	13.38
710.394	-2.62
710.421	8.38
710.448	4.38
710.476	-19.62
710.503	-8.62
710.53	2.38
710.558	-2.62
710.585	7.38
710.612	3.38
710.64	2.38
710.667	4.38
710.694	6.38
710.722	3.38
710.749	-0.62
710.776	-0.62
710.804	31.38
710.831	9.38
710.858	17.38
710.885	-7.62
710.913	2.38
710.94	19.38
710.967	10.38
710.995	9.38
711.022	-1.62
711.049	4.38
711.076	-2.62
711.104	-0.62
711.131	-0.62
711.158	-2.62
711.185	22.38
711.213	-5.62
711.24	3.38
711.267	1.38
711.294	-1.62
711.322	5.38
711.349	1.38
711.376	-9.62
711.403	4.38
711.431	-12.62
711.458	-0.62
711.485	-6.62
711.512	3.38
711.54	-6.62
711.567	3.38
711.594	-8.62
711.621	-0.62
711.648	-1.62
711.676	-17.62
711.703	-4.62
711.73	-4.62
711.757	8.38
711.784	9.38
711.812	3.38
711.839	5.38
711.866	1.38
711.893	-8.62
711.92	0.38
711.947	4.38
711.975	1.38
712.002	-2.62
712.029	5.38
712.056	3.38
712.083	17.38
712.11	-13.62
712.138	17.38
712.165	3.38
712.192	-3.62
712.219	-21.62
712.246	-5.62
712.273	2.38
712.3	-10.62
712.328	1.38
712.355	3.38
712.382	-19.62
712.409	5.38
712.436	-6.62
712.463	5.38
712.49	6.38
712.517	8.38
712.544	4.38
712.572	4.38
712.599	-0.62
712.626	12.38
712.653	11.38
712.68	-1.62
712.707	-4.62
712.734	-3.62
712.761	5.38
712.788	0.38
712.815	6.38
712.842	10.38
712.87	-8.62
712.897	10.38
712.924	-15.62
712.951	7.38
712.978	20.38
713.005	11.38
713.032	0.38
713.059	-5.62
713.086	0.38
713.113	-8.62
713.14	-9.62
713.167	6.38
713.194	-2.62
713.221	-0.62
713.248	26.38
713.275	7.38
713.302	-3.62
713.329	11.38
713.356	9.38
713.383	17.38
713.41	0.38
713.437	-10.62
713.464	3.38
713.491	4.38
713.518	-0.62
713.545	-0.62
713.572	-3.62
713.599	13.38
713.626	-2.62
713.653	1.38
713.68	-25.62
713.707	-2.62
713.734	-3.62
713.761	-1.62
713.788	-5.62
713.815	-2.62
713.842	1.38
713.869	-7.62
713.896	10.38
713.923	0.38
713.95	4.38
713.977	3.38
714.004	-1.62
714.031	-7.62
714.058	-7.62
714.085	1.38
714.112	-5.62
714.139	-11.62
714.165	-3.62
714.192	-14.62
714.219	3.38
714.246	2.38
714.273	1.38
714.3	1.38
714.327	4.38
714.354	16.38
714.381	-5.62
714.408	-6.62
714.435	5.38
714.461	6.38
714.488	8.38
714.515	5.38
714.542	-1.62
714.569	-10.62
714.596	-19.62
714.623	-15.62
714.65	0.38
714.677	2.38
714.703	5.38
714.73	2.38
714.757	-1.62
714.784	7.38
714.811	0.38
714.838	-2.62
714.865	-8.62
714.891	14.38
714.918	10.38
714.945	-7.62
714.972	-19.62
714.999	8.38
715.026	-8.62
715.052	10.38
715.079	0.38
715.106	16.38
715.133	7.38
715.16	-6.62
715.187	8.38
715.213	1.38
715.24	-26.62
715.267	-4.62
715.294	14.38
715.321	1.38
715.347	-2.62
715.374	3.38
715.401	0.38
715.428	-4.62
715.455	-8.62
715.481	-4.62
715.508	14.38
715.535	8.38
715.562	23.38
715.588	4.38
715.615	14.38
715.642	18.38
715.669	7.38
715.695	-3.62
715.722	4.38
715.749	18.38
715.776	5.38
715.802	30.38
715.829	9.38
715.856	3.38
715.883	4.38
715.909	-10.62
715.936	-5.62
715.963	-8.62
715.99	-16.62
716.016	-3.62
716.043	0.38
716.07	-9.62
716.096	-6.62
716.123	-6.62
716.15	0.38
716.177	3.38
716.203	3.38
716.23	9.38
716.257	2.38
716.283	8.38
716.31	3.38
716.337	4.38
716.363	-12.62
716.39	3.38
716.417	15.38
716.443	1.38
716.47	19.38
716.497	15.38
716.523	15.38
716.55	13.38
716.577	10.38
716.603	-1.62
716.63	13.38
716.657	15.38
716.683	-0.62
716.71	1.38
716.737	-10.62
716.763	14.38
716.79	4.38
716.817	2.38
716.843	15.38
716.87	-12.62
716.897	3.38
716.923	15.38
716.95	-4.62
716.976	-13.62
717.003	-9.62
717.03	12.38
717.056	-2.62
717.083	5.38
717.109	0.38
717.136	8.38
717.163	3.38
717.189	4.38
717.216	-12.62
717.242	-7.62
717.269	3.38
717.296	4.38
717.322	10.38
717.349	19.38
717.375	3.38
717.402	1.38
717.428	-0.62
717.455	13.38
717.481	7.38
717.508	7.38
717.535	-1.62
717.561	9.38
717.588	4.38
717.614	6.38
717.641	5.38
717.667	3.38
717.694	20.38
717.72	0.38
717.747	-3.62
717.773	-7.62
717.8	0.38
717.826	1.38
717.853	0.38
717.88	20.38
717.906	3.38
717.933	2.38
717.959	0.38
717.986	0.38
718.012	10.38
718.039	-0.62
718.065	23.38
718.092	6.38
718.118	1.38
718.144	5.38
718.171	20.38
718.197	12.38
718.224	11.38
718.25	22.38
718.277	17.38
718.303	4.38
718.33	3.38
718.356	3.38
718.383	-10.62
718.409	-6.62
718.436	1.38
718.462	4.38
718.489	8.38
718.515	10.38
718.541	7.38
718.568	-0.62
718.594	-1.62
718.621	3.38
718.647	-2.62
718.674	15.38
718.7	1.38
718.726	-9.62
718.753	13.38
718.779	32.38
718.806	-2.62
718.832	4.38
718.858	12.38
718.885	2.38
718.911	9.38
718.938	14.38
718.964	-1.62
718.99	9.38
719.017	-0.62
719.043	11.38
719.07	3.38
719.096	-16.62
719.122	3.38
719.149	5.38
719.175	7.38
719.201	-5.62
719.228	3.38
719.254	10.38
719.281	-3.62
719.307	4.38
719.333	11.38
719.36	7.38
719.386	-8.62
719.412	3.38
719.439	-1.62
719.465	4.38
719.491	-3.62
719.518	13.38
719.544	7.38
719.57	9.38
719.597	17.38
719.623	8.38
719.649	7.38
719.675	4.38
719.702	4.38
719.728	20.38
719.754	10.38
719.781	-7.62
719.807	5.38
719.833	1.38
719.86	8.38
719.886	1.38
719.912	1.38
719.938	-7.62
719.965	-6.62
719.991	11.38
720.017	13.38
720.044	-0.62
720.07	3.38
720.096	7.38
720.122	-12.62
720.149	-4.62
720.175	17.38
720.201	14.38
720.227	-5.62
720.254	-5.62
720.28	-11.62
720.306	-1.62
720.332	0.38
720.359	5.38
720.385	23.38
720.411	-0.62
720.437	3.38
720.463	1.38
720.49	13.38
720.516	1.38
720.542	-12.62
720.568	-6.62
720.595	4.38
720.621	7.38
720.647	4.38
720.673	19.38
720.699	9.38
720.725	24.38
720.752	14.38
720.778	3.38
720.804	9.38
720.83	3.38
720.856	-15.62
720.883	-23.62
720.909	-8.62
720.935	-3.62
720.961	20.38
720.987	-1.62
721.013	9.38
721.04	0.38
721.066	-9.62
721.092	-5.62
721.118	9.38
721.144	3.38
721.17	9.38
721.196	2.38
721.223	0.38
721.249	-6.62
721.275	17.38
721.301	3.38
721.327	7.38
721.353	11.38
721.379	19.38
721.405	3.38
721.432	9.38
721.458	-1.62
721.484	8.38
721.51	4.38
721.536	0.38
721.562	6.38
721.588	0.38
721.614	2.38
721.64	-0.62
721.666	7.38
721.693	-7.62
721.719	-12.62
721.745	-13.62
721.771	0.38
721.797	7.38
721.823	8.38
721.849	21.38
721.875	9.38
721.901	4.38
721.927	9.38
721.953	11.38
721.979	7.38
722.005	12.38
722.031	-7.62
722.057	16.38
722.083	7.38
722.109	8.38
722.135	24.38
722.161	10.38
722.187	-6.62
722.214	-1.62
722.24	1.38
722.266	-4.62
722.292	15.38
722.318	23.38
722.344	11.38
722.37	3.38
722.396	19.38
722.422	11.38
722.448	7.38
722.474	-3.62
722.5	2.38
722.526	6.38
722.552	4.38
722.578	-7.62
722.603	10.38
722.629	-1.62
722.655	19.38
722.681	3.38
722.707	0.38
722.733	-8.62
722.759	9.38
722.785	6.38
722.811	-4.62
722.837	7.38
722.863	-0.62
722.889	5.38
722.915	-9.62
722.941	-14.62
722.967	1.38
722.993	-1.62
723.019	3.38
723.045	6.38
723.071	24.38
723.097	10.38
723.122	-0.62
723.148	-3.62
723.174	1.38
723.2	13.38
723.226	5.38
723.252	-4.62
723.278	0.38
723.304	-9.62
723.33	6.38
723.356	-4.62
723.381	-9.62
723.407	-10.62
723.433	12.38
723.459	-1.62
723.485	-5.62
723.511	-3.62
723.537	-3.62
723.563	2.38
723.588	14.38
723.614	16.38
723.64	-0.62
723.666	0.38
723.692	14.38
723.718	13.38
723.744	18.38
723.769	-21.62
723.795	-16.62
723.821	4.38
723.847	-1.62
723.873	8.38
723.899	-2.62
723.924	-10.62
723.95	-8.62
723.976	-8.62
724.002	-2.62
724.028	-15.62
724.053	6.38
724.079	-12.62
724.105	3.38
724.131	6.38
724.157	9.38
724.182	-3.62
724.208	4.38
724.234	-5.62
724.26	-1.62
724.286	3.38
724.311	2.38
724.337	-1.62
724.363	-3.62
724.389	3.38
724.415	5.38
724.44	12.38
724.466	-3.62
724.492	-10.62
724.518	20.38
724.543	2.38
724.569	-2.62
724.595	-8.62
724.621	6.38
724.646	-3.62
724.672	-9.62
724.698	-2.62
724.723	7.38
724.749	7.38
724.775	17.38
724.801	3.38
724.826	-11.62
724.852	5.38
724.878	-3.62
724.904	-15.62
724.929	-3.62
724.955	-9.62
724.981	2.38
725.006	-5.62
725.032	-5.62
725.058	15.38
725.083	-17.62
725.109	-5.62
725.135	7.38
725.161	5.38
725.186	4.38
725.212	-4.62
725.238	-1.62
725.263	-12.62
725.289	-15.62
725.315	5.38
725.34	6.38
725.366	3.38
725.392	3.38
725.417	4.38
725.443	7.38
725.468	11.38
725.494	22.38
725.52	7.38
725.545	-9.62
725.571	-6.62
725.597	0.38
725.622	16.38
725.648	9.38
725.674	7.38
725.699	6.38
725.725	5.38
725.75	31.38
725.776	13.38
725.802	3.38
725.827	6.38
725.853	8.38
725.878	-2.62
725.904	-3.62
725.93	2.38
725.955	0.38
725.981	-6.62
726.006	6.38
726.032	5.38
726.057	2.38
726.083	-6.62
726.109	-4.62
726.134	-8.62
726.16	6.38
726.185	4.38
726.211	0.38
726.236	11.38
726.262	0.38
726.288	4.38
726.313	17.38
726.339	1.38
726.364	-12.62
726.39	11.38
726.415	-3.62
726.441	-12.62
726.466	-4.62
726.492	4.38
726.517	11.38
726.543	12.38
726.568	-6.62
726.594	0.38
726.619	22.38
726.645	-3.62
726.67	3.38
726.696	1.38
726.721	-14.62
726.747	-5.62
726.772	8.38
726.798	4.38
726.823	12.38
726.849	3.38
726.874	6.38
726.9	27.38
726.925	14.38
726.951	-6.62
726.976	8.38
727.002	-3.62
727.027	-3.62
727.053	19.38
727.078	4.38
727.104	-1.62
727.129	-17.62
727.155	-7.62
727.18	10.38
727.205	-2.62
727.231	0.38
727.256	7.38
727.282	6.38
727.307	11.38
727.333	-8.62
727.358	-3.62
727.383	-6.62
727.409	-8.62
727.434	0.38
727.46	6.38
727.485	-5.62
727.511	2.38
727.536	-10.62
727.561	-3.62
727.587	3.38
727.612	-5.62
727.637	0.38
727.663	10.38
727.688	16.38
727.714	-2.62
727.739	-2.62
727.764	-8.62
727.79	-2.62
727.815	15.38
727.841	2.38
727.866	3.38
727.891	7.38
727.917	-9.62
727.942	-4.62
727.967	-8.62
727.993	-17.62
728.018	-3.62
728.043	-2.62
728.069	3.38
728.094	19.38
728.119	7.38
728.145	26.38
728.17	3.38
728.195	-3.62
728.221	0.38
728.246	3.38
728.271	-4.62
728.297	-5.62
728.322	3.38
728.347	3.38
728.373	12.38
728.398	0.38
728.423	-7.62
728.448	-12.62
728.474	11.38
728.499	11.38
728.524	-5.62
728.55	0.38
728.575	-1.62
728.6	-5.62
728.625	-2.62
728.651	-3.62
728.676	-0.62
728.701	3.38
728.727	-2.62
728.752	-15.62
728.777	-12.62
728.802	10.38
728.828	13.38
728.853	2.38
728.878	-0.62
728.903	-3.62
728.929	-5.62
728.954	11.38
728.979	6.38
729.004	-1.62
729.03	-7.62
729.055	28.38
729.08	-7.62
729.105	-7.62
729.13	6.38
729.156	-0.62
729.181	-5.62
729.206	-10.62
729.231	0.38
729.256	3.38
729.282	7.38
729.307	-3.62
729.332	1.38
729.357	1.38
729.382	-0.62
729.408	-0.62
729.433	-4.62
729.458	1.38
729.483	11.38
729.508	16.38
729.533	17.38
729.559	12.38
729.584	5.38
729.609	3.38
729.634	9.38
729.659	-6.62
729.684	-0.62
729.71	23.38
729.735	9.38
729.76	5.38
729.785	-5.62
729.81	23.38
729.835	5.38
729.86	-7.62
729.886	13.38
729.911	-0.62
729.936	-10.62
729.961	9.38
729.986	-15.62
730.011	-3.62
730.036	8.38
730.061	-3.62
730.086	-6.62
730.112	-2.62
730.137	25.38
730.162	10.38
730.187	6.38
730.212	-4.62
730.237	7.38
730.262	15.38
730.287	-6.62
730.312	22.38
730.337	4.38
730.362	12.38
730.387	4.38
730.413	-2.62
730.438	-7.62
730.463	-6.62
730.488	7.38
730.513	7.38
730.538	4.38
730.563	7.38
730.588	18.38
730.613	23.38
730.638	9.38
730.663	-14.62
730.688	18.38
730.713	8.38
730.738	-2.62
730.763	4.38
730.788	-6.62
730.813	-11.62
730.838	-14.62
730.863	10.38
730.888	3.38
730.913	-14.62
730.938	-3.62
730.963	6.38
730.988	-1.62
731.013	11.38
731.038	-6.62
731.063	-3.62
731.088	8.38
731.113	0.38
731.138	-0.62
731.163	-7.62
731.188	-0.62
731.213	10.38
731.238	12.38
731.263	-0.62
731.288	2.38
731.313	24.38
731.338	13.38
731.363	5.38
731.388	6.38
731.413	6.38
731.438	11.38
731.463	5.38
731.487	16.38
731.512	15.38
731.537	8.38
731.562	-0.62
731.587	15.38
731.612	-8.62
731.637	-5.62
731.662	0.38
731.687	-2.62
731.712	-24.62
731.737	3.38
731.762	0.38
731.786	-0.62
731.811	8.38
731.836	9.38
731.861	14.38
731.886	2.38
731.911	7.38
731.936	3.38
731.961	9.38
731.986	13.38
732.01	1.38
732.035	14.38
732.06	10.38
732.085	-9.62
732.11	-9.62
732.135	-20.62
732.16	3.38
732.184	-0.62
732.209	12.38
732.234	28.38
732.259	-2.62
732.284	23.38
732.309	-7.62
732.334	0.38
732.358	-11.62
732.383	-16.62
732.408	-12.62
732.433	-1.62
732.458	-2.62
732.482	12.38
732.507	6.38
732.532	8.38
732.557	4.38
732.582	5.38
732.607	-5.62
732.631	-10.62
732.656	-4.62
732.681	-0.62
732.706	0.38
732.73	7.38
732.755	4.38
732.78	0.38
732.805	-2.62
732.83	11.38
732.854	-10.62
732.879	13.38
732.904	6.38
732.929	-4.62
732.953	7.38
732.978	-0.62
733.003	-4.62
733.028	-11.62
733.052	0.38
733.077	-8.62
733.102	13.38
733.127	-4.62
733.151	-3.62
733.176	3.38
733.201	-7.62
733.226	-7.62
733.25	8.38
733.275	8.38
733.3	5.38
733.324	4.38
733.349	8.38
733.374	8.38
733.399	-2.62
733.423	9.38
733.448	-5.62
733.473	-3.62
733.497	6.38
733.522	-9.62
733.547	9.38
733.571	10.38
733.596	11.38
733.621	7.38
733.646	6.38
733.67	4.38
733.695	-4.62
733.72	26.38
733.744	12.38
733.769	11.38
733.794	20.38
733.818	5.38
733.843	8.38
733.867	0.38
733.892	13.38
733.917	6.38
733.941	12.38
733.966	0.38
733.991	12.38
734.015	12.38
734.04	-3.62
734.065	13.38
734.089	16.38
734.114	4.38
734.138	11.38
734.163	12.38
734.188	15.38
734.212	26.38
734.237	17.38
734.261	10.38
734.286	-9.62
734.311	-14.62
734.335	22.38
734.36	-0.62
734.384	9.38
734.409	6.38
734.434	-18.62
734.458	7.38
734.483	8.38
734.507	9.38
734.532	-11.62
734.556	4.38
734.581	-2.62
734.606	-2.62
734.63	-6.62
734.655	-0.62
734.679	11.38
734.704	11.38
734.728	3.38
734.753	6.38
734.777	9.38
734.802	-1.62
734.826	7.38
734.851	-7.62
734.876	17.38
734.9	11.38
734.925	13.38
734.949	-2.62
734.974	13.38
734.998	9.38
735.023	-10.62
735.047	-10.62
735.072	19.38
735.096	13.38
735.121	14.38
735.145	-2.62
735.17	-0.62
735.194	21.38
735.219	0.38
735.243	-0.62
735.268	9.38
735.292	-1.62
735.317	12.38
735.341	-7.62
735.365	-21.62
735.39	6.38
735.414	8.38
735.439	11.38
735.463	10.38
735.488	11.38
735.512	23.38
735.537	-1.62
735.561	4.38
735.586	4.38
735.61	-1.62
735.634	-5.62
735.659	3.38
735.683	14.38
735.708	11.38
735.732	-2.62
735.757	-10.62
735.781	8.38
735.805	2.38
735.83	-3.62
735.854	3.38
735.879	4.38
735.903	12.38
735.927	3.38
735.952	10.38
735.976	14.38
736.001	6.38
736.025	1.38
736.049	1.38
736.074	-1.62
736.098	-5.62
736.123	15.38
736.147	3.38
736.171	0.38
736.196	7.38
736.22	-3.62
736.244	7.38
736.269	4.38
736.293	16.38
736.317	13.38
736.342	9.38
736.366	16.38
736.39	12.38
736.415	3.38
736.439	4.38
736.463	10.38
736.488	7.38
736.512	16.38
736.536	11.38
736.561	26.38
736.585	4.38
736.609	4.38
736.634	-6.62
736.658	-3.62
736.682	-4.62
736.707	-7.62
736.731	-6.62
736.755	3.38
736.78	14.38
736.804	20.38
736.828	0.38
736.852	3.38
736.877	8.38
736.901	14.38
736.925	4.38
736.949	13.38
736.974	8.38
736.998	8.38
737.022	7.38
737.047	4.38
737.071	-12.62
737.095	24.38
737.119	24.38
737.144	16.38
737.168	-4.62
737.192	3.38
737.216	24.38
737.241	1.38
737.265	-6.62
737.289	-8.62
737.313	-3.62
737.337	13.38
737.362	7.38
737.386	-0.62
737.41	-4.62
737.434	7.38
737.459	-6.62
737.483	4.38
737.507	12.38
737.531	9.38
737.555	12.38
737.58	3.38
737.604	1.38
737.628	-2.62
737.652	4.38
737.676	5.38
737.701	7.38
737.725	-4.62
737.749	12.38
737.773	9.38
737.797	-4.62
737.821	0.38
737.846	0.38
737.87	8.38
737.894	1.38
737.918	7.38
737.942	-3.62
737.966	-1.62
737.99	18.38
738.015	16.38
738.039	2.38
738.063	-2.62
738.087	15.38
738.111	0.38
738.135	16.38
738.159	1.38
738.184	-3.62
738.208	1.38
738.232	13.38
738.256	20.38
738.28	1.38
738.304	5.38
738.328	-8.62
738.352	9.38
738.376	-0.62
738.4	7.38
738.425	15.38
738.449	-7.62
738.473	15.38
738.497	-2.62
738.521	8.38
738.545	18.38
738.569	5.38
738.593	17.38
738.617	3.38
738.641	6.38
738.665	12.38
738.689	-5.62
738.713	2.38
738.737	-12.62
738.762	12.38
738.786	7.38
738.81	-7.62
738.834	11.38
738.858	6.38
738.882	17.38
738.906	-8.62
738.93	-2.62
738.954	7.38
738.978	15.38
739.002	6.38
739.026	14.38
739.05	8.38
739.074	6.38
739.098	15.38
739.122	12.38
739.146	6.38
739.17	12.38
739.194	5.38
739.218	-3.62
739.242	-2.62
739.266	4.38
739.29	16.38
739.314	6.38
739.338	-1.62
739.362	8.38
739.386	15.38
739.41	-6.62
739.434	9.38
739.458	14.38
739.482	8.38
739.506	13.38
739.53	1.38
739.554	18.38
739.577	3.38
739.601	7.38
739.625	-3.62
739.649	3.38
739.673	3.38
739.697	24.38
739.721	-3.62
739.745	-3.62
739.769	16.38
739.793	15.38
739.817	10.38
739.841	4.38
739.865	18.38
739.889	-8.62
739.912	12.38
739.936	3.38
739.96	-5.62
739.984	15.38
740.008	-17.62
740.032	-6.62
740.056	6.38
740.08	-2.62
740.104	-8.62
740.127	20.38
740.151	20.38
740.175	3.38
740.199	12.38
740.223	42.38
740.247	8.38
740.271	20.38
740.295	7.38
740.318	12.38
740.342	3.38
740.366	3.38
740.39	13.38
740.414	-6.62
740.438	1.38
740.461	28.38
740.485	10.38
740.509	-9.62
740.533	4.38
740.557	-1.62
740.581	1.38
740.604	-6.62
740.628	3.38
740.652	9.38
740.676	11.38
740.7	18.38
740.723	-1.62
740.747	-13.62
740.771	-2.62
740.795	-0.62
740.819	11.38
740.842	8.38
740.866	9.38
740.89	13.38
740.914	-21.62
740.938	0.38
740.961	10.38
740.985	5.38
741.009	12.38
741.033	25.38
741.056	4.38
741.08	-0.62
741.104	0.38
741.128	-9.62
741.151	13.38
741.175	15.38
741.199	17.38
741.223	10.38
741.246	-10.62
741.27	8.38
741.294	8.38
741.318	-2.62
741.341	0.38
741.365	0.38
741.389	-0.62
741.413	11.38
741.436	28.38
741.46	17.38
741.484	20.38
741.507	7.38
741.531	17.38
741.555	0.38
741.579	-0.62
741.602	-1.62
741.626	17.38
741.65	4.38
741.673	7.38
741.697	22.38
741.721	8.38
741.744	7.38
741.768	-4.62
741.792	3.38
741.815	-7.62
741.839	9.38
741.863	11.38
741.886	9.38
741.91	22.38
741.934	15.38
741.957	-1.62
741.981	4.38
742.005	14.38
742.028	-7.62
742.052	-3.62
742.075	15.38
742.099	-2.62
742.123	2.38
742.146	-1.62
742.17	0.38
742.194	-21.62
742.217	0.38
742.241	-3.62
742.264	5.38
742.288	24.38
742.312	6.38
742.335	15.38
742.359	2.38
742.382	15.38
742.406	6.38
742.43	0.38
742.453	8.38
742.477	-5.62
742.5	-4.62
742.524	9.38
742.548	8.38
742.571	4.38
742.595	15.38
742.618	-0.62
742.642	-9.62
742.665	11.38
742.689	-1.62
742.712	7.38
742.736	4.38
742.76	11.38
742.783	8.38
742.807	21.38
742.83	8.38
742.854	-4.62
742.877	4.38
742.901	9.38
742.924	11.38
742.948	11.38
742.971	17.38
742.995	5.38
743.018	-7.62
743.042	0.38
743.065	-2.62
743.089	-3.62
743.112	5.38
743.136	6.38
743.159	3.38
743.183	13.38
743.206	13.38
743.23	-6.62
743.253	8.38
743.277	7.38
743.3	-3.62
743.324	3.38
743.347	1.38
743.371	8.38
743.394	10.38
743.418	17.38
743.441	5.38
743.465	9.38
743.488	6.38
743.512	0.38
743.535	7.38
743.558	12.38
743.582	4.38
743.605	1.38
743.629	-6.62
743.652	19.38
743.676	2.38
743.699	17.38
743.723	8.38
743.746	-8.62
743.769	3.38
743.793	15.38
743.816	1.38
743.84	19.38
743.863	3.38
743.886	5.38
743.91	1.38
743.933	1.38
743.957	3.38
743.98	11.38
744.003	15.38
744.027	5.38
744.05	11.38
744.074	-11.62
744.097	-7.62
744.12	18.38
744.144	-4.62
744.167	7.38
744.19	8.38
744.214	-6.62
744.237	-3.62
744.26	15.38
744.284	7.38
744.307	-10.62
744.331	5.38
744.354	-6.62
744.377	-11.62
744.401	3.38
744.424	5.38
744.447	-9.62
744.471	-9.62
