Data from HighRes_H2D2_15_04_11_07_2024_HR4C61891__98__15-05-44-242.txt Node

Date: Thu Nov 07 15:05:44 EST 2024
User: crc00042
Spectrometer: HR4C6189
Trigger mode: 4
Integration Time (sec): 1.000000E-1
Scans to average: 1
Electric dark correction enabled: true
Nonlinearity correction enabled: false
Boxcar width: 0
XAxis mode: Wavelengths
Number of Pixels in Spectrum: 3648
>>>>>Begin Spectral Data<<<<<
639.567	-76.77
639.602	-76.77
639.636	-76.77
639.67	-36.77
639.704	-18.77
639.738	4.23
639.773	-7.77
639.807	-25.77
639.841	12.23
639.875	9.23
639.909	4.23
639.943	2.23
639.978	-10.77
640.012	6.23
640.046	24.23
640.08	-7.77
640.114	-0.77
640.148	-9.77
640.182	-4.77
640.217	8.23
640.251	9.23
640.285	6.23
640.319	-15.77
640.353	3.23
640.387	-1.77
640.421	-8.77
640.455	-0.77
640.49	-15.77
640.524	-10.77
640.558	11.23
640.592	-19.77
640.626	-5.77
640.66	4.23
640.694	-10.77
640.728	16.23
640.762	7.23
640.796	15.23
640.83	9.23
640.865	5.23
640.899	-11.77
640.933	-7.77
640.967	-1.77
641.001	-2.77
641.035	-7.77
641.069	-4.77
641.103	-17.77
641.137	-8.77
641.171	-8.77
641.205	4.23
641.239	6.23
641.273	-6.77
641.307	8.23
641.341	-8.77
641.375	-13.77
641.409	1.23
641.443	8.23
641.477	6.23
641.511	8.23
641.545	16.23
641.579	5.23
641.614	-2.77
641.648	2.23
641.682	-8.77
641.716	1.23
641.75	19.23
641.784	-4.77
641.818	-10.77
641.852	3.23
641.886	-0.77
641.919	15.23
641.953	-12.77
641.987	-23.77
642.021	-4.77
642.055	0.23
642.089	10.23
642.123	-9.77
642.157	3.23
642.191	-2.77
642.225	-1.77
642.259	-8.77
642.293	-2.77
642.327	5.23
642.361	-10.77
642.395	6.23
642.429	17.23
642.463	9.23
642.497	27.23
642.531	5.23
642.565	-6.77
642.599	-2.77
642.633	-0.77
642.666	7.23
642.7	20.23
642.734	18.23
642.768	-4.77
642.802	-6.77
642.836	4.23
642.87	1.23
642.904	-8.77
642.938	8.23
642.972	-4.77
643.005	5.23
643.039	9.23
643.073	-11.77
643.107	6.23
643.141	4.23
643.175	0.23
643.209	2.23
643.243	-15.77
643.276	1.23
643.31	10.23
643.344	-9.77
643.378	-11.77
643.412	3.23
643.446	8.23
643.48	-10.77
643.513	8.23
643.547	10.23
643.581	-0.77
643.615	9.23
643.649	10.23
643.683	-1.77
643.716	12.23
643.75	12.23
643.784	7.23
643.818	3.23
643.852	-9.77
643.886	-6.77
643.919	12.23
643.953	-18.77
643.987	-17.77
644.021	13.23
644.055	15.23
644.088	11.23
644.122	0.23
644.156	-12.77
644.19	-4.77
644.224	-9.77
644.257	-5.77
644.291	5.23
644.325	-0.77
644.359	-2.77
644.392	22.23
644.426	8.23
644.46	9.23
644.494	10.23
644.527	-10.77
644.561	-2.77
644.595	9.23
644.629	-10.77
644.662	4.23
644.696	2.23
644.73	2.23
644.764	7.23
644.797	3.23
644.831	-0.77
644.865	9.23
644.899	12.23
644.932	22.23
644.966	-6.77
645	1.23
645.033	9.23
645.067	-2.77
645.101	17.23
645.135	-8.77
645.168	-9.77
645.202	7.23
645.236	12.23
645.269	-6.77
645.303	-11.77
645.337	-23.77
645.37	-9.77
645.404	-3.77
645.438	3.23
645.471	6.23
645.505	7.23
645.539	4.23
645.572	-20.77
645.606	0.23
645.64	12.23
645.673	-6.77
645.707	20.23
645.741	18.23
645.774	2.23
645.808	10.23
645.842	-6.77
645.875	9.23
645.909	8.23
645.943	-2.77
645.976	31.23
646.01	10.23
646.043	4.23
646.077	21.23
646.111	17.23
646.144	18.23
646.178	8.23
646.212	-9.77
646.245	-9.77
646.279	25.23
646.312	9.23
646.346	20.23
646.38	6.23
646.413	14.23
646.447	-19.77
646.48	9.23
646.514	2.23
646.547	2.23
646.581	2.23
646.615	-3.77
646.648	-3.77
646.682	1.23
646.715	-5.77
646.749	15.23
646.782	1.23
646.816	9.23
646.85	1.23
646.883	-10.77
646.917	5.23
646.95	5.23
646.984	12.23
647.017	10.23
647.051	12.23
647.084	-5.77
647.118	-7.77
647.151	-18.77
647.185	-3.77
647.218	8.23
647.252	10.23
647.285	-2.77
647.319	-7.77
647.353	4.23
647.386	17.23
647.42	6.23
647.453	0.23
647.487	-11.77
647.52	1.23
647.553	1.23
647.587	-3.77
647.62	-6.77
647.654	3.23
647.687	-6.77
647.721	6.23
647.754	7.23
647.788	0.23
647.821	-0.77
647.855	8.23
647.888	3.23
647.922	3.23
647.955	-6.77
647.989	6.23
648.022	9.23
648.055	20.23
648.089	12.23
648.122	32.23
648.156	10.23
648.189	3.23
648.223	8.23
648.256	12.23
648.29	4.23
648.323	7.23
648.356	4.23
648.39	-1.77
648.423	-2.77
648.457	-4.77
648.49	15.23
648.523	11.23
648.557	-1.77
648.59	-3.77
648.624	-1.77
648.657	7.23
648.69	5.23
648.724	3.23
648.757	2.23
648.791	13.23
648.824	5.23
648.857	24.23
648.891	8.23
648.924	3.23
648.957	26.23
648.991	4.23
649.024	13.23
649.057	7.23
649.091	-0.77
649.124	1.23
649.158	3.23
649.191	25.23
649.224	2.23
649.258	4.23
649.291	0.23
649.324	12.23
649.358	12.23
649.391	4.23
649.424	2.23
649.458	5.23
649.491	6.23
649.524	-1.77
649.557	-4.77
649.591	-10.77
649.624	27.23
649.657	-11.77
649.691	6.23
649.724	-5.77
649.757	1.23
649.791	-9.77
649.824	15.23
649.857	7.23
649.89	-6.77
649.924	-15.77
649.957	-15.77
649.99	-11.77
650.023	5.23
650.057	-1.77
650.09	6.23
650.123	-3.77
650.157	1.23
650.19	-0.77
650.223	12.23
650.256	-24.77
650.29	-0.77
650.323	-6.77
650.356	11.23
650.389	2.23
650.423	-5.77
650.456	14.23
650.489	3.23
650.522	3.23
650.555	29.23
650.589	8.23
650.622	9.23
650.655	18.23
650.688	7.23
650.721	-6.77
650.755	7.23
650.788	14.23
650.821	19.23
650.854	4.23
650.887	5.23
650.921	1.23
650.954	-2.77
650.987	-6.77
651.02	-4.77
651.053	-16.77
651.087	-4.77
651.12	13.23
651.153	20.23
651.186	-12.77
651.219	-21.77
651.252	3.23
651.286	12.23
651.319	-8.77
651.352	12.23
651.385	13.23
651.418	8.23
651.451	8.23
651.484	2.23
651.518	-11.77
651.551	17.23
651.584	-11.77
651.617	11.23
651.65	-4.77
651.683	7.23
651.716	5.23
651.749	-20.77
651.783	-2.77
651.816	19.23
651.849	17.23
651.882	1.23
651.915	4.23
651.948	3.23
651.981	3.23
652.014	-8.77
652.047	6.23
652.08	12.23
652.114	5.23
652.147	-6.77
652.18	10.23
652.213	31.23
652.246	9.23
652.279	-10.77
652.312	-7.77
652.345	-7.77
652.378	-9.77
652.411	8.23
652.444	2.23
652.477	12.23
652.51	7.23
652.543	-8.77
652.576	5.23
652.609	-14.77
652.642	0.23
652.675	3.23
652.709	4.23
652.742	8.23
652.775	16.23
652.808	-7.77
652.841	10.23
652.874	-2.77
652.907	19.23
652.94	13.23
652.973	-21.77
653.006	4.23
653.039	-13.77
653.072	2.23
653.105	14.23
653.138	-0.77
653.171	2.23
653.204	12.23
653.237	4.23
653.27	-1.77
653.303	0.23
653.336	3.23
653.368	3.23
653.401	8.23
653.434	11.23
653.467	4.23
653.5	-9.77
653.533	-11.77
653.566	-2.77
653.599	9.23
653.632	1.23
653.665	-7.77
653.698	-11.77
653.731	-9.77
653.764	-3.77
653.797	-13.77
653.83	0.23
653.863	6.23
653.896	-1.77
653.929	-3.77
653.961	3.23
653.994	1.23
654.027	-28.77
654.06	13.23
654.093	8.23
654.126	-0.77
654.159	-2.77
654.192	-10.77
654.225	-2.77
654.258	-6.77
654.29	0.23
654.323	17.23
654.356	3.23
654.389	24.23
654.422	13.23
654.455	1.23
654.488	9.23
654.521	-15.77
654.553	-7.77
654.586	7.23
654.619	5.23
654.652	-3.77
654.685	6.23
654.718	8.23
654.751	0.23
654.783	12.23
654.816	28.23
654.849	11.23
654.882	-11.77
654.915	-23.77
654.948	-6.77
654.98	-22.77
655.013	2.23
655.046	-2.77
655.079	-0.77
655.112	9.23
655.144	-22.77
655.177	6.23
655.21	6.23
655.243	16.23
655.276	8.23
655.308	0.23
655.341	0.23
655.374	3.23
655.407	8.23
655.44	4.23
655.472	-0.77
655.505	12.23
655.538	0.23
655.571	10.23
655.603	6.23
655.636	-9.77
655.669	2.23
655.702	5.23
655.734	-16.77
655.767	-7.77
655.8	-9.77
655.833	-6.77
655.865	6.23
655.898	8.23
655.931	8.23
655.964	21.23
655.996	9.23
656.029	32.23
656.062	26.23
656.095	42.23
656.127	88.23
656.16	207.23
656.193	611.23
656.225	955.23
656.258	537.23
656.291	214.23
656.324	186.23
656.356	347.23
656.389	786.23
656.422	686.23
656.454	211.23
656.487	64.23
656.52	24.23
656.552	7.23
656.585	1.23
656.618	12.23
656.65	25.23
656.683	-6.77
656.716	16.23
656.748	0.23
656.781	4.23
656.814	8.23
656.846	3.23
656.879	-5.77
656.912	4.23
656.944	-0.77
656.977	-1.77
657.01	1.23
657.042	8.23
657.075	2.23
657.108	-1.77
657.14	3.23
657.173	0.23
657.205	13.23
657.238	11.23
657.271	-3.77
657.303	-10.77
657.336	9.23
657.369	4.23
657.401	9.23
657.434	-8.77
657.466	9.23
657.499	0.23
657.532	1.23
657.564	10.23
657.597	-10.77
657.629	5.23
657.662	1.23
657.694	14.23
657.727	-8.77
657.76	2.23
657.792	-11.77
657.825	5.23
657.857	0.23
657.89	-9.77
657.922	1.23
657.955	-24.77
657.987	7.23
658.02	4.23
658.053	9.23
658.085	5.23
658.118	23.23
658.15	8.23
658.183	24.23
658.215	1.23
658.248	9.23
658.28	0.23
658.313	21.23
658.345	-1.77
658.378	-0.77
658.41	4.23
658.443	14.23
658.475	1.23
658.508	-7.77
658.54	-7.77
658.573	-8.77
658.605	2.23
658.638	-6.77
658.67	5.23
658.703	10.23
658.735	-1.77
658.768	-6.77
658.8	-4.77
658.833	22.23
658.865	8.23
658.898	-10.77
658.93	-2.77
658.963	-2.77
658.995	-24.77
659.028	-2.77
659.06	-4.77
659.092	-4.77
659.125	-21.77
659.157	5.23
659.19	-14.77
659.222	-17.77
659.255	-0.77
659.287	0.23
659.32	0.23
659.352	0.23
659.384	3.23
659.417	0.23
659.449	4.23
659.482	16.23
659.514	-6.77
659.546	-6.77
659.579	-11.77
659.611	2.23
659.644	-3.77
659.676	-3.77
659.708	9.23
659.741	-5.77
659.773	-7.77
659.806	4.23
659.838	-4.77
659.87	-7.77
659.903	-3.77
659.935	12.23
659.967	-6.77
660	-0.77
660.032	-20.77
660.065	9.23
660.097	-4.77
660.129	-13.77
660.162	-7.77
660.194	9.23
660.226	7.23
660.259	14.23
660.291	-4.77
660.323	8.23
660.356	-10.77
660.388	-12.77
660.42	12.23
660.453	-0.77
660.485	-2.77
660.517	14.23
660.55	8.23
660.582	11.23
660.614	10.23
660.647	8.23
660.679	-9.77
660.711	1.23
660.743	-20.77
660.776	-9.77
660.808	-1.77
660.84	9.23
660.873	4.23
660.905	-0.77
660.937	14.23
660.969	0.23
661.002	7.23
661.034	4.23
661.066	1.23
661.099	-1.77
661.131	12.23
661.163	10.23
661.195	-7.77
661.228	16.23
661.26	-10.77
661.292	-4.77
661.324	5.23
661.357	2.23
661.389	22.23
661.421	15.23
661.453	-8.77
661.485	-2.77
661.518	-0.77
661.55	-6.77
661.582	-11.77
661.614	4.23
661.647	10.23
661.679	8.23
661.711	25.23
661.743	13.23
661.775	8.23
661.808	7.23
661.84	-2.77
661.872	7.23
661.904	2.23
661.936	-2.77
661.969	-5.77
662.001	-0.77
662.033	-4.77
662.065	12.23
662.097	18.23
662.129	22.23
662.162	-8.77
662.194	-4.77
662.226	9.23
662.258	6.23
662.29	1.23
662.322	-6.77
662.355	-8.77
662.387	22.23
662.419	3.23
662.451	-3.77
662.483	3.23
662.515	2.23
662.547	2.23
662.58	1.23
662.612	-4.77
662.644	-10.77
662.676	-9.77
662.708	12.23
662.74	1.23
662.772	-6.77
662.804	-3.77
662.836	-14.77
662.869	-3.77
662.901	9.23
662.933	-4.77
662.965	19.23
662.997	-0.77
663.029	-10.77
663.061	2.23
663.093	4.23
663.125	-4.77
663.157	16.23
663.189	-0.77
663.221	12.23
663.254	-2.77
663.286	-6.77
663.318	-9.77
663.35	6.23
663.382	10.23
663.414	9.23
663.446	-4.77
663.478	-1.77
663.51	12.23
663.542	-7.77
663.574	-3.77
663.606	-0.77
663.638	-6.77
663.67	-10.77
663.702	-19.77
663.734	-5.77
663.766	6.23
663.798	1.23
663.83	3.23
663.862	10.23
663.894	8.23
663.926	-2.77
663.958	8.23
663.99	2.23
664.022	-22.77
664.054	0.23
664.086	-11.77
664.118	0.23
664.15	-5.77
664.182	-12.77
664.214	-7.77
664.246	8.23
664.278	2.23
664.31	4.23
664.342	-3.77
664.374	-1.77
664.406	2.23
664.438	-13.77
664.47	7.23
664.502	-2.77
664.534	-9.77
664.566	-25.77
664.598	4.23
664.63	1.23
664.662	4.23
664.693	-3.77
664.725	-0.77
664.757	4.23
664.789	-7.77
664.821	5.23
664.853	6.23
664.885	7.23
664.917	13.23
664.949	12.23
664.981	20.23
665.013	-2.77
665.045	6.23
665.076	-5.77
665.108	10.23
665.14	-2.77
665.172	-15.77
665.204	-15.77
665.236	-6.77
665.268	7.23
665.3	-4.77
665.331	6.23
665.363	0.23
665.395	-7.77
665.427	-6.77
665.459	-15.77
665.491	3.23
665.523	-1.77
665.555	-7.77
665.586	-3.77
665.618	-6.77
665.65	5.23
665.682	11.23
665.714	1.23
665.746	-5.77
665.777	1.23
665.809	-8.77
665.841	-8.77
665.873	4.23
665.905	4.23
665.937	9.23
665.968	12.23
666	-18.77
666.032	5.23
666.064	-7.77
666.096	0.23
666.127	10.23
666.159	21.23
666.191	8.23
666.223	8.23
666.255	-5.77
666.286	12.23
666.318	-15.77
666.35	8.23
666.382	4.23
666.413	-10.77
666.445	-7.77
666.477	3.23
666.509	-7.77
666.54	-0.77
666.572	-8.77
666.604	-6.77
666.636	-9.77
666.667	17.23
666.699	9.23
666.731	0.23
666.763	-9.77
666.794	-1.77
666.826	12.23
666.858	-17.77
666.89	26.23
666.921	-15.77
666.953	-2.77
666.985	-5.77
667.017	26.23
667.048	1.23
667.08	13.23
667.112	-1.77
667.143	-11.77
667.175	24.23
667.207	12.23
667.238	5.23
667.27	18.23
667.302	10.23
667.334	14.23
667.365	26.23
667.397	3.23
667.429	-5.77
667.46	14.23
667.492	2.23
667.524	-13.77
667.555	-0.77
667.587	2.23
667.619	-7.77
667.65	-0.77
667.682	5.23
667.714	-8.77
667.745	5.23
667.777	6.23
667.808	7.23
667.84	20.23
667.872	10.23
667.903	21.23
667.935	-5.77
667.967	-15.77
667.998	10.23
668.03	-9.77
668.061	-1.77
668.093	-9.77
668.125	-5.77
668.156	0.23
668.188	-6.77
668.22	-15.77
668.251	16.23
668.283	13.23
668.314	5.23
668.346	-0.77
668.377	4.23
668.409	3.23
668.441	13.23
668.472	1.23
668.504	7.23
668.535	8.23
668.567	5.23
668.599	1.23
668.63	-5.77
668.662	-10.77
668.693	21.23
668.725	8.23
668.756	0.23
668.788	-7.77
668.819	7.23
668.851	0.23
668.882	2.23
668.914	-1.77
668.946	-7.77
668.977	-20.77
669.009	-15.77
669.04	0.23
669.072	28.23
669.103	17.23
669.135	-3.77
669.166	-0.77
669.198	-2.77
669.229	-4.77
669.261	-17.77
669.292	-7.77
669.324	4.23
669.355	12.23
669.387	-1.77
669.418	1.23
669.45	7.23
669.481	1.23
669.513	1.23
669.544	4.23
669.576	9.23
669.607	16.23
669.639	14.23
669.67	-23.77
669.701	8.23
669.733	-9.77
669.764	-0.77
669.796	-6.77
669.827	-8.77
669.859	-6.77
669.89	-0.77
669.922	5.23
669.953	22.23
669.985	12.23
670.016	8.23
670.047	4.23
670.079	-9.77
670.11	10.23
670.142	8.23
670.173	18.23
670.204	4.23
670.236	-1.77
670.267	-8.77
670.299	5.23
670.33	-2.77
670.362	8.23
670.393	-4.77
670.424	3.23
670.456	9.23
670.487	10.23
670.518	0.23
670.55	3.23
670.581	4.23
670.613	3.23
670.644	-5.77
670.675	-1.77
670.707	-3.77
670.738	-13.77
670.769	-13.77
670.801	-7.77
670.832	3.23
670.864	3.23
670.895	6.23
670.926	-15.77
670.958	-3.77
670.989	14.23
671.02	-9.77
671.052	8.23
671.083	2.23
671.114	1.23
671.146	4.23
671.177	21.23
671.208	-4.77
671.24	-1.77
671.271	0.23
671.302	8.23
671.333	-12.77
671.365	-10.77
671.396	-17.77
671.427	-1.77
671.459	-0.77
671.49	7.23
671.521	11.23
671.553	9.23
671.584	6.23
671.615	-3.77
671.646	-3.77
671.678	4.23
671.709	-16.77
671.74	-20.77
671.771	3.23
671.803	0.23
671.834	5.23
671.865	11.23
671.896	4.23
671.928	9.23
671.959	-4.77
671.99	-8.77
672.021	5.23
672.053	-5.77
672.084	1.23
672.115	5.23
672.146	1.23
672.178	-4.77
672.209	7.23
672.24	11.23
672.271	30.23
672.303	4.23
672.334	0.23
672.365	-7.77
672.396	1.23
672.427	6.23
672.459	14.23
672.49	39.23
672.521	14.23
672.552	2.23
672.583	10.23
672.615	-1.77
672.646	12.23
672.677	0.23
672.708	0.23
672.739	-9.77
672.77	32.23
672.802	-3.77
672.833	-4.77
672.864	-1.77
672.895	-17.77
672.926	-2.77
672.957	-2.77
672.989	-10.77
673.02	17.23
673.051	-8.77
673.082	18.23
673.113	6.23
673.144	11.23
673.175	21.23
673.206	-3.77
673.238	-5.77
673.269	5.23
673.3	4.23
673.331	4.23
673.362	5.23
673.393	-0.77
673.424	23.23
673.455	13.23
673.487	3.23
673.518	17.23
673.549	4.23
673.58	6.23
673.611	4.23
673.642	-12.77
673.673	-18.77
673.704	1.23
673.735	-7.77
673.766	4.23
673.797	-2.77
673.828	6.23
673.86	4.23
673.891	2.23
673.922	-1.77
673.953	-4.77
673.984	11.23
674.015	12.23
674.046	-7.77
674.077	8.23
674.108	-3.77
674.139	-22.77
674.17	16.23
674.201	-4.77
674.232	-3.77
674.263	-9.77
674.294	-15.77
674.325	2.23
674.356	-0.77
674.387	13.23
674.418	8.23
674.449	-2.77
674.48	0.23
674.511	6.23
674.542	7.23
674.573	1.23
674.604	11.23
674.635	-0.77
674.666	8.23
674.697	13.23
674.728	-1.77
674.759	6.23
674.79	0.23
674.821	-21.77
674.852	-3.77
674.883	-10.77
674.914	1.23
674.945	-2.77
674.976	11.23
675.007	4.23
675.038	-2.77
675.069	-17.77
675.1	-7.77
675.131	3.23
675.162	1.23
675.193	-8.77
675.224	8.23
675.254	11.23
675.285	11.23
675.316	-2.77
675.347	22.23
675.378	-10.77
675.409	-12.77
675.44	9.23
675.471	-0.77
675.502	8.23
675.533	3.23
675.564	-6.77
675.595	7.23
675.625	22.23
675.656	12.23
675.687	16.23
675.718	10.23
675.749	19.23
675.78	-14.77
675.811	-1.77
675.842	2.23
675.873	8.23
675.903	-4.77
675.934	4.23
675.965	15.23
675.996	1.23
676.027	3.23
676.058	-11.77
676.089	-7.77
676.119	1.23
676.15	-4.77
676.181	-1.77
676.212	13.23
676.243	23.23
676.274	7.23
676.304	17.23
676.335	-7.77
676.366	4.23
676.397	-7.77
676.428	7.23
676.459	-8.77
676.489	8.23
676.52	20.23
676.551	-3.77
676.582	-19.77
676.613	7.23
676.643	-14.77
676.674	13.23
676.705	-6.77
676.736	7.23
676.767	25.23
676.797	8.23
676.828	2.23
676.859	-2.77
676.89	-0.77
676.92	16.23
676.951	-0.77
676.982	-1.77
677.013	-1.77
677.044	21.23
677.074	-6.77
677.105	-8.77
677.136	2.23
677.167	13.23
677.197	25.23
677.228	-3.77
677.259	2.23
677.289	-7.77
677.32	-10.77
677.351	-9.77
677.382	5.23
677.412	1.23
677.443	12.23
677.474	-1.77
677.505	-0.77
677.535	-0.77
677.566	-0.77
677.597	-8.77
677.627	-11.77
677.658	-7.77
677.689	0.23
677.72	3.23
677.75	15.23
677.781	13.23
677.812	-4.77
677.842	-3.77
677.873	-6.77
677.904	8.23
677.934	4.23
677.965	-0.77
677.996	-0.77
678.026	0.23
678.057	17.23
678.088	6.23
678.118	3.23
678.149	-18.77
678.18	-2.77
678.21	8.23
678.241	-9.77
678.272	-19.77
678.302	-1.77
678.333	12.23
678.363	8.23
678.394	0.23
678.425	7.23
678.455	10.23
678.486	6.23
678.517	-10.77
678.547	-1.77
678.578	-5.77
678.608	-22.77
678.639	11.23
678.67	1.23
678.7	3.23
678.731	14.23
678.761	-1.77
678.792	-4.77
678.823	-10.77
678.853	3.23
678.884	-7.77
678.914	10.23
678.945	1.23
678.975	-0.77
679.006	-2.77
679.037	-13.77
679.067	17.23
679.098	2.23
679.128	-5.77
679.159	-15.77
679.189	-7.77
679.22	-5.77
679.25	-3.77
679.281	-15.77
679.312	11.23
679.342	2.23
679.373	14.23
679.403	7.23
679.434	2.23
679.464	-2.77
679.495	3.23
679.525	8.23
679.556	-17.77
679.586	3.23
679.617	-0.77
679.647	7.23
679.678	5.23
679.708	-2.77
679.739	-9.77
679.769	-2.77
679.8	2.23
679.83	12.23
679.861	7.23
679.891	-2.77
679.922	-8.77
679.952	0.23
679.983	0.23
680.013	3.23
680.044	-11.77
680.074	18.23
680.105	17.23
680.135	5.23
680.165	11.23
680.196	9.23
680.226	5.23
680.257	9.23
680.287	-10.77
680.318	5.23
680.348	-5.77
680.379	17.23
680.409	8.23
680.439	-4.77
680.47	11.23
680.5	3.23
680.531	12.23
680.561	7.23
680.592	-5.77
680.622	31.23
680.652	-12.77
680.683	6.23
680.713	5.23
680.744	1.23
680.774	-20.77
680.804	8.23
680.835	-5.77
680.865	-2.77
680.896	11.23
680.926	11.23
680.956	-0.77
680.987	-12.77
681.017	-5.77
681.047	6.23
681.078	-8.77
681.108	-2.77
681.139	5.23
681.169	7.23
681.199	6.23
681.23	16.23
681.26	0.23
681.29	8.23
681.321	5.23
681.351	-2.77
681.381	-3.77
681.412	6.23
681.442	2.23
681.472	9.23
681.503	-1.77
681.533	7.23
681.563	-0.77
681.594	-4.77
681.624	16.23
681.654	-2.77
681.685	-7.77
681.715	-8.77
681.745	5.23
681.775	-10.77
681.806	-5.77
681.836	-1.77
681.866	-5.77
681.897	-4.77
681.927	-9.77
681.957	-14.77
681.987	-10.77
682.018	10.23
682.048	13.23
682.078	15.23
682.109	17.23
682.139	6.23
682.169	7.23
682.199	-8.77
682.23	-15.77
682.26	8.23
682.29	1.23
682.32	3.23
682.351	-20.77
682.381	-7.77
682.411	-18.77
682.441	3.23
682.472	-15.77
682.502	3.23
682.532	-4.77
682.562	7.23
682.592	3.23
682.623	-0.77
682.653	-18.77
682.683	-1.77
682.713	10.23
682.743	13.23
682.774	17.23
682.804	20.23
682.834	9.23
682.864	-8.77
682.894	6.23
682.925	-15.77
682.955	-8.77
682.985	0.23
683.015	9.23
683.045	15.23
683.076	-3.77
683.106	1.23
683.136	-12.77
683.166	-3.77
683.196	-0.77
683.226	-7.77
683.257	-3.77
683.287	-9.77
683.317	3.23
683.347	5.23
683.377	-3.77
683.407	5.23
683.437	24.23
683.468	12.23
683.498	13.23
683.528	8.23
683.558	6.23
683.588	6.23
683.618	1.23
683.648	6.23
683.678	10.23
683.708	5.23
683.739	-2.77
683.769	-6.77
683.799	-4.77
683.829	-2.77
683.859	8.23
683.889	0.23
683.919	-13.77
683.949	4.23
683.979	-3.77
684.009	-10.77
684.039	-6.77
684.07	2.23
684.1	6.23
684.13	-8.77
684.16	5.23
684.19	2.23
684.22	1.23
684.25	6.23
684.28	-7.77
684.31	3.23
684.34	14.23
684.37	10.23
684.4	-12.77
684.43	-0.77
684.46	10.23
684.49	12.23
684.52	12.23
684.55	30.23
684.58	5.23
684.61	18.23
684.64	18.23
684.67	-2.77
684.7	-3.77
684.73	6.23
684.76	4.23
684.79	16.23
684.82	8.23
684.85	-2.77
684.88	12.23
684.91	-5.77
684.94	5.23
684.97	-9.77
685	-4.77
685.03	-20.77
685.06	-5.77
685.09	3.23
685.12	15.23
685.15	-7.77
685.18	11.23
685.21	13.23
685.24	14.23
685.27	9.23
685.3	-1.77
685.33	4.23
685.36	4.23
685.39	-0.77
685.42	5.23
685.45	-1.77
685.48	-2.77
685.51	-11.77
685.54	14.23
685.569	9.23
685.599	9.23
685.629	5.23
685.659	-7.77
685.689	17.23
685.719	-0.77
685.749	-7.77
685.779	3.23
685.809	1.23
685.839	-6.77
685.869	15.23
685.898	10.23
685.928	3.23
685.958	-3.77
685.988	2.23
686.018	12.23
686.048	3.23
686.078	3.23
686.108	7.23
686.137	3.23
686.167	17.23
686.197	-13.77
686.227	6.23
686.257	32.23
686.287	12.23
686.317	1.23
686.346	-4.77
686.376	-16.77
686.406	-22.77
686.436	6.23
686.466	4.23
686.496	3.23
686.525	13.23
686.555	-17.77
686.585	11.23
686.615	14.23
686.645	5.23
686.675	-9.77
686.704	14.23
686.734	16.23
686.764	0.23
686.794	-8.77
686.824	2.23
686.853	22.23
686.883	17.23
686.913	15.23
686.943	10.23
686.973	0.23
687.002	12.23
687.032	5.23
687.062	7.23
687.092	1.23
687.121	-11.77
687.151	-14.77
687.181	-0.77
687.211	13.23
687.24	12.23
687.27	0.23
687.3	-10.77
687.33	7.23
687.359	-7.77
687.389	0.23
687.419	10.23
687.449	7.23
687.478	10.23
687.508	-1.77
687.538	9.23
687.568	1.23
687.597	-7.77
687.627	7.23
687.657	-2.77
687.686	7.23
687.716	16.23
687.746	-9.77
687.776	1.23
687.805	7.23
687.835	2.23
687.865	15.23
687.894	2.23
687.924	2.23
687.954	7.23
687.983	8.23
688.013	-1.77
688.043	-3.77
688.072	-4.77
688.102	5.23
688.132	13.23
688.161	9.23
688.191	-0.77
688.221	14.23
688.25	-10.77
688.28	5.23
688.31	10.23
688.339	7.23
688.369	0.23
688.399	1.23
688.428	8.23
688.458	2.23
688.488	5.23
688.517	4.23
688.547	1.23
688.576	36.23
688.606	22.23
688.636	-0.77
688.665	7.23
688.695	20.23
688.725	17.23
688.754	9.23
688.784	4.23
688.813	12.23
688.843	3.23
688.873	-3.77
688.902	-4.77
688.932	-4.77
688.961	15.23
688.991	16.23
689.02	15.23
689.05	-6.77
689.08	8.23
689.109	16.23
689.139	-1.77
689.168	10.23
689.198	4.23
689.227	-8.77
689.257	3.23
689.287	15.23
689.316	-4.77
689.346	-0.77
689.375	-9.77
689.405	-10.77
689.434	-15.77
689.464	13.23
689.493	3.23
689.523	-0.77
689.552	-7.77
689.582	-9.77
689.611	-0.77
689.641	9.23
689.67	1.23
689.7	10.23
689.73	-0.77
689.759	3.23
689.789	12.23
689.818	11.23
689.848	-3.77
689.877	18.23
689.906	-7.77
689.936	5.23
689.965	6.23
689.995	3.23
690.024	4.23
690.054	7.23
690.083	-15.77
690.113	-15.77
690.142	0.23
690.172	-1.77
690.201	-3.77
690.231	-7.77
690.26	15.23
690.29	-7.77
690.319	-10.77
690.348	-7.77
690.378	14.23
690.407	7.23
690.437	1.23
690.466	0.23
690.496	8.23
690.525	1.23
690.555	-4.77
690.584	-1.77
690.613	0.23
690.643	5.23
690.672	8.23
690.702	5.23
690.731	-1.77
690.76	16.23
690.79	-0.77
690.819	11.23
690.849	2.23
690.878	-15.77
690.907	-15.77
690.937	15.23
690.966	3.23
690.996	-11.77
691.025	-3.77
691.054	11.23
691.084	-6.77
691.113	-1.77
691.142	12.23
691.172	16.23
691.201	11.23
691.23	-5.77
691.26	6.23
691.289	1.23
691.319	1.23
691.348	0.23
691.377	17.23
691.407	5.23
691.436	3.23
691.465	11.23
691.495	13.23
691.524	-3.77
691.553	3.23
691.583	5.23
691.612	22.23
691.641	7.23
691.67	4.23
691.7	3.23
691.729	-6.77
691.758	-5.77
691.788	-18.77
691.817	-0.77
691.846	-15.77
691.876	7.23
691.905	3.23
691.934	7.23
691.963	13.23
691.993	13.23
692.022	3.23
692.051	8.23
692.081	3.23
692.11	22.23
692.139	7.23
692.168	-6.77
692.198	7.23
692.227	17.23
692.256	6.23
692.285	4.23
692.315	11.23
692.344	-7.77
692.373	4.23
692.402	-6.77
692.432	4.23
692.461	4.23
692.49	0.23
692.519	3.23
692.548	4.23
692.578	9.23
692.607	-7.77
692.636	6.23
692.665	15.23
692.694	-6.77
692.724	13.23
692.753	5.23
692.782	16.23
692.811	-3.77
692.84	12.23
692.87	7.23
692.899	7.23
692.928	8.23
692.957	5.23
692.986	0.23
693.016	-9.77
693.045	11.23
693.074	-3.77
693.103	4.23
693.132	2.23
693.161	15.23
693.191	-9.77
693.22	-15.77
693.249	-14.77
693.278	-4.77
693.307	11.23
693.336	-17.77
693.365	-12.77
693.395	-2.77
693.424	17.23
693.453	12.23
693.482	-3.77
693.511	10.23
693.54	16.23
693.569	17.23
693.598	7.23
693.628	24.23
693.657	15.23
693.686	24.23
693.715	14.23
693.744	18.23
693.773	17.23
693.802	10.23
693.831	11.23
693.86	19.23
693.889	-6.77
693.919	13.23
693.948	5.23
693.977	9.23
694.006	9.23
694.035	4.23
694.064	-10.77
694.093	4.23
694.122	12.23
694.151	-5.77
694.18	-0.77
694.209	35.23
694.238	3.23
694.267	13.23
694.296	19.23
694.325	-5.77
694.354	5.23
694.383	-23.77
694.412	-2.77
694.441	1.23
694.471	-15.77
694.5	-5.77
694.529	20.23
694.558	16.23
694.587	24.23
694.616	8.23
694.645	6.23
694.674	20.23
694.703	17.23
694.732	11.23
694.761	25.23
694.79	18.23
694.819	-6.77
694.848	6.23
694.877	9.23
694.906	19.23
694.935	2.23
694.963	25.23
694.992	13.23
695.021	8.23
695.05	-3.77
695.079	1.23
695.108	19.23
695.137	27.23
695.166	0.23
695.195	-10.77
695.224	6.23
695.253	14.23
695.282	7.23
695.311	7.23
695.34	1.23
695.369	5.23
695.398	10.23
695.427	30.23
695.456	5.23
695.485	9.23
695.513	6.23
695.542	-5.77
695.571	1.23
695.6	7.23
695.629	7.23
695.658	4.23
695.687	8.23
695.716	12.23
695.745	28.23
695.774	5.23
695.802	9.23
695.831	0.23
695.86	4.23
695.889	-1.77
695.918	15.23
695.947	0.23
695.976	13.23
696.005	7.23
696.033	-4.77
696.062	20.23
696.091	-0.77
696.12	1.23
696.149	23.23
696.178	14.23
696.207	4.23
696.235	-14.77
696.264	-0.77
696.293	0.23
696.322	0.23
696.351	6.23
696.38	-2.77
696.408	3.23
696.437	-4.77
696.466	-0.77
696.495	-3.77
696.524	9.23
696.553	6.23
696.581	10.23
696.61	17.23
696.639	3.23
696.668	-7.77
696.697	-2.77
696.725	-9.77
696.754	23.23
696.783	-0.77
696.812	7.23
696.84	12.23
696.869	8.23
696.898	1.23
696.927	1.23
696.956	8.23
696.984	-6.77
697.013	-6.77
697.042	-5.77
697.071	9.23
697.099	-2.77
697.128	6.23
697.157	5.23
697.186	7.23
697.214	-3.77
697.243	6.23
697.272	5.23
697.301	9.23
697.329	9.23
697.358	12.23
697.387	21.23
697.415	21.23
697.444	2.23
697.473	-7.77
697.502	-15.77
697.53	8.23
697.559	4.23
697.588	18.23
697.616	8.23
697.645	-3.77
697.674	9.23
697.703	0.23
697.731	25.23
697.76	16.23
697.789	4.23
697.817	-4.77
697.846	12.23
697.875	12.23
697.903	27.23
697.932	6.23
697.961	8.23
697.989	19.23
698.018	-5.77
698.047	1.23
698.075	8.23
698.104	-2.77
698.133	1.23
698.161	-5.77
698.19	3.23
698.218	7.23
698.247	6.23
698.276	-4.77
698.304	11.23
698.333	13.23
698.362	6.23
698.39	5.23
698.419	5.23
698.447	10.23
698.476	2.23
698.505	1.23
698.533	21.23
698.562	13.23
698.591	-9.77
698.619	15.23
698.648	16.23
698.676	20.23
698.705	7.23
698.733	-8.77
698.762	-4.77
698.791	5.23
698.819	5.23
698.848	1.23
698.876	13.23
698.905	20.23
698.933	16.23
698.962	3.23
698.991	-3.77
699.019	11.23
699.048	7.23
699.076	11.23
699.105	-2.77
699.133	-14.77
699.162	-4.77
699.19	25.23
699.219	8.23
699.248	-10.77
699.276	-10.77
699.305	-12.77
699.333	11.23
699.362	17.23
699.39	8.23
699.419	0.23
699.447	7.23
699.476	19.23
699.504	5.23
699.533	14.23
699.561	11.23
699.59	15.23
699.618	-8.77
699.647	6.23
699.675	5.23
699.704	14.23
699.732	4.23
699.761	-0.77
699.789	3.23
699.818	1.23
699.846	6.23
699.874	3.23
699.903	11.23
699.931	3.23
699.96	21.23
699.988	-4.77
700.017	4.23
700.045	3.23
700.074	-10.77
700.102	1.23
700.13	-9.77
700.159	4.23
700.187	13.23
700.216	8.23
700.244	-12.77
700.273	-9.77
700.301	-3.77
700.329	16.23
700.358	14.23
700.386	7.23
700.415	7.23
700.443	7.23
700.472	8.23
700.5	4.23
700.528	4.23
700.557	27.23
700.585	16.23
700.614	8.23
700.642	13.23
700.67	10.23
700.699	14.23
700.727	-7.77
700.755	0.23
700.784	3.23
700.812	2.23
700.841	0.23
700.869	15.23
700.897	1.23
700.926	-12.77
700.954	14.23
700.982	25.23
701.011	16.23
701.039	9.23
701.067	4.23
701.096	-0.77
701.124	-3.77
701.152	11.23
701.181	8.23
701.209	-12.77
701.237	3.23
701.266	-6.77
701.294	-10.77
701.322	5.23
701.351	13.23
701.379	3.23
701.407	-0.77
701.435	-11.77
701.464	-0.77
701.492	27.23
701.52	6.23
701.549	2.23
701.577	-10.77
701.605	2.23
701.634	9.23
701.662	13.23
701.69	5.23
701.718	-2.77
701.747	11.23
701.775	-4.77
701.803	-0.77
701.831	11.23
701.86	6.23
701.888	3.23
701.916	0.23
701.944	8.23
701.973	-1.77
702.001	-26.77
702.029	-13.77
702.057	-4.77
702.086	-4.77
702.114	-7.77
702.142	2.23
702.17	-7.77
702.199	3.23
702.227	12.23
702.255	4.23
702.283	-3.77
702.311	-6.77
702.34	1.23
702.368	1.23
702.396	4.23
702.424	8.23
702.452	-6.77
702.481	-5.77
702.509	-6.77
702.537	0.23
702.565	2.23
702.593	-19.77
702.621	-2.77
702.65	20.23
702.678	3.23
702.706	22.23
702.734	-3.77
702.762	0.23
702.79	1.23
702.819	11.23
702.847	-5.77
702.875	-1.77
702.903	21.23
702.931	0.23
702.959	8.23
702.988	4.23
703.016	-21.77
703.044	-1.77
703.072	-0.77
703.1	-1.77
703.128	-1.77
703.156	-5.77
703.184	-4.77
703.212	1.23
703.241	9.23
703.269	7.23
703.297	1.23
703.325	9.23
703.353	-6.77
703.381	7.23
703.409	-2.77
703.437	-26.77
703.465	-11.77
703.493	-0.77
703.522	0.23
703.55	9.23
703.578	14.23
703.606	0.23
703.634	6.23
703.662	-19.77
703.69	-2.77
703.718	1.23
703.746	12.23
703.774	16.23
703.802	14.23
703.83	12.23
703.858	9.23
703.886	0.23
703.914	11.23
703.942	20.23
703.97	-7.77
703.998	-1.77
704.027	17.23
704.055	22.23
704.083	4.23
704.111	4.23
704.139	-0.77
704.167	-0.77
704.195	8.23
704.223	3.23
704.251	23.23
704.279	-0.77
704.307	-15.77
704.335	-14.77
704.363	4.23
704.391	-11.77
704.419	2.23
704.447	14.23
704.475	2.23
704.503	-11.77
704.531	5.23
704.558	0.23
704.586	5.23
704.614	3.23
704.642	-2.77
704.67	-3.77
704.698	5.23
704.726	-1.77
704.754	-0.77
704.782	14.23
704.81	-2.77
704.838	31.23
704.866	15.23
704.894	9.23
704.922	11.23
704.95	8.23
704.978	4.23
705.006	-0.77
705.034	13.23
705.061	-3.77
705.089	-5.77
705.117	-15.77
705.145	-1.77
705.173	5.23
705.201	-2.77
705.229	7.23
705.257	4.23
705.285	3.23
705.313	4.23
705.34	-10.77
705.368	-1.77
705.396	7.23
705.424	4.23
705.452	1.23
705.48	-5.77
705.508	-1.77
705.536	4.23
705.563	1.23
705.591	18.23
705.619	7.23
705.647	-8.77
705.675	5.23
705.703	2.23
705.731	12.23
705.758	-0.77
705.786	-10.77
705.814	14.23
705.842	11.23
705.87	14.23
705.898	9.23
705.925	-4.77
705.953	4.23
705.981	-6.77
706.009	7.23
706.037	9.23
706.065	9.23
706.092	1.23
706.12	6.23
706.148	-10.77
706.176	-7.77
706.204	6.23
706.231	4.23
706.259	4.23
706.287	6.23
706.315	9.23
706.342	0.23
706.37	0.23
706.398	-1.77
706.426	-8.77
706.454	-10.77
706.481	16.23
706.509	-2.77
706.537	-9.77
706.565	2.23
706.592	6.23
706.62	-7.77
706.648	18.23
706.676	-4.77
706.703	6.23
706.731	-4.77
706.759	-5.77
706.787	4.23
706.814	-4.77
706.842	5.23
706.87	17.23
706.897	-7.77
706.925	0.23
706.953	5.23
706.981	16.23
707.008	-0.77
707.036	13.23
707.064	2.23
707.091	-7.77
707.119	20.23
707.147	-1.77
707.174	-10.77
707.202	4.23
707.23	-1.77
707.258	2.23
707.285	-21.77
707.313	-2.77
707.341	-1.77
707.368	-16.77
707.396	-12.77
707.424	14.23
707.451	3.23
707.479	8.23
707.507	9.23
707.534	-5.77
707.562	6.23
707.59	-8.77
707.617	3.23
707.645	-2.77
707.672	4.23
707.7	-5.77
707.728	-1.77
707.755	-0.77
707.783	13.23
707.811	11.23
707.838	-17.77
707.866	-4.77
707.893	-6.77
707.921	-18.77
707.949	0.23
707.976	7.23
708.004	8.23
708.031	11.23
708.059	5.23
708.087	3.23
708.114	-11.77
708.142	-0.77
708.169	-4.77
708.197	-8.77
708.225	-0.77
708.252	-8.77
708.28	8.23
708.307	-1.77
708.335	0.23
708.362	-4.77
708.39	4.23
708.418	3.23
708.445	-11.77
708.473	-17.77
708.5	-3.77
708.528	4.23
708.555	-0.77
708.583	6.23
708.61	-1.77
708.638	-0.77
708.665	-3.77
708.693	4.23
708.72	4.23
708.748	-9.77
708.776	7.23
708.803	15.23
708.831	2.23
708.858	7.23
708.886	-6.77
708.913	8.23
708.941	-3.77
708.968	15.23
708.996	26.23
709.023	29.23
709.051	8.23
709.078	1.23
709.105	5.23
709.133	-0.77
709.16	-11.77
709.188	18.23
709.215	-5.77
709.243	-5.77
709.27	-22.77
709.298	1.23
709.325	-8.77
709.353	2.23
709.38	0.23
709.408	0.23
709.435	1.23
709.462	-2.77
709.49	6.23
709.517	7.23
709.545	-3.77
709.572	-2.77
709.6	-5.77
709.627	6.23
709.655	-0.77
709.682	-1.77
709.709	-7.77
709.737	5.23
709.764	3.23
709.792	13.23
709.819	-15.77
709.846	-11.77
709.874	-7.77
709.901	1.23
709.929	10.23
709.956	10.23
709.983	-9.77
710.011	1.23
710.038	-10.77
710.066	1.23
710.093	15.23
710.12	6.23
710.148	-4.77
710.175	-6.77
710.202	-3.77
710.23	7.23
710.257	-2.77
710.284	7.23
710.312	-10.77
710.339	4.23
710.366	-7.77
710.394	-3.77
710.421	-4.77
710.448	-1.77
710.476	-6.77
710.503	19.23
710.53	0.23
710.558	14.23
710.585	4.23
710.612	-19.77
710.64	7.23
710.667	-8.77
710.694	-19.77
710.722	7.23
710.749	7.23
710.776	-9.77
710.804	15.23
710.831	-4.77
710.858	0.23
710.885	7.23
710.913	6.23
710.94	16.23
710.967	13.23
710.995	7.23
711.022	0.23
711.049	5.23
711.076	-10.77
711.104	3.23
711.131	-20.77
711.158	15.23
711.185	-1.77
711.213	1.23
711.24	-5.77
711.267	0.23
711.294	11.23
711.322	-0.77
711.349	-6.77
711.376	-8.77
711.403	5.23
711.431	7.23
711.458	-6.77
711.485	4.23
711.512	2.23
711.54	-4.77
711.567	1.23
711.594	-7.77
711.621	-11.77
711.648	5.23
711.676	0.23
711.703	4.23
711.73	1.23
711.757	11.23
711.784	5.23
711.812	9.23
711.839	-0.77
711.866	-7.77
711.893	-19.77
711.92	-4.77
711.947	6.23
711.975	11.23
712.002	9.23
712.029	6.23
712.056	4.23
712.083	18.23
712.11	-5.77
712.138	5.23
712.165	3.23
712.192	-2.77
712.219	-9.77
712.246	-15.77
712.273	-8.77
712.3	-8.77
712.328	-1.77
712.355	-5.77
712.382	-11.77
712.409	7.23
712.436	7.23
712.463	21.23
712.49	0.23
712.517	12.23
712.544	-4.77
712.572	0.23
712.599	-16.77
712.626	-4.77
712.653	-4.77
712.68	-4.77
712.707	7.23
712.734	4.23
712.761	-5.77
712.788	-0.77
712.815	13.23
712.842	11.23
712.87	-6.77
712.897	-1.77
712.924	-24.77
712.951	6.23
712.978	11.23
713.005	10.23
713.032	23.23
713.059	6.23
713.086	8.23
713.113	1.23
713.14	-20.77
713.167	21.23
713.194	13.23
713.221	15.23
713.248	14.23
713.275	-0.77
713.302	-4.77
713.329	12.23
713.356	14.23
713.383	2.23
713.41	10.23
713.437	-10.77
713.464	9.23
713.491	0.23
713.518	14.23
713.545	3.23
713.572	9.23
713.599	9.23
713.626	4.23
713.653	2.23
713.68	-6.77
713.707	-6.77
713.734	14.23
713.761	1.23
713.788	-9.77
713.815	3.23
713.842	5.23
713.869	5.23
713.896	9.23
713.923	0.23
713.95	-5.77
713.977	-5.77
714.004	2.23
714.031	0.23
714.058	-8.77
714.085	-2.77
714.112	19.23
714.139	-17.77
714.165	4.23
714.192	0.23
714.219	5.23
714.246	20.23
714.273	-7.77
714.3	-4.77
714.327	24.23
714.354	7.23
714.381	-11.77
714.408	-0.77
714.435	4.23
714.461	-4.77
714.488	16.23
714.515	3.23
714.542	6.23
714.569	8.23
714.596	-23.77
714.623	-0.77
714.65	6.23
714.677	20.23
714.703	0.23
714.73	7.23
714.757	0.23
714.784	3.23
714.811	-12.77
714.838	-5.77
714.865	0.23
714.891	17.23
714.918	3.23
714.945	-7.77
714.972	1.23
714.999	4.23
715.026	-11.77
715.052	17.23
715.079	-11.77
715.106	-1.77
715.133	-1.77
715.16	-1.77
715.187	1.23
715.213	0.23
715.24	-4.77
715.267	1.23
715.294	-9.77
715.321	-10.77
715.347	-4.77
715.374	-9.77
715.401	15.23
715.428	4.23
715.455	13.23
715.481	-3.77
715.508	0.23
715.535	13.23
715.562	33.23
715.588	11.23
715.615	15.23
715.642	22.23
715.669	16.23
715.695	-22.77
715.722	-5.77
715.749	3.23
715.776	6.23
715.802	-10.77
715.829	7.23
715.856	-10.77
715.883	7.23
715.909	-9.77
715.936	-4.77
715.963	-2.77
715.99	-15.77
716.016	-2.77
716.043	12.23
716.07	0.23
716.096	-8.77
716.123	13.23
716.15	4.23
716.177	-0.77
716.203	1.23
716.23	15.23
716.257	7.23
716.283	9.23
716.31	4.23
716.337	7.23
716.363	16.23
716.39	-3.77
716.417	-8.77
716.443	0.23
716.47	-2.77
716.497	14.23
716.523	13.23
716.55	11.23
716.577	6.23
716.603	1.23
716.63	-8.77
716.657	10.23
716.683	-3.77
716.71	2.23
716.737	-8.77
716.763	15.23
716.79	4.23
716.817	8.23
716.843	14.23
716.87	9.23
716.897	-4.77
716.923	12.23
716.95	7.23
716.976	7.23
717.003	-10.77
717.03	6.23
717.056	6.23
717.083	-6.77
717.109	13.23
717.136	15.23
717.163	-0.77
717.189	-1.77
717.216	8.23
717.242	-1.77
717.269	-4.77
717.296	8.23
717.322	8.23
717.349	13.23
717.375	15.23
717.402	9.23
717.428	11.23
717.455	13.23
717.481	2.23
717.508	9.23
717.535	3.23
717.561	-6.77
717.588	0.23
717.614	1.23
717.641	2.23
717.667	6.23
717.694	1.23
717.72	-2.77
717.747	-3.77
717.773	-2.77
717.8	15.23
717.826	8.23
717.853	-4.77
717.88	17.23
717.906	15.23
717.933	14.23
717.959	5.23
717.986	7.23
718.012	1.23
718.039	9.23
718.065	24.23
718.092	7.23
718.118	0.23
718.144	-3.77
718.171	17.23
718.197	24.23
718.224	8.23
718.25	6.23
718.277	17.23
718.303	-2.77
718.33	8.23
718.356	0.23
718.383	-16.77
718.409	-5.77
718.436	7.23
718.462	8.23
718.489	-1.77
718.515	14.23
718.541	24.23
718.568	-0.77
718.594	3.23
718.621	4.23
718.647	7.23
718.674	7.23
718.7	10.23
718.726	2.23
718.753	-2.77
718.779	-3.77
718.806	-5.77
718.832	-21.77
718.858	-7.77
718.885	-2.77
718.911	-13.77
718.938	6.23
718.964	0.23
718.99	9.23
719.017	-4.77
719.043	3.23
719.07	22.23
719.096	7.23
719.122	10.23
719.149	8.23
719.175	-2.77
719.201	8.23
719.228	7.23
719.254	3.23
719.281	-10.77
719.307	0.23
719.333	-2.77
719.36	13.23
719.386	-8.77
719.412	12.23
719.439	-4.77
719.465	0.23
719.491	4.23
719.518	0.23
719.544	3.23
719.57	2.23
719.597	0.23
719.623	-5.77
719.649	4.23
719.675	0.23
719.702	7.23
719.728	9.23
719.754	-5.77
719.781	-0.77
719.807	-1.77
719.833	-10.77
719.86	12.23
719.886	0.23
719.912	-11.77
719.938	-0.77
719.965	-5.77
719.991	17.23
720.017	0.23
720.044	0.23
720.07	8.23
720.096	15.23
720.122	10.23
720.149	-3.77
720.175	32.23
720.201	14.23
720.227	1.23
720.254	20.23
720.28	0.23
720.306	-0.77
720.332	6.23
720.359	1.23
720.385	11.23
720.411	4.23
720.437	15.23
720.463	14.23
720.49	17.23
720.516	-3.77
720.542	-4.77
720.568	6.23
720.595	23.23
720.621	-7.77
720.647	13.23
720.673	9.23
720.699	3.23
720.725	2.23
720.752	15.23
720.778	4.23
720.804	12.23
720.83	3.23
720.856	-6.77
720.883	-0.77
720.909	-6.77
720.935	17.23
720.961	8.23
720.987	1.23
721.013	4.23
721.04	-13.77
721.066	-5.77
721.092	-9.77
721.118	4.23
721.144	4.23
721.17	-5.77
721.196	11.23
721.223	3.23
721.249	-2.77
721.275	40.23
721.301	0.23
721.327	11.23
721.353	19.23
721.379	4.23
721.405	8.23
721.432	17.23
721.458	4.23
721.484	15.23
721.51	4.23
721.536	12.23
721.562	14.23
721.588	4.23
721.614	1.23
721.64	-2.77
721.666	-4.77
721.693	-7.77
721.719	-17.77
721.745	-2.77
721.771	-15.77
721.797	5.23
721.823	1.23
721.849	2.23
721.875	5.23
721.901	5.23
721.927	-3.77
721.953	0.23
721.979	23.23
722.005	20.23
722.031	-18.77
722.057	2.23
722.083	-5.77
722.109	24.23
722.135	16.23
722.161	7.23
722.187	8.23
722.214	12.23
722.24	7.23
722.266	-0.77
722.292	-0.77
722.318	26.23
722.344	-4.77
722.37	7.23
722.396	-0.77
722.422	7.23
722.448	2.23
722.474	-3.77
722.5	15.23
722.526	10.23
722.552	11.23
722.578	-4.77
722.603	15.23
722.629	-3.77
722.655	-0.77
722.681	-6.77
722.707	-1.77
722.733	-7.77
722.759	-12.77
722.785	0.23
722.811	-3.77
722.837	6.23
722.863	13.23
722.889	12.23
722.915	2.23
722.941	3.23
722.967	-7.77
722.993	6.23
723.019	1.23
723.045	15.23
723.071	10.23
723.097	-2.77
723.122	5.23
723.148	11.23
723.174	-1.77
723.2	22.23
723.226	0.23
723.252	6.23
723.278	6.23
723.304	7.23
723.33	18.23
723.356	0.23
723.381	-0.77
723.407	-6.77
723.433	9.23
723.459	7.23
723.485	3.23
723.511	6.23
723.537	-2.77
723.563	11.23
723.588	6.23
723.614	14.23
723.64	8.23
723.666	-4.77
723.692	3.23
723.718	21.23
723.744	-3.77
723.769	1.23
723.795	2.23
723.821	11.23
723.847	3.23
723.873	3.23
723.899	13.23
723.924	-6.77
723.95	-5.77
723.976	-12.77
724.002	1.23
724.028	2.23
724.053	-11.77
724.079	-1.77
724.105	5.23
724.131	-4.77
724.157	-1.77
724.182	7.23
724.208	-3.77
724.234	-4.77
724.26	-5.77
724.286	12.23
724.311	1.23
724.337	-6.77
724.363	-16.77
724.389	-7.77
724.415	-1.77
724.44	12.23
724.466	4.23
724.492	4.23
724.518	19.23
724.543	9.23
724.569	0.23
724.595	-0.77
724.621	-10.77
724.646	-3.77
724.672	-15.77
724.698	4.23
724.723	-2.77
724.749	10.23
724.775	12.23
724.801	19.23
724.826	-3.77
724.852	-9.77
724.878	3.23
724.904	-15.77
724.929	-1.77
724.955	-6.77
724.981	16.23
725.006	-4.77
725.032	-3.77
725.058	5.23
725.083	-1.77
725.109	-0.77
725.135	3.23
725.161	6.23
725.186	6.23
725.212	-5.77
725.238	-3.77
725.263	0.23
725.289	-1.77
725.315	-9.77
725.34	10.23
725.366	13.23
725.392	3.23
725.417	8.23
725.443	16.23
725.468	18.23
725.494	7.23
725.52	15.23
725.545	4.23
725.571	3.23
725.597	11.23
725.622	3.23
725.648	13.23
725.674	-1.77
725.699	-7.77
725.725	-2.77
725.75	11.23
725.776	-9.77
725.802	6.23
725.827	3.23
725.853	5.23
725.878	2.23
725.904	-4.77
725.93	-7.77
725.955	-12.77
725.981	0.23
726.006	-13.77
726.032	12.23
726.057	6.23
726.083	-8.77
726.109	5.23
726.134	-1.77
726.16	8.23
726.185	-11.77
726.211	-9.77
726.236	4.23
726.262	-6.77
726.288	13.23
726.313	14.23
726.339	10.23
726.364	13.23
726.39	9.23
726.415	-2.77
726.441	-5.77
726.466	-6.77
726.492	4.23
726.517	5.23
726.543	2.23
726.568	-7.77
726.594	4.23
726.619	1.23
726.645	-8.77
726.67	14.23
726.696	6.23
726.721	8.23
726.747	-27.77
726.772	-10.77
726.798	20.23
726.823	17.23
726.849	17.23
726.874	6.23
726.9	15.23
726.925	19.23
726.951	-2.77
726.976	0.23
727.002	-8.77
727.027	16.23
727.053	-0.77
727.078	6.23
727.104	4.23
727.129	-12.77
727.155	-3.77
727.18	-7.77
727.205	4.23
727.231	-1.77
727.256	23.23
727.282	5.23
727.307	9.23
727.333	-1.77
727.358	-3.77
727.383	-6.77
727.409	-12.77
727.434	13.23
727.46	7.23
727.485	3.23
727.511	-1.77
727.536	-18.77
727.561	0.23
727.587	6.23
727.612	1.23
727.637	-3.77
727.663	6.23
727.688	31.23
727.714	4.23
727.739	-8.77
727.764	2.23
727.79	4.23
727.815	-0.77
727.841	10.23
727.866	-2.77
727.891	3.23
727.917	5.23
727.942	7.23
727.967	-2.77
727.993	-8.77
728.018	-15.77
728.043	-1.77
728.069	14.23
728.094	23.23
728.119	-4.77
728.145	20.23
728.17	4.23
728.195	5.23
728.221	3.23
728.246	-1.77
728.271	-21.77
728.297	-11.77
728.322	-3.77
728.347	-0.77
728.373	11.23
728.398	9.23
728.423	11.23
728.448	7.23
728.474	10.23
728.499	8.23
728.524	0.23
728.55	-5.77
728.575	-3.77
728.6	-1.77
728.625	-1.77
728.651	12.23
728.676	1.23
728.701	-1.77
728.727	6.23
728.752	-6.77
728.777	-0.77
728.802	-8.77
728.828	9.23
728.853	12.23
728.878	12.23
728.903	8.23
728.929	-0.77
728.954	3.23
728.979	21.23
729.004	1.23
729.03	-5.77
729.055	6.23
729.08	1.23
729.105	-16.77
729.13	12.23
729.156	-1.77
729.181	10.23
729.206	-21.77
729.231	-9.77
729.256	0.23
729.282	1.23
729.307	-6.77
729.332	0.23
729.357	-0.77
729.382	-1.77
729.408	-9.77
729.433	9.23
729.458	4.23
729.483	1.23
729.508	20.23
729.533	4.23
729.559	15.23
729.584	9.23
729.609	0.23
729.634	14.23
729.659	-7.77
729.684	-2.77
729.71	14.23
729.735	7.23
729.76	11.23
729.785	-1.77
729.81	-4.77
729.835	-11.77
729.86	-3.77
729.886	-0.77
729.911	8.23
729.936	4.23
729.961	16.23
729.986	-15.77
730.011	3.23
730.036	-7.77
730.061	-7.77
730.086	8.23
730.112	-7.77
730.137	20.23
730.162	7.23
730.187	-3.77
730.212	2.23
730.237	8.23
730.262	4.23
730.287	4.23
730.312	9.23
730.337	-3.77
730.362	0.23
730.387	5.23
730.413	-8.77
730.438	2.23
730.463	3.23
730.488	5.23
730.513	6.23
730.538	8.23
730.563	26.23
730.588	12.23
730.613	8.23
730.638	13.23
730.663	4.23
730.688	9.23
730.713	16.23
730.738	11.23
730.763	6.23
730.788	-3.77
730.813	8.23
730.838	3.23
730.863	17.23
730.888	-0.77
730.913	-8.77
730.938	-0.77
730.963	-8.77
730.988	0.23
731.013	19.23
731.038	-1.77
731.063	-14.77
731.088	-2.77
731.113	-9.77
731.138	7.23
731.163	3.23
731.188	2.23
731.213	6.23
731.238	7.23
731.263	2.23
731.288	-6.77
731.313	5.23
731.338	-2.77
731.363	5.23
731.388	3.23
731.413	-0.77
731.438	23.23
731.463	11.23
731.487	3.23
731.512	0.23
731.537	-12.77
731.562	-6.77
731.587	13.23
731.612	13.23
731.637	-12.77
731.662	4.23
731.687	3.23
731.712	-9.77
731.737	13.23
731.762	8.23
731.786	12.23
731.811	13.23
731.836	8.23
731.861	15.23
731.886	5.23
731.911	2.23
731.936	8.23
731.961	-0.77
731.986	7.23
732.01	5.23
732.035	-1.77
732.06	21.23
732.085	-14.77
732.11	0.23
732.135	-10.77
732.16	-0.77
732.184	13.23
732.209	8.23
732.234	4.23
732.259	5.23
732.284	22.23
732.309	5.23
732.334	3.23
732.358	-24.77
732.383	-7.77
732.408	-13.77
732.433	4.23
732.458	2.23
732.482	13.23
732.507	11.23
732.532	-10.77
732.557	4.23
732.582	2.23
732.607	4.23
732.631	-1.77
732.656	-15.77
732.681	1.23
732.706	-2.77
732.73	9.23
732.755	-6.77
732.78	-0.77
732.805	14.23
732.83	-2.77
732.854	5.23
732.879	14.23
732.904	5.23
732.929	-2.77
732.953	3.23
732.978	-5.77
733.003	-6.77
733.028	-2.77
733.052	6.23
733.077	3.23
733.102	-2.77
733.127	-10.77
733.151	-0.77
733.176	12.23
733.201	16.23
733.226	15.23
733.25	7.23
733.275	14.23
733.3	-1.77
733.324	4.23
733.349	0.23
733.374	20.23
733.399	-1.77
733.423	3.23
733.448	5.23
733.473	-0.77
733.497	3.23
733.522	6.23
733.547	5.23
733.571	7.23
733.596	15.23
733.621	11.23
733.646	9.23
733.67	-1.77
733.695	-18.77
733.72	12.23
733.744	13.23
733.769	7.23
733.794	15.23
733.818	-6.77
733.843	-4.77
733.867	-11.77
733.892	-12.77
733.917	-6.77
733.941	-1.77
733.966	3.23
733.991	5.23
734.015	11.23
734.04	7.23
734.065	6.23
734.089	6.23
734.114	-0.77
734.138	-1.77
734.163	-3.77
734.188	16.23
734.212	19.23
734.237	22.23
734.261	20.23
734.286	10.23
734.311	5.23
734.335	-3.77
734.36	0.23
734.384	1.23
734.409	3.23
734.434	-7.77
734.458	-2.77
734.483	4.23
734.507	2.23
734.532	15.23
734.556	8.23
734.581	-4.77
734.606	12.23
734.63	-14.77
734.655	11.23
734.679	5.23
734.704	17.23
734.728	-2.77
734.753	-1.77
734.777	6.23
734.802	5.23
734.826	3.23
734.851	20.23
734.876	10.23
734.9	12.23
734.925	11.23
734.949	3.23
734.974	-4.77
734.998	5.23
735.023	-9.77
735.047	3.23
735.072	27.23
735.096	10.23
735.121	19.23
735.145	15.23
735.17	1.23
735.194	-0.77
735.219	0.23
735.243	-8.77
735.268	-10.77
735.292	2.23
735.317	12.23
735.341	-1.77
735.365	-2.77
735.39	8.23
735.414	8.23
735.439	4.23
735.463	11.23
735.488	13.23
735.512	3.23
735.537	15.23
735.561	-4.77
735.586	3.23
735.61	0.23
735.634	-15.77
735.659	15.23
735.683	14.23
735.708	-3.77
735.732	-9.77
735.757	-0.77
735.781	1.23
735.805	-2.77
735.83	-2.77
735.854	1.23
735.879	1.23
735.903	9.23
735.927	12.23
735.952	4.23
735.976	-2.77
736.001	0.23
736.025	-5.77
736.049	-6.77
736.074	5.23
736.098	14.23
736.123	4.23
736.147	-6.77
736.171	-1.77
736.196	5.23
736.22	-8.77
736.244	8.23
736.269	1.23
736.293	-7.77
736.317	11.23
736.342	20.23
736.366	24.23
736.39	24.23
736.415	8.23
736.439	-9.77
736.463	5.23
736.488	8.23
736.512	5.23
736.536	-2.77
736.561	10.23
736.585	1.23
736.609	13.23
736.634	-8.77
736.658	12.23
736.682	-4.77
736.707	-5.77
736.731	-0.77
736.755	1.23
736.78	20.23
736.804	10.23
736.828	11.23
736.852	-0.77
736.877	-3.77
736.901	10.23
736.925	8.23
736.949	16.23
736.974	-1.77
736.998	-0.77
737.022	-0.77
737.047	-11.77
737.071	0.23
737.095	13.23
737.119	10.23
737.144	9.23
737.168	-12.77
737.192	-3.77
737.216	2.23
737.241	0.23
737.265	-1.77
737.289	10.23
737.313	6.23
737.337	-1.77
737.362	-0.77
737.386	-4.77
737.41	-0.77
737.434	10.23
737.459	-2.77
737.483	6.23
737.507	11.23
737.531	37.23
737.555	22.23
737.58	21.23
737.604	14.23
737.628	10.23
737.652	8.23
737.676	-5.77
737.701	3.23
737.725	-3.77
737.749	2.23
737.773	9.23
737.797	-10.77
737.821	3.23
737.846	4.23
737.87	28.23
737.894	5.23
737.918	7.23
737.942	0.23
737.966	11.23
737.99	-3.77
738.015	-11.77
738.039	-1.77
738.063	-2.77
738.087	2.23
738.111	1.23
738.135	13.23
738.159	-5.77
738.184	3.23
738.208	7.23
738.232	-2.77
738.256	23.23
738.28	7.23
738.304	3.23
738.328	1.23
738.352	14.23
738.376	-2.77
738.4	-0.77
738.425	5.23
738.449	-6.77
738.473	7.23
738.497	8.23
738.521	10.23
738.545	-1.77
738.569	8.23
738.593	9.23
738.617	14.23
738.641	-4.77
738.665	0.23
738.689	3.23
738.713	-1.77
738.737	10.23
738.762	21.23
738.786	14.23
738.81	-9.77
738.834	9.23
738.858	4.23
738.882	10.23
738.906	0.23
738.93	5.23
738.954	8.23
738.978	12.23
739.002	-3.77
739.026	0.23
739.05	10.23
739.074	-5.77
739.098	20.23
739.122	20.23
739.146	17.23
739.17	19.23
739.194	7.23
739.218	-1.77
739.242	-1.77
739.266	11.23
739.29	12.23
739.314	13.23
739.338	10.23
739.362	-6.77
739.386	0.23
739.41	-14.77
739.434	-0.77
739.458	29.23
739.482	0.23
739.506	-0.77
739.53	-3.77
739.554	19.23
739.577	13.23
739.601	8.23
739.625	-4.77
739.649	4.23
739.673	2.23
739.697	13.23
739.721	5.23
739.745	4.23
739.769	22.23
739.793	14.23
739.817	20.23
739.841	-6.77
739.865	-2.77
739.889	-1.77
739.912	6.23
739.936	-3.77
739.96	4.23
739.984	16.23
740.008	-4.77
740.032	-11.77
740.056	3.23
740.08	-6.77
740.104	-7.77
740.127	3.23
740.151	1.23
740.175	23.23
740.199	8.23
740.223	43.23
740.247	0.23
740.271	-11.77
740.295	-0.77
740.318	4.23
740.342	-0.77
740.366	12.23
740.39	17.23
740.414	10.23
740.438	-8.77
740.461	14.23
740.485	3.23
740.509	9.23
740.533	19.23
740.557	0.23
740.581	15.23
740.604	0.23
740.628	8.23
740.652	27.23
740.676	8.23
740.7	5.23
740.723	1.23
740.747	3.23
740.771	1.23
740.795	-2.77
740.819	10.23
740.842	14.23
740.866	9.23
740.89	15.23
740.914	3.23
740.938	-20.77
740.961	10.23
740.985	5.23
741.009	-10.77
741.033	13.23
741.056	-4.77
741.08	3.23
741.104	-8.77
741.128	0.23
741.151	0.23
741.175	7.23
741.199	10.23
741.223	10.23
741.246	-2.77
741.27	3.23
741.294	-0.77
741.318	5.23
741.341	-6.77
741.365	1.23
741.389	0.23
741.413	-2.77
741.436	17.23
741.46	15.23
741.484	23.23
741.507	4.23
741.531	27.23
741.555	10.23
741.579	4.23
741.602	6.23
741.626	13.23
741.65	-6.77
741.673	-3.77
741.697	4.23
741.721	-4.77
741.744	-28.77
741.768	-5.77
741.792	3.23
741.815	1.23
741.839	17.23
741.863	22.23
741.886	11.23
741.91	1.23
741.934	0.23
741.957	-12.77
741.981	15.23
742.005	15.23
742.028	0.23
742.052	-3.77
742.075	5.23
742.099	23.23
742.123	12.23
742.146	12.23
742.17	9.23
742.194	1.23
742.217	-4.77
742.241	-3.77
742.264	3.23
742.288	15.23
742.312	1.23
742.335	7.23
742.359	-1.77
742.382	5.23
742.406	23.23
742.43	-8.77
742.453	8.23
742.477	-1.77
742.5	12.23
742.524	-8.77
742.548	-1.77
742.571	7.23
742.595	-3.77
742.618	-2.77
742.642	-0.77
742.665	23.23
742.689	-7.77
742.712	10.23
742.736	5.23
742.76	8.23
742.783	7.23
742.807	13.23
742.83	18.23
742.854	-5.77
742.877	3.23
742.901	-5.77
742.924	-0.77
742.948	3.23
742.971	0.23
742.995	1.23
743.018	-10.77
743.042	12.23
743.065	14.23
743.089	-1.77
743.112	20.23
743.136	5.23
743.159	3.23
743.183	-7.77
743.206	10.23
743.23	-4.77
743.253	-1.77
743.277	0.23
743.3	-0.77
743.324	-12.77
743.347	-0.77
743.371	23.23
743.394	12.23
743.418	30.23
743.441	29.23
743.465	8.23
743.488	6.23
743.512	4.23
743.535	7.23
743.558	5.23
743.582	-2.77
743.605	-3.77
743.629	-1.77
743.652	15.23
743.676	8.23
743.699	-7.77
743.723	-3.77
743.746	3.23
743.769	5.23
743.793	-1.77
743.816	4.23
743.84	23.23
743.863	-4.77
743.886	5.23
743.91	14.23
743.933	2.23
743.957	4.23
743.98	0.23
744.003	0.23
744.027	22.23
744.05	6.23
744.074	10.23
744.097	-9.77
744.12	5.23
744.144	-12.77
744.167	4.23
744.19	-0.77
744.214	6.23
744.237	-15.77
744.26	7.23
744.284	0.23
744.307	-17.77
744.331	-5.77
744.354	-3.77
744.377	-5.77
744.401	-1.77
744.424	0.23
744.447	-8.77
744.471	-16.77
