Data from HighRes_H2D2_15_04_11_07_2024_HR4C61891__12__15-05-35-643.txt Node

Date: Thu Nov 07 15:05:35 EST 2024
User: crc00042
Spectrometer: HR4C6189
Trigger mode: 4
Integration Time (sec): 1.000000E-1
Scans to average: 1
Electric dark correction enabled: true
Nonlinearity correction enabled: false
Boxcar width: 0
XAxis mode: Wavelengths
Number of Pixels in Spectrum: 3648
>>>>>Begin Spectral Data<<<<<
639.567	-75.46
639.602	-75.46
639.636	-75.46
639.67	-50.46
639.704	-11.46
639.738	-8.46
639.773	8.54
639.807	-10.46
639.841	7.54
639.875	7.54
639.909	-3.46
639.943	1.54
639.978	-0.46
640.012	-0.46
640.046	8.54
640.08	7.54
640.114	-4.46
640.148	-13.46
640.182	-13.46
640.217	15.54
640.251	31.54
640.285	20.54
640.319	-15.46
640.353	2.54
640.387	12.54
640.421	-10.46
640.455	6.54
640.49	-2.46
640.524	-4.46
640.558	7.54
640.592	-7.46
640.626	-6.46
640.66	11.54
640.694	-16.46
640.728	17.54
640.762	10.54
640.796	19.54
640.83	15.54
640.865	-2.46
640.899	-0.46
640.933	-11.46
640.967	5.54
641.001	10.54
641.035	-0.46
641.069	-4.46
641.103	1.54
641.137	-2.46
641.171	-9.46
641.205	13.54
641.239	2.54
641.273	19.54
641.307	0.54
641.341	0.54
641.375	6.54
641.409	-2.46
641.443	-2.46
641.477	-0.46
641.511	7.54
641.545	-9.46
641.579	-8.46
641.614	3.54
641.648	8.54
641.682	-10.46
641.716	26.54
641.75	14.54
641.784	16.54
641.818	6.54
641.852	0.54
641.886	0.54
641.919	30.54
641.953	-3.46
641.987	1.54
642.021	-12.46
642.055	7.54
642.089	1.54
642.123	2.54
642.157	-6.46
642.191	-3.46
642.225	15.54
642.259	-1.46
642.293	10.54
642.327	-1.46
642.361	-5.46
642.395	7.54
642.429	11.54
642.463	18.54
642.497	23.54
642.531	6.54
642.565	5.54
642.599	7.54
642.633	18.54
642.666	7.54
642.7	20.54
642.734	5.54
642.768	-11.46
642.802	6.54
642.836	8.54
642.87	-23.46
642.904	11.54
642.938	6.54
642.972	-3.46
643.005	1.54
643.039	19.54
643.073	6.54
643.107	11.54
643.141	14.54
643.175	2.54
643.209	-5.46
643.243	15.54
643.276	-0.46
643.31	-2.46
643.344	-3.46
643.378	-5.46
643.412	5.54
643.446	7.54
643.48	-5.46
643.513	12.54
643.547	6.54
643.581	-2.46
643.615	1.54
643.649	2.54
643.683	0.54
643.716	13.54
643.75	11.54
643.784	-7.46
643.818	17.54
643.852	-11.46
643.886	10.54
643.919	17.54
643.953	-1.46
643.987	-7.46
644.021	16.54
644.055	5.54
644.088	-7.46
644.122	-12.46
644.156	-8.46
644.19	8.54
644.224	6.54
644.257	6.54
644.291	11.54
644.325	7.54
644.359	7.54
644.392	10.54
644.426	8.54
644.46	-8.46
644.494	2.54
644.527	-4.46
644.561	4.54
644.595	4.54
644.629	7.54
644.662	0.54
644.696	17.54
644.73	9.54
644.764	-6.46
644.797	-5.46
644.831	7.54
644.865	11.54
644.899	0.54
644.932	40.54
644.966	9.54
645	14.54
645.033	-1.46
645.067	-6.46
645.101	1.54
645.135	-3.46
645.168	-13.46
645.202	-17.46
645.236	3.54
645.269	17.54
645.303	1.54
645.337	-7.46
645.37	-15.46
645.404	-3.46
645.438	6.54
645.471	-0.46
645.505	11.54
645.539	11.54
645.572	3.54
645.606	-2.46
645.64	6.54
645.673	-3.46
645.707	10.54
645.741	-3.46
645.774	-10.46
645.808	10.54
645.842	-18.46
645.875	-4.46
645.909	-6.46
645.943	-9.46
645.976	-8.46
646.01	1.54
646.043	-0.46
646.077	14.54
646.111	20.54
646.144	37.54
646.178	12.54
646.212	-18.46
646.245	5.54
646.279	8.54
646.312	2.54
646.346	8.54
646.38	-14.46
646.413	8.54
646.447	2.54
646.48	-6.46
646.514	10.54
646.547	-4.46
646.581	-4.46
646.615	11.54
646.648	-12.46
646.682	4.54
646.715	-0.46
646.749	-1.46
646.782	-8.46
646.816	-0.46
646.85	20.54
646.883	-6.46
646.917	5.54
646.95	-1.46
646.984	1.54
647.017	6.54
647.051	-5.46
647.084	6.54
647.118	0.54
647.151	6.54
647.185	-7.46
647.218	-8.46
647.252	15.54
647.285	6.54
647.319	-19.46
647.353	-0.46
647.386	25.54
647.42	5.54
647.453	-10.46
647.487	-0.46
647.52	6.54
647.553	10.54
647.587	-6.46
647.62	2.54
647.654	2.54
647.687	4.54
647.721	0.54
647.754	8.54
647.788	0.54
647.821	5.54
647.855	6.54
647.888	-2.46
647.922	12.54
647.955	-2.46
647.989	9.54
648.022	-4.46
648.055	1.54
648.089	-10.46
648.122	17.54
648.156	0.54
648.189	3.54
648.223	12.54
648.256	16.54
648.29	-2.46
648.323	-10.46
648.356	6.54
648.39	4.54
648.423	6.54
648.457	-7.46
648.49	10.54
648.523	4.54
648.557	-0.46
648.59	-6.46
648.624	-8.46
648.657	-2.46
648.69	14.54
648.724	11.54
648.757	7.54
648.791	5.54
648.824	16.54
648.857	23.54
648.891	-4.46
648.924	20.54
648.957	7.54
648.991	2.54
649.024	8.54
649.057	-13.46
649.091	-0.46
649.124	14.54
649.158	11.54
649.191	16.54
649.224	9.54
649.258	3.54
649.291	-14.46
649.324	-9.46
649.358	2.54
649.391	13.54
649.424	17.54
649.458	-0.46
649.491	-6.46
649.524	-9.46
649.557	-13.46
649.591	-6.46
649.624	5.54
649.657	-5.46
649.691	-7.46
649.724	5.54
649.757	17.54
649.791	2.54
649.824	14.54
649.857	13.54
649.89	2.54
649.924	-6.46
649.957	-13.46
649.99	-8.46
650.023	-5.46
650.057	-1.46
650.09	13.54
650.123	-1.46
650.157	27.54
650.19	3.54
650.223	7.54
650.256	-7.46
650.29	-1.46
650.323	7.54
650.356	10.54
650.389	7.54
650.423	1.54
650.456	4.54
650.489	4.54
650.522	-4.46
650.555	7.54
650.589	12.54
650.622	5.54
650.655	18.54
650.688	7.54
650.721	4.54
650.755	-3.46
650.788	9.54
650.821	5.54
650.854	11.54
650.887	-7.46
650.921	2.54
650.954	-3.46
650.987	6.54
651.02	-3.46
651.053	-17.46
651.087	-19.46
651.12	11.54
651.153	12.54
651.186	4.54
651.219	-20.46
651.252	10.54
651.286	5.54
651.319	-15.46
651.352	0.54
651.385	-0.46
651.418	1.54
651.451	17.54
651.484	15.54
651.518	-1.46
651.551	31.54
651.584	-7.46
651.617	11.54
651.65	14.54
651.683	7.54
651.716	-6.46
651.749	-1.46
651.783	-25.46
651.816	-1.46
651.849	11.54
651.882	-4.46
651.915	-6.46
651.948	10.54
651.981	8.54
652.014	-5.46
652.047	-6.46
652.08	-14.46
652.114	-4.46
652.147	-8.46
652.18	14.54
652.213	38.54
652.246	11.54
652.279	-5.46
652.312	20.54
652.345	9.54
652.378	2.54
652.411	24.54
652.444	10.54
652.477	10.54
652.51	-7.46
652.543	-8.46
652.576	16.54
652.609	-3.46
652.642	5.54
652.675	16.54
652.709	2.54
652.742	13.54
652.775	-0.46
652.808	22.54
652.841	6.54
652.874	8.54
652.907	3.54
652.94	3.54
652.973	-3.46
653.006	-10.46
653.039	-0.46
653.072	8.54
653.105	-2.46
653.138	-5.46
653.171	0.54
653.204	-2.46
653.237	-3.46
653.27	-4.46
653.303	12.54
653.336	9.54
653.368	-9.46
653.401	3.54
653.434	12.54
653.467	21.54
653.5	-16.46
653.533	-21.46
653.566	-6.46
653.599	11.54
653.632	-1.46
653.665	6.54
653.698	-23.46
653.731	-11.46
653.764	6.54
653.797	-0.46
653.83	12.54
653.863	-9.46
653.896	0.54
653.929	3.54
653.961	15.54
653.994	7.54
654.027	4.54
654.06	10.54
654.093	-1.46
654.126	8.54
654.159	-3.46
654.192	-7.46
654.225	10.54
654.258	3.54
654.29	2.54
654.323	12.54
654.356	0.54
654.389	10.54
654.422	-4.46
654.455	8.54
654.488	4.54
654.521	-16.46
654.553	-2.46
654.586	19.54
654.619	4.54
654.652	-9.46
654.685	-11.46
654.718	7.54
654.751	-0.46
654.783	1.54
654.816	12.54
654.849	-11.46
654.882	-10.46
654.915	-9.46
654.948	-1.46
654.98	-2.46
655.013	11.54
655.046	0.54
655.079	8.54
655.112	8.54
655.144	5.54
655.177	-0.46
655.21	23.54
655.243	22.54
655.276	0.54
655.308	3.54
655.341	11.54
655.374	14.54
655.407	-0.46
655.44	-3.46
655.472	18.54
655.505	8.54
655.538	-0.46
655.571	24.54
655.603	-0.46
655.636	-13.46
655.669	7.54
655.702	-3.46
655.734	-20.46
655.767	-5.46
655.8	13.54
655.833	8.54
655.865	6.54
655.898	16.54
655.931	20.54
655.964	30.54
655.996	24.54
656.029	21.54
656.062	29.54
656.095	38.54
656.127	96.54
656.16	207.54
656.193	627.54
656.225	981.54
656.258	572.54
656.291	222.54
656.324	201.54
656.356	344.54
656.389	782.54
656.422	684.54
656.454	265.54
656.487	87.54
656.52	50.54
656.552	15.54
656.585	17.54
656.618	14.54
656.65	21.54
656.683	0.54
656.716	4.54
656.748	-12.46
656.781	-10.46
656.814	-11.46
656.846	-1.46
656.879	-8.46
656.912	12.54
656.944	0.54
656.977	-8.46
657.01	-4.46
657.042	0.54
657.075	14.54
657.108	-20.46
657.14	11.54
657.173	14.54
657.205	15.54
657.238	13.54
657.271	12.54
657.303	-16.46
657.336	0.54
657.369	3.54
657.401	-2.46
657.434	3.54
657.466	-4.46
657.499	6.54
657.532	-11.46
657.564	6.54
657.597	-0.46
657.629	13.54
657.662	11.54
657.694	1.54
657.727	-10.46
657.76	9.54
657.792	0.54
657.825	-13.46
657.857	7.54
657.89	6.54
657.922	11.54
657.955	-11.46
657.987	-2.46
658.02	-4.46
658.053	14.54
658.085	16.54
658.118	28.54
658.15	29.54
658.183	23.54
658.215	0.54
658.248	6.54
658.28	-4.46
658.313	25.54
658.345	13.54
658.378	-2.46
658.41	-1.46
658.443	8.54
658.475	10.54
658.508	-8.46
658.54	-9.46
658.573	-1.46
658.605	5.54
658.638	1.54
658.67	-9.46
658.703	1.54
658.735	-21.46
658.768	7.54
658.8	-8.46
658.833	16.54
658.865	5.54
658.898	1.54
658.93	-4.46
658.963	0.54
658.995	-23.46
659.028	2.54
659.06	7.54
659.092	11.54
659.125	2.54
659.157	4.54
659.19	-4.46
659.222	-14.46
659.255	2.54
659.287	5.54
659.32	-1.46
659.352	3.54
659.384	9.54
659.417	8.54
659.449	6.54
659.482	-0.46
659.514	-19.46
659.546	-1.46
659.579	-7.46
659.611	3.54
659.644	0.54
659.676	-5.46
659.708	-10.46
659.741	-11.46
659.773	-14.46
659.806	-7.46
659.838	15.54
659.87	-14.46
659.903	-2.46
659.935	3.54
659.967	6.54
660	-4.46
660.032	-0.46
660.065	12.54
660.097	5.54
660.129	0.54
660.162	-8.46
660.194	8.54
660.226	15.54
660.259	17.54
660.291	8.54
660.323	7.54
660.356	2.54
660.388	5.54
660.42	-4.46
660.453	-5.46
660.485	5.54
660.517	12.54
660.55	7.54
660.582	0.54
660.614	8.54
660.647	3.54
660.679	2.54
660.711	-3.46
660.743	-10.46
660.776	-11.46
660.808	-0.46
660.84	-0.46
660.873	13.54
660.905	4.54
660.937	-1.46
660.969	-5.46
661.002	4.54
661.034	19.54
661.066	-2.46
661.099	13.54
661.131	20.54
661.163	6.54
661.195	-3.46
661.228	12.54
661.26	-3.46
661.292	-7.46
661.324	-2.46
661.357	0.54
661.389	-0.46
661.421	5.54
661.453	-0.46
661.485	0.54
661.518	-8.46
661.55	-16.46
661.582	-27.46
661.614	-6.46
661.647	7.54
661.679	-6.46
661.711	2.54
661.743	-4.46
661.775	16.54
661.808	37.54
661.84	-18.46
661.872	-4.46
661.904	1.54
661.936	-7.46
661.969	-16.46
662.001	-11.46
662.033	-16.46
662.065	-20.46
662.097	9.54
662.129	25.54
662.162	17.54
662.194	12.54
662.226	18.54
662.258	18.54
662.29	4.54
662.322	-2.46
662.355	-23.46
662.387	12.54
662.419	6.54
662.451	-1.46
662.483	6.54
662.515	-10.46
662.547	-5.46
662.58	-9.46
662.612	-2.46
662.644	-3.46
662.676	7.54
662.708	15.54
662.74	10.54
662.772	8.54
662.804	13.54
662.836	17.54
662.869	7.54
662.901	9.54
662.933	3.54
662.965	16.54
662.997	-2.46
663.029	-21.46
663.061	-2.46
663.093	5.54
663.125	0.54
663.157	18.54
663.189	-2.46
663.221	10.54
663.254	4.54
663.286	5.54
663.318	0.54
663.35	4.54
663.382	8.54
663.414	11.54
663.446	6.54
663.478	-3.46
663.51	18.54
663.542	-5.46
663.574	7.54
663.606	-5.46
663.638	-4.46
663.67	1.54
663.702	-6.46
663.734	-8.46
663.766	0.54
663.798	-8.46
663.83	11.54
663.862	3.54
663.894	6.54
663.926	1.54
663.958	0.54
663.99	-25.46
664.022	-1.46
664.054	6.54
664.086	-9.46
664.118	-16.46
664.15	-15.46
664.182	-0.46
664.214	-6.46
664.246	9.54
664.278	9.54
664.31	18.54
664.342	2.54
664.374	6.54
664.406	-6.46
664.438	-3.46
664.47	27.54
664.502	-5.46
664.534	5.54
664.566	-9.46
664.598	26.54
664.63	-6.46
664.662	9.54
664.693	-1.46
664.725	-2.46
664.757	-17.46
664.789	-13.46
664.821	6.54
664.853	7.54
664.885	3.54
664.917	-5.46
664.949	9.54
664.981	14.54
665.013	12.54
665.045	8.54
665.076	-11.46
665.108	-5.46
665.14	1.54
665.172	4.54
665.204	-9.46
665.236	-8.46
665.268	16.54
665.3	-7.46
665.331	-24.46
665.363	7.54
665.395	-4.46
665.427	-6.46
665.459	6.54
665.491	-6.46
665.523	-0.46
665.555	-6.46
665.586	8.54
665.618	-0.46
665.65	-2.46
665.682	-8.46
665.714	6.54
665.746	14.54
665.777	6.54
665.809	3.54
665.841	12.54
665.873	21.54
665.905	-9.46
665.937	14.54
665.968	3.54
666	-6.46
666.032	1.54
666.064	-22.46
666.096	5.54
666.127	4.54
666.159	8.54
666.191	-1.46
666.223	1.54
666.255	6.54
666.286	5.54
666.318	-3.46
666.35	13.54
666.382	13.54
666.413	-4.46
666.445	-21.46
666.477	-3.46
666.509	15.54
666.54	1.54
666.572	-2.46
666.604	6.54
666.636	7.54
666.667	6.54
666.699	6.54
666.731	10.54
666.763	0.54
666.794	7.54
666.826	-2.46
666.858	-13.46
666.89	14.54
666.921	6.54
666.953	-14.46
666.985	20.54
667.017	14.54
667.048	-12.46
667.08	-17.46
667.112	-7.46
667.143	3.54
667.175	6.54
667.207	7.54
667.238	17.54
667.27	12.54
667.302	14.54
667.334	-14.46
667.365	19.54
667.397	-4.46
667.429	-0.46
667.46	6.54
667.492	5.54
667.524	1.54
667.555	-6.46
667.587	-3.46
667.619	-8.46
667.65	0.54
667.682	9.54
667.714	19.54
667.745	21.54
667.777	1.54
667.808	6.54
667.84	18.54
667.872	1.54
667.903	6.54
667.935	-14.46
667.967	-8.46
667.998	-3.46
668.03	-1.46
668.061	-1.46
668.093	10.54
668.125	4.54
668.156	1.54
668.188	-13.46
668.22	-6.46
668.251	17.54
668.283	-1.46
668.314	7.54
668.346	5.54
668.377	-5.46
668.409	-6.46
668.441	8.54
668.472	0.54
668.504	11.54
668.535	16.54
668.567	0.54
668.599	-9.46
668.63	0.54
668.662	-0.46
668.693	13.54
668.725	1.54
668.756	3.54
668.788	4.54
668.819	7.54
668.851	0.54
668.882	-12.46
668.914	0.54
668.946	3.54
668.977	5.54
669.009	-0.46
669.04	-27.46
669.072	6.54
669.103	-1.46
669.135	0.54
669.166	-5.46
669.198	10.54
669.229	5.54
669.261	13.54
669.292	5.54
669.324	1.54
669.355	7.54
669.387	-10.46
669.418	15.54
669.45	-6.46
669.481	9.54
669.513	6.54
669.544	9.54
669.576	-4.46
669.607	27.54
669.639	17.54
669.67	-5.46
669.701	3.54
669.733	-8.46
669.764	-13.46
669.796	2.54
669.827	-1.46
669.859	-3.46
669.89	-1.46
669.922	11.54
669.953	5.54
669.985	12.54
670.016	14.54
670.047	7.54
670.079	11.54
670.11	8.54
670.142	6.54
670.173	1.54
670.204	-5.46
670.236	-2.46
670.267	-4.46
670.299	7.54
670.33	-5.46
670.362	8.54
670.393	-5.46
670.424	11.54
670.456	-13.46
670.487	-7.46
670.518	-11.46
670.55	14.54
670.581	11.54
670.613	25.54
670.644	-6.46
670.675	-6.46
670.707	-5.46
670.738	-2.46
670.769	-3.46
670.801	-10.46
670.832	4.54
670.864	3.54
670.895	16.54
670.926	19.54
670.958	8.54
670.989	8.54
671.02	-8.46
671.052	-4.46
671.083	-4.46
671.114	11.54
671.146	20.54
671.177	-1.46
671.208	1.54
671.24	-5.46
671.271	18.54
671.302	1.54
671.333	-6.46
671.365	-23.46
671.396	-9.46
671.427	20.54
671.459	18.54
671.49	-1.46
671.521	-3.46
671.553	-7.46
671.584	20.54
671.615	15.54
671.646	18.54
671.678	12.54
671.709	-18.46
671.74	-20.46
671.771	-5.46
671.803	-9.46
671.834	-3.46
671.865	2.54
671.896	9.54
671.928	5.54
671.959	-5.46
671.99	4.54
672.021	1.54
672.053	10.54
672.084	15.54
672.115	14.54
672.146	0.54
672.178	0.54
672.209	-8.46
672.24	-0.46
672.271	33.54
672.303	4.54
672.334	-4.46
672.365	-5.46
672.396	-2.46
672.427	8.54
672.459	6.54
672.49	33.54
672.521	13.54
672.552	8.54
672.583	31.54
672.615	14.54
672.646	15.54
672.677	3.54
672.708	15.54
672.739	13.54
672.77	10.54
672.802	-8.46
672.833	-7.46
672.864	2.54
672.895	1.54
672.926	3.54
672.957	-1.46
672.989	3.54
673.02	5.54
673.051	-1.46
673.082	3.54
673.113	1.54
673.144	-5.46
673.175	4.54
673.206	-17.46
673.238	-7.46
673.269	8.54
673.3	10.54
673.331	12.54
673.362	12.54
673.393	12.54
673.424	15.54
673.455	7.54
673.487	7.54
673.518	1.54
673.549	-2.46
673.58	4.54
673.611	8.54
673.642	7.54
673.673	1.54
673.704	4.54
673.735	-17.46
673.766	4.54
673.797	1.54
673.828	1.54
673.86	-6.46
673.891	-23.46
673.922	-10.46
673.953	-6.46
673.984	13.54
674.015	11.54
674.046	7.54
674.077	0.54
674.108	-5.46
674.139	-6.46
674.17	-0.46
674.201	-9.46
674.232	-4.46
674.263	2.54
674.294	-11.46
674.325	-1.46
674.356	7.54
674.387	19.54
674.418	12.54
674.449	5.54
674.48	-6.46
674.511	8.54
674.542	3.54
674.573	-2.46
674.604	2.54
674.635	6.54
674.666	18.54
674.697	8.54
674.728	21.54
674.759	10.54
674.79	-14.46
674.821	13.54
674.852	-2.46
674.883	-6.46
674.914	-7.46
674.945	-0.46
674.976	3.54
675.007	-10.46
675.038	-25.46
675.069	-6.46
675.1	-6.46
675.131	2.54
675.162	-17.46
675.193	-5.46
675.224	3.54
675.254	2.54
675.285	2.54
675.316	12.54
675.347	7.54
675.378	-3.46
675.409	6.54
675.44	16.54
675.471	4.54
675.502	-4.46
675.533	1.54
675.564	13.54
675.595	-2.46
675.625	30.54
675.656	-3.46
675.687	-0.46
675.718	-8.46
675.749	1.54
675.78	18.54
675.811	-15.46
675.842	13.54
675.873	5.54
675.903	5.54
675.934	2.54
675.965	-0.46
675.996	-6.46
676.027	8.54
676.058	-3.46
676.089	-6.46
676.119	-14.46
676.15	-4.46
676.181	2.54
676.212	1.54
676.243	15.54
676.274	-2.46
676.304	15.54
676.335	8.54
676.366	7.54
676.397	-5.46
676.428	-9.46
676.459	1.54
676.489	16.54
676.52	-4.46
676.551	-13.46
676.582	-6.46
676.613	-2.46
676.643	-7.46
676.674	6.54
676.705	1.54
676.736	-10.46
676.767	16.54
676.797	17.54
676.828	9.54
676.859	8.54
676.89	-20.46
676.92	13.54
676.951	18.54
676.982	6.54
677.013	8.54
677.044	14.54
677.074	13.54
677.105	-9.46
677.136	11.54
677.167	3.54
677.197	14.54
677.228	-10.46
677.259	-22.46
677.289	2.54
677.32	-6.46
677.351	10.54
677.382	-3.46
677.412	-6.46
677.443	-23.46
677.474	-2.46
677.505	-10.46
677.535	-3.46
677.566	-9.46
677.597	-16.46
677.627	-2.46
677.658	-0.46
677.689	-0.46
677.72	-2.46
677.75	-9.46
677.781	8.54
677.812	17.54
677.842	-2.46
677.873	5.54
677.904	12.54
677.934	16.54
677.965	5.54
677.996	-3.46
678.026	-0.46
678.057	-5.46
678.088	-19.46
678.118	2.54
678.149	-11.46
678.18	3.54
678.21	8.54
678.241	-3.46
678.272	-7.46
678.302	-3.46
678.333	10.54
678.363	21.54
678.394	15.54
678.425	0.54
678.455	-2.46
678.486	6.54
678.517	6.54
678.547	8.54
678.578	11.54
678.608	-7.46
678.639	-1.46
678.67	6.54
678.7	-1.46
678.731	2.54
678.761	6.54
678.792	16.54
678.823	18.54
678.853	8.54
678.884	-7.46
678.914	-4.46
678.945	1.54
678.975	-15.46
679.006	-11.46
679.037	5.54
679.067	28.54
679.098	-7.46
679.128	-1.46
679.159	-6.46
679.189	4.54
679.22	-9.46
679.25	9.54
679.281	6.54
679.312	-3.46
679.342	17.54
679.373	16.54
679.403	6.54
679.434	11.54
679.464	-5.46
679.495	-6.46
679.525	-1.46
679.556	-9.46
679.586	2.54
679.617	6.54
679.647	0.54
679.678	5.54
679.708	-4.46
679.739	-1.46
679.769	4.54
679.8	0.54
679.83	3.54
679.861	11.54
679.891	-3.46
679.922	-23.46
679.952	9.54
679.983	6.54
680.013	-1.46
680.044	3.54
680.074	11.54
680.105	13.54
680.135	12.54
680.165	15.54
680.196	3.54
680.226	5.54
680.257	9.54
680.287	2.54
680.318	-3.46
680.348	-3.46
680.379	14.54
680.409	11.54
680.439	0.54
680.47	-4.46
680.5	-1.46
680.531	0.54
680.561	8.54
680.592	12.54
680.622	11.54
680.652	0.54
680.683	6.54
680.713	5.54
680.744	-0.46
680.774	-10.46
680.804	6.54
680.835	-15.46
680.865	-22.46
680.896	-4.46
680.926	19.54
680.956	13.54
680.987	13.54
681.017	-10.46
681.047	2.54
681.078	-7.46
681.108	3.54
681.139	-4.46
681.169	3.54
681.199	-10.46
681.23	0.54
681.26	6.54
681.29	7.54
681.321	-22.46
681.351	6.54
681.381	-13.46
681.412	-6.46
681.442	1.54
681.472	25.54
681.503	18.54
681.533	11.54
681.563	-8.46
681.594	4.54
681.624	0.54
681.654	-8.46
681.685	-17.46
681.715	6.54
681.745	14.54
681.775	14.54
681.806	-8.46
681.836	-0.46
681.866	-16.46
681.897	-0.46
681.927	-5.46
681.957	-21.46
681.987	7.54
682.018	-17.46
682.048	6.54
682.078	11.54
682.109	21.54
682.139	7.54
682.169	0.54
682.199	16.54
682.23	-4.46
682.26	5.54
682.29	-11.46
682.32	12.54
682.351	15.54
682.381	9.54
682.411	-12.46
682.441	-11.46
682.472	-25.46
682.502	0.54
682.532	7.54
682.562	-4.46
682.592	-0.46
682.623	9.54
682.653	-3.46
682.683	-8.46
682.713	0.54
682.743	6.54
682.774	7.54
682.804	12.54
682.834	26.54
682.864	9.54
682.894	-12.46
682.925	-13.46
682.955	0.54
682.985	8.54
683.015	4.54
683.045	5.54
683.076	-1.46
683.106	11.54
683.136	7.54
683.166	-5.46
683.196	0.54
683.226	1.54
683.257	-18.46
683.287	-3.46
683.317	-17.46
683.347	-7.46
683.377	-10.46
683.407	-6.46
683.437	-1.46
683.468	11.54
683.498	-0.46
683.528	0.54
683.558	7.54
683.588	-5.46
683.618	10.54
683.648	-10.46
683.678	10.54
683.708	12.54
683.739	23.54
683.769	2.54
683.799	17.54
683.829	-10.46
683.859	6.54
683.889	7.54
683.919	-13.46
683.949	5.54
683.979	0.54
684.009	-9.46
684.039	-0.46
684.07	-11.46
684.1	19.54
684.13	1.54
684.16	0.54
684.19	-14.46
684.22	-3.46
684.25	12.54
684.28	-7.46
684.31	26.54
684.34	-2.46
684.37	12.54
684.4	-0.46
684.43	10.54
684.46	5.54
684.49	13.54
684.52	13.54
684.55	6.54
684.58	2.54
684.61	6.54
684.64	12.54
684.67	14.54
684.7	-9.46
684.73	-4.46
684.76	19.54
684.79	28.54
684.82	13.54
684.85	6.54
684.88	12.54
684.91	-5.46
684.94	-8.46
684.97	-3.46
685	-6.46
685.03	-2.46
685.06	9.54
685.09	9.54
685.12	26.54
685.15	-21.46
685.18	-8.46
685.21	-0.46
685.24	7.54
685.27	19.54
685.3	-10.46
685.33	5.54
685.36	-4.46
685.39	-16.46
685.42	-16.46
685.45	-3.46
685.48	10.54
685.51	6.54
685.54	8.54
685.569	18.54
685.599	-6.46
685.629	16.54
685.659	4.54
685.689	1.54
685.719	2.54
685.749	1.54
685.779	3.54
685.809	9.54
685.839	6.54
685.869	-1.46
685.898	14.54
685.928	-3.46
685.958	-8.46
685.988	1.54
686.018	-1.46
686.048	8.54
686.078	0.54
686.108	15.54
686.137	7.54
686.167	24.54
686.197	-11.46
686.227	-4.46
686.257	26.54
686.287	9.54
686.317	3.54
686.346	-3.46
686.376	-1.46
686.406	-15.46
686.436	7.54
686.466	-2.46
686.496	9.54
686.525	11.54
686.555	-3.46
686.585	32.54
686.615	30.54
686.645	1.54
686.675	5.54
686.704	9.54
686.734	9.54
686.764	3.54
686.794	10.54
686.824	-1.46
686.853	7.54
686.883	19.54
686.913	17.54
686.943	9.54
686.973	-0.46
687.002	2.54
687.032	2.54
687.062	0.54
687.092	15.54
687.121	3.54
687.151	4.54
687.181	5.54
687.211	10.54
687.24	9.54
687.27	-2.46
687.3	-1.46
687.33	1.54
687.359	-6.46
687.389	3.54
687.419	-1.46
687.449	-9.46
687.478	-2.46
687.508	2.54
687.538	9.54
687.568	0.54
687.597	-10.46
687.627	9.54
687.657	-2.46
687.686	12.54
687.716	17.54
687.746	0.54
687.776	-13.46
687.805	19.54
687.835	-2.46
687.865	15.54
687.894	11.54
687.924	6.54
687.954	10.54
687.983	10.54
688.013	3.54
688.043	1.54
688.072	0.54
688.102	13.54
688.132	-0.46
688.161	2.54
688.191	-11.46
688.221	23.54
688.25	3.54
688.28	2.54
688.31	-2.46
688.339	-0.46
688.369	-10.46
688.399	-0.46
688.428	-5.46
688.458	10.54
688.488	-14.46
688.517	11.54
688.547	8.54
688.576	43.54
688.606	14.54
688.636	7.54
688.665	9.54
688.695	3.54
688.725	16.54
688.754	23.54
688.784	18.54
688.813	10.54
688.843	10.54
688.873	1.54
688.902	-1.46
688.932	6.54
688.961	-6.46
688.991	9.54
689.02	10.54
689.05	4.54
689.08	16.54
689.109	17.54
689.139	-0.46
689.168	6.54
689.198	16.54
689.227	-2.46
689.257	14.54
689.287	10.54
689.316	-4.46
689.346	-7.46
689.375	-20.46
689.405	-6.46
689.434	3.54
689.464	0.54
689.493	-19.46
689.523	-9.46
689.552	1.54
689.582	-3.46
689.611	2.54
689.641	0.54
689.67	1.54
689.7	12.54
689.73	26.54
689.759	15.54
689.789	22.54
689.818	4.54
689.848	-6.46
689.877	15.54
689.906	13.54
689.936	10.54
689.965	17.54
689.995	1.54
690.024	9.54
690.054	13.54
690.083	10.54
690.113	-11.46
690.142	-4.46
690.172	-6.46
690.201	-1.46
690.231	-7.46
690.26	7.54
690.29	-2.46
690.319	-0.46
690.348	-1.46
690.378	1.54
690.407	16.54
690.437	-11.46
690.466	-11.46
690.496	-7.46
690.525	7.54
690.555	-12.46
690.584	0.54
690.613	-4.46
690.643	10.54
690.672	5.54
690.702	15.54
690.731	11.54
690.76	9.54
690.79	8.54
690.819	2.54
690.849	8.54
690.878	8.54
690.907	-1.46
690.937	9.54
690.966	10.54
690.996	3.54
691.025	-5.46
691.054	8.54
691.084	5.54
691.113	1.54
691.142	12.54
691.172	13.54
691.201	9.54
691.23	-3.46
691.26	11.54
691.289	12.54
691.319	1.54
691.348	6.54
691.377	9.54
691.407	4.54
691.436	18.54
691.465	0.54
691.495	12.54
691.524	-7.46
691.553	-1.46
691.583	8.54
691.612	19.54
691.641	14.54
691.67	5.54
691.7	9.54
691.729	-9.46
691.758	21.54
691.788	-2.46
691.817	3.54
691.846	-4.46
691.876	-2.46
691.905	-3.46
691.934	-5.46
691.963	22.54
691.993	2.54
692.022	-7.46
692.051	-12.46
692.081	13.54
692.11	22.54
692.139	3.54
692.168	-2.46
692.198	12.54
692.227	8.54
692.256	-0.46
692.285	-13.46
692.315	0.54
692.344	-7.46
692.373	6.54
692.402	-9.46
692.432	-20.46
692.461	-8.46
692.49	3.54
692.519	-10.46
692.548	12.54
692.578	21.54
692.607	15.54
692.636	3.54
692.665	15.54
692.694	-1.46
692.724	-13.46
692.753	-5.46
692.782	9.54
692.811	-5.46
692.84	5.54
692.87	-2.46
692.899	-9.46
692.928	10.54
692.957	-0.46
692.986	-5.46
693.016	-7.46
693.045	2.54
693.074	18.54
693.103	2.54
693.132	6.54
693.161	1.54
693.191	-3.46
693.22	-10.46
693.249	-11.46
693.278	-8.46
693.307	15.54
693.336	-3.46
693.365	-1.46
693.395	5.54
693.424	-0.46
693.453	11.54
693.482	0.54
693.511	1.54
693.54	11.54
693.569	16.54
693.598	7.54
693.628	23.54
693.657	21.54
693.686	10.54
693.715	9.54
693.744	11.54
693.773	6.54
693.802	12.54
693.831	-4.46
693.86	5.54
693.889	-13.46
693.919	-3.46
693.948	8.54
693.977	5.54
694.006	2.54
694.035	10.54
694.064	-2.46
694.093	0.54
694.122	23.54
694.151	-3.46
694.18	0.54
694.209	29.54
694.238	-4.46
694.267	22.54
694.296	13.54
694.325	10.54
694.354	14.54
694.383	3.54
694.412	6.54
694.441	-15.46
694.471	-14.46
694.5	-14.46
694.529	-5.46
694.558	31.54
694.587	11.54
694.616	8.54
694.645	2.54
694.674	13.54
694.703	12.54
694.732	1.54
694.761	13.54
694.79	24.54
694.819	-0.46
694.848	6.54
694.877	24.54
694.906	31.54
694.935	6.54
694.963	8.54
694.992	2.54
695.021	23.54
695.05	19.54
695.079	5.54
695.108	-7.46
695.137	11.54
695.166	9.54
695.195	4.54
695.224	11.54
695.253	6.54
695.282	15.54
695.311	10.54
695.34	16.54
695.369	9.54
695.398	10.54
695.427	11.54
695.456	5.54
695.485	10.54
695.513	-0.46
695.542	4.54
695.571	17.54
695.6	25.54
695.629	-3.46
695.658	16.54
695.687	17.54
695.716	9.54
695.745	33.54
695.774	2.54
695.802	-2.46
695.831	2.54
695.86	5.54
695.889	27.54
695.918	6.54
695.947	-7.46
695.976	22.54
696.005	5.54
696.033	5.54
696.062	22.54
696.091	2.54
696.12	5.54
696.149	12.54
696.178	-4.46
696.207	12.54
696.235	1.54
696.264	5.54
696.293	0.54
696.322	1.54
696.351	10.54
696.38	-3.46
696.408	1.54
696.437	-3.46
696.466	11.54
696.495	-6.46
696.524	26.54
696.553	15.54
696.581	8.54
696.61	-0.46
696.639	-5.46
696.668	10.54
696.697	-9.46
696.725	8.54
696.754	-3.46
696.783	-1.46
696.812	1.54
696.84	11.54
696.869	20.54
696.898	-2.46
696.927	-2.46
696.956	19.54
696.984	6.54
697.013	11.54
697.042	9.54
697.071	1.54
697.099	14.54
697.128	8.54
697.157	18.54
697.186	14.54
697.214	10.54
697.243	1.54
697.272	5.54
697.301	12.54
697.329	20.54
697.358	21.54
697.387	7.54
697.415	12.54
697.444	9.54
697.473	0.54
697.502	-3.46
697.53	10.54
697.559	-5.46
697.588	10.54
697.616	6.54
697.645	3.54
697.674	13.54
697.703	1.54
697.731	16.54
697.76	5.54
697.789	4.54
697.817	13.54
697.846	25.54
697.875	-5.46
697.903	8.54
697.932	10.54
697.961	18.54
697.989	18.54
698.018	14.54
698.047	11.54
698.075	12.54
698.104	2.54
698.133	4.54
698.161	-11.46
698.19	-6.46
698.218	2.54
698.247	23.54
698.276	6.54
698.304	5.54
698.333	11.54
698.362	5.54
698.39	6.54
698.419	0.54
698.447	-2.46
698.476	-9.46
698.505	8.54
698.533	9.54
698.562	7.54
698.591	-3.46
698.619	-6.46
698.648	0.54
698.676	-6.46
698.705	-0.46
698.733	-11.46
698.762	8.54
698.791	4.54
698.819	-2.46
698.848	-14.46
698.876	11.54
698.905	12.54
698.933	5.54
698.962	-8.46
698.991	4.54
699.019	26.54
699.048	14.54
699.076	8.54
699.105	-5.46
699.133	-8.46
699.162	-4.46
699.19	11.54
699.219	10.54
699.248	4.54
699.276	5.54
699.305	-5.46
699.333	16.54
699.362	-4.46
699.39	18.54
699.419	5.54
699.447	1.54
699.476	7.54
699.504	-3.46
699.533	0.54
699.561	-4.46
699.59	-2.46
699.618	-10.46
699.647	6.54
699.675	-4.46
699.704	7.54
699.732	4.54
699.761	10.54
699.789	4.54
699.818	10.54
699.846	2.54
699.874	-2.46
699.903	5.54
699.931	5.54
699.96	1.54
699.988	-2.46
700.017	12.54
700.045	3.54
700.074	5.54
700.102	8.54
700.13	-5.46
700.159	1.54
700.187	5.54
700.216	-3.46
700.244	0.54
700.273	-10.46
700.301	-17.46
700.329	-6.46
700.358	12.54
700.386	-12.46
700.415	2.54
700.443	7.54
700.472	5.54
700.5	3.54
700.528	12.54
700.557	3.54
700.585	7.54
700.614	16.54
700.642	16.54
700.67	18.54
700.699	-1.46
700.727	4.54
700.755	9.54
700.784	8.54
700.812	-2.46
700.841	4.54
700.869	-5.46
700.897	-13.46
700.926	0.54
700.954	2.54
700.982	1.54
701.011	-10.46
701.039	5.54
701.067	3.54
701.096	-8.46
701.124	-19.46
701.152	2.54
701.181	12.54
701.209	-5.46
701.237	6.54
701.266	-11.46
701.294	8.54
701.322	6.54
701.351	-4.46
701.379	-5.46
701.407	0.54
701.435	7.54
701.464	10.54
701.492	19.54
701.52	-3.46
701.549	-2.46
701.577	-5.46
701.605	2.54
701.634	-0.46
701.662	12.54
701.69	-12.46
701.718	-8.46
701.747	12.54
701.775	-10.46
701.803	4.54
701.831	7.54
701.86	-0.46
701.888	20.54
701.916	6.54
701.944	5.54
701.973	6.54
702.001	-3.46
702.029	0.54
702.057	5.54
702.086	-12.46
702.114	-11.46
702.142	-15.46
702.17	-13.46
702.199	11.54
702.227	7.54
702.255	4.54
702.283	-8.46
702.311	18.54
702.34	-2.46
702.368	-1.46
702.396	14.54
702.424	-2.46
702.452	-1.46
702.481	9.54
702.509	-4.46
702.537	10.54
702.565	-4.46
702.593	-14.46
702.621	-7.46
702.65	1.54
702.678	-2.46
702.706	1.54
702.734	1.54
702.762	16.54
702.79	10.54
702.819	7.54
702.847	12.54
702.875	9.54
702.903	9.54
702.931	-16.46
702.959	-1.46
702.988	1.54
703.016	-9.46
703.044	-1.46
703.072	-6.46
703.1	8.54
703.128	-1.46
703.156	12.54
703.184	6.54
703.212	9.54
703.241	-0.46
703.269	-0.46
703.297	-1.46
703.325	4.54
703.353	-9.46
703.381	-6.46
703.409	0.54
703.437	1.54
703.465	-3.46
703.493	-5.46
703.522	8.54
703.55	14.54
703.578	16.54
703.606	6.54
703.634	-7.46
703.662	7.54
703.69	-7.46
703.718	20.54
703.746	15.54
703.774	17.54
703.802	30.54
703.83	-0.46
703.858	4.54
703.886	6.54
703.914	2.54
703.942	17.54
703.97	10.54
703.998	-1.46
704.027	17.54
704.055	6.54
704.083	-6.46
704.111	-5.46
704.139	6.54
704.167	-25.46
704.195	-1.46
704.223	6.54
704.251	-3.46
704.279	-0.46
704.307	0.54
704.335	2.54
704.363	-8.46
704.391	1.54
704.419	0.54
704.447	-13.46
704.475	4.54
704.503	1.54
704.531	8.54
704.558	7.54
704.586	4.54
704.614	-2.46
704.642	2.54
704.67	9.54
704.698	3.54
704.726	8.54
704.754	-2.46
704.782	-8.46
704.81	-0.46
704.838	34.54
704.866	4.54
704.894	-14.46
704.922	-5.46
704.95	17.54
704.978	9.54
705.006	4.54
705.034	13.54
705.061	-4.46
705.089	5.54
705.117	6.54
705.145	7.54
705.173	2.54
705.201	-8.46
705.229	2.54
705.257	2.54
705.285	19.54
705.313	4.54
705.34	1.54
705.368	-9.46
705.396	-4.46
705.424	-4.46
705.452	-4.46
705.48	10.54
705.508	6.54
705.536	14.54
705.563	5.54
705.591	11.54
705.619	7.54
705.647	-6.46
705.675	-0.46
705.703	14.54
705.731	0.54
705.758	-4.46
705.786	4.54
705.814	19.54
705.842	-7.46
705.87	9.54
705.898	5.54
705.925	-8.46
705.953	7.54
705.981	-2.46
706.009	1.54
706.037	3.54
706.065	4.54
706.092	-7.46
706.12	-16.46
706.148	7.54
706.176	15.54
706.204	5.54
706.231	7.54
706.259	5.54
706.287	7.54
706.315	4.54
706.342	1.54
706.37	13.54
706.398	-5.46
706.426	-3.46
706.454	-15.46
706.481	6.54
706.509	12.54
706.537	-4.46
706.565	-9.46
706.592	8.54
706.62	7.54
706.648	14.54
706.676	-1.46
706.703	14.54
706.731	-2.46
706.759	2.54
706.787	8.54
706.814	8.54
706.842	-1.46
706.87	-5.46
706.897	-4.46
706.925	-3.46
706.953	8.54
706.981	19.54
707.008	2.54
707.036	7.54
707.064	0.54
707.091	-11.46
707.119	6.54
707.147	0.54
707.174	5.54
707.202	21.54
707.23	-6.46
707.258	2.54
707.285	4.54
707.313	11.54
707.341	-9.46
707.368	-1.46
707.396	2.54
707.424	9.54
707.451	1.54
707.479	2.54
707.507	-6.46
707.534	-8.46
707.562	-8.46
707.59	-5.46
707.617	-1.46
707.645	-1.46
707.672	13.54
707.7	-10.46
707.728	15.54
707.755	9.54
707.783	3.54
707.811	13.54
707.838	-2.46
707.866	-8.46
707.893	8.54
707.921	-3.46
707.949	-5.46
707.976	9.54
708.004	9.54
708.031	4.54
708.059	-5.46
708.087	-2.46
708.114	3.54
708.142	-7.46
708.169	-3.46
708.197	-10.46
708.225	-7.46
708.252	-24.46
708.28	4.54
708.307	-4.46
708.335	-2.46
708.362	-10.46
708.39	-16.46
708.418	-9.46
708.445	-1.46
708.473	-2.46
708.5	-5.46
708.528	17.54
708.555	-0.46
708.583	-1.46
708.61	9.54
708.638	-3.46
708.665	2.54
708.693	14.54
708.72	12.54
708.748	-5.46
708.776	12.54
708.803	10.54
708.831	0.54
708.858	18.54
708.886	7.54
708.913	9.54
708.941	1.54
708.968	2.54
708.996	2.54
709.023	39.54
709.051	-0.46
709.078	-2.46
709.105	-2.46
709.133	9.54
709.16	-2.46
709.188	4.54
709.215	18.54
709.243	10.54
709.27	4.54
709.298	1.54
709.325	-2.46
709.353	5.54
709.38	11.54
709.408	14.54
709.435	9.54
709.462	12.54
709.49	-7.46
709.517	-6.46
709.545	4.54
709.572	-2.46
709.6	8.54
709.627	5.54
709.655	12.54
709.682	-5.46
709.709	13.54
709.737	-0.46
709.764	0.54
709.792	20.54
709.819	5.54
709.846	-15.46
709.874	3.54
709.901	7.54
709.929	21.54
709.956	1.54
709.983	2.54
710.011	-19.46
710.038	-22.46
710.066	5.54
710.093	8.54
710.12	10.54
710.148	13.54
710.175	3.54
710.202	-13.46
710.23	1.54
710.257	-9.46
710.284	5.54
710.312	-1.46
710.339	4.54
710.366	21.54
710.394	-9.46
710.421	-5.46
710.448	-10.46
710.476	-5.46
710.503	9.54
710.53	2.54
710.558	4.54
710.585	12.54
710.612	-2.46
710.64	-1.46
710.667	-9.46
710.694	-2.46
710.722	20.54
710.749	3.54
710.776	-8.46
710.804	14.54
710.831	6.54
710.858	4.54
710.885	9.54
710.913	8.54
710.94	19.54
710.967	5.54
710.995	16.54
711.022	-3.46
711.049	-2.46
711.076	-16.46
711.104	-1.46
711.131	-10.46
711.158	-1.46
711.185	10.54
711.213	-5.46
711.24	-7.46
711.267	-4.46
711.294	2.54
711.322	6.54
711.349	11.54
711.376	-2.46
711.403	1.54
711.431	3.54
711.458	-1.46
711.485	-6.46
711.512	8.54
711.54	4.54
711.567	-18.46
711.594	5.54
711.621	9.54
711.648	7.54
711.676	6.54
711.703	4.54
711.73	-14.46
711.757	-1.46
711.784	6.54
711.812	-10.46
711.839	-3.46
711.866	7.54
711.893	-9.46
711.92	-13.46
711.947	8.54
711.975	12.54
712.002	7.54
712.029	10.54
712.056	4.54
712.083	0.54
712.11	-3.46
712.138	7.54
712.165	1.54
712.192	6.54
712.219	1.54
712.246	1.54
712.273	-9.46
712.3	-8.46
712.328	-3.46
712.355	12.54
712.382	1.54
712.409	12.54
712.436	-6.46
712.463	4.54
712.49	18.54
712.517	14.54
712.544	6.54
712.572	6.54
712.599	2.54
712.626	15.54
712.653	1.54
712.68	-4.46
712.707	15.54
712.734	0.54
712.761	11.54
712.788	6.54
712.815	4.54
712.842	7.54
712.87	5.54
712.897	-13.46
712.924	-3.46
712.951	4.54
712.978	2.54
713.005	16.54
713.032	-6.46
713.059	-16.46
713.086	-17.46
713.113	-10.46
713.14	-19.46
713.167	9.54
713.194	21.54
713.221	13.54
713.248	12.54
713.275	2.54
713.302	5.54
713.329	-6.46
713.356	4.54
713.383	9.54
713.41	2.54
713.437	-6.46
713.464	9.54
713.491	5.54
713.518	-2.46
713.545	-5.46
713.572	-1.46
713.599	27.54
713.626	14.54
713.653	15.54
713.68	-5.46
713.707	-13.46
713.734	4.54
713.761	-3.46
713.788	-8.46
713.815	12.54
713.842	-9.46
713.869	0.54
713.896	-2.46
713.923	12.54
713.95	-2.46
713.977	-18.46
714.004	2.54
714.031	0.54
714.058	0.54
714.085	-12.46
714.112	9.54
714.139	0.54
714.165	4.54
714.192	4.54
714.219	5.54
714.246	8.54
714.273	10.54
714.3	10.54
714.327	0.54
714.354	5.54
714.381	-1.46
714.408	8.54
714.435	4.54
714.461	1.54
714.488	16.54
714.515	3.54
714.542	-6.46
714.569	3.54
714.596	8.54
714.623	-2.46
714.65	-4.46
714.677	8.54
714.703	2.54
714.73	7.54
714.757	3.54
714.784	1.54
714.811	-4.46
714.838	6.54
714.865	-2.46
714.891	8.54
714.918	3.54
714.945	-8.46
714.972	-6.46
714.999	12.54
715.026	8.54
715.052	18.54
715.079	-0.46
715.106	4.54
715.133	-4.46
715.16	-1.46
715.187	-5.46
715.213	12.54
715.24	-0.46
715.267	-14.46
715.294	-4.46
715.321	7.54
715.347	4.54
715.374	-14.46
715.401	-2.46
715.428	2.54
715.455	16.54
715.481	-4.46
715.508	8.54
715.535	-6.46
715.562	4.54
715.588	1.54
715.615	2.54
715.642	5.54
715.669	4.54
715.695	0.54
715.722	-3.46
715.749	-6.46
715.776	1.54
715.802	5.54
715.829	0.54
715.856	-2.46
715.883	12.54
715.909	-0.46
715.936	5.54
715.963	-3.46
715.99	3.54
716.016	-5.46
716.043	5.54
716.07	-0.46
716.096	-11.46
716.123	-11.46
716.15	-6.46
716.177	8.54
716.203	6.54
716.23	15.54
716.257	0.54
716.283	7.54
716.31	2.54
716.337	-1.46
716.363	-6.46
716.39	-7.46
716.417	3.54
716.443	5.54
716.47	4.54
716.497	18.54
716.523	5.54
716.55	1.54
716.577	18.54
716.603	4.54
716.63	5.54
716.657	15.54
716.683	9.54
716.71	10.54
716.737	0.54
716.763	-0.46
716.79	5.54
716.817	16.54
716.843	-0.46
716.87	-0.46
716.897	-0.46
716.923	7.54
716.95	-2.46
716.976	-0.46
717.003	-7.46
717.03	9.54
717.056	14.54
717.083	16.54
717.109	-0.46
717.136	7.54
717.163	0.54
717.189	-1.46
717.216	-13.46
717.242	-1.46
717.269	11.54
717.296	14.54
717.322	4.54
717.349	23.54
717.375	20.54
717.402	5.54
717.428	-11.46
717.455	6.54
717.481	12.54
717.508	-4.46
717.535	6.54
717.561	1.54
717.588	-3.46
717.614	-10.46
717.641	-5.46
717.667	5.54
717.694	10.54
717.72	9.54
717.747	10.54
717.773	-0.46
717.8	13.54
717.826	9.54
717.853	-0.46
717.88	15.54
717.906	0.54
717.933	4.54
717.959	16.54
717.986	21.54
718.012	7.54
718.039	3.54
718.065	13.54
718.092	12.54
718.118	0.54
718.144	-7.46
718.171	27.54
718.197	16.54
718.224	2.54
718.25	2.54
718.277	21.54
718.303	-8.46
718.33	12.54
718.356	-11.46
718.383	-7.46
718.409	10.54
718.436	-9.46
718.462	-1.46
718.489	2.54
718.515	25.54
718.541	10.54
718.568	3.54
718.594	3.54
718.621	11.54
718.647	8.54
718.674	2.54
718.7	18.54
718.726	-11.46
718.753	8.54
718.779	13.54
718.806	-1.46
718.832	5.54
718.858	0.54
718.885	-0.46
718.911	0.54
718.938	23.54
718.964	-0.46
718.99	-4.46
719.017	16.54
719.043	10.54
719.07	7.54
719.096	-6.46
719.122	-2.46
719.149	8.54
719.175	1.54
719.201	-5.46
719.228	-1.46
719.254	-1.46
719.281	6.54
719.307	-6.46
719.333	7.54
719.36	15.54
719.386	4.54
719.412	2.54
719.439	-1.46
719.465	12.54
719.491	-3.46
719.518	20.54
719.544	7.54
719.57	10.54
719.597	0.54
719.623	-5.46
719.649	3.54
719.675	-4.46
719.702	-7.46
719.728	18.54
719.754	2.54
719.781	8.54
719.807	4.54
719.833	2.54
719.86	-3.46
719.886	8.54
719.912	9.54
719.938	-5.46
719.965	21.54
719.991	8.54
720.017	7.54
720.044	0.54
720.07	12.54
720.096	21.54
720.122	-2.46
720.149	14.54
720.175	15.54
720.201	5.54
720.227	-10.46
720.254	23.54
720.28	22.54
720.306	-14.46
720.332	-7.46
720.359	-6.46
720.385	7.54
720.411	4.54
720.437	16.54
720.463	3.54
720.49	6.54
720.516	4.54
720.542	-6.46
720.568	2.54
720.595	2.54
720.621	1.54
720.647	8.54
720.673	17.54
720.699	8.54
720.725	10.54
720.752	4.54
720.778	12.54
720.804	6.54
720.83	8.54
720.856	-2.46
720.883	6.54
720.909	1.54
720.935	-1.46
720.961	14.54
720.987	11.54
721.013	14.54
721.04	-7.46
721.066	-1.46
721.092	5.54
721.118	16.54
721.144	11.54
721.17	-5.46
721.196	1.54
721.223	-6.46
721.249	-0.46
721.275	22.54
721.301	4.54
721.327	0.54
721.353	6.54
721.379	4.54
721.405	4.54
721.432	13.54
721.458	1.54
721.484	14.54
721.51	-18.46
721.536	-0.46
721.562	4.54
721.588	4.54
721.614	-6.46
721.64	-3.46
721.666	-3.46
721.693	-5.46
721.719	5.54
721.745	-5.46
721.771	-5.46
721.797	-2.46
721.823	8.54
721.849	10.54
721.875	-5.46
721.901	12.54
721.927	4.54
721.953	-6.46
721.979	16.54
722.005	13.54
722.031	-4.46
722.057	10.54
722.083	4.54
722.109	-3.46
722.135	12.54
722.161	14.54
722.187	-9.46
722.214	-8.46
722.24	5.54
722.266	-13.46
722.292	-0.46
722.318	9.54
722.344	12.54
722.37	9.54
722.396	5.54
722.422	8.54
722.448	4.54
722.474	-10.46
722.5	10.54
722.526	1.54
722.552	10.54
722.578	7.54
722.603	7.54
722.629	4.54
722.655	-3.46
722.681	4.54
722.707	4.54
722.733	-8.46
722.759	-0.46
722.785	4.54
722.811	2.54
722.837	-2.46
722.863	13.54
722.889	4.54
722.915	3.54
722.941	6.54
722.967	-0.46
722.993	20.54
723.019	4.54
723.045	-10.46
723.071	2.54
723.097	3.54
723.122	4.54
723.148	-6.46
723.174	6.54
723.2	13.54
723.226	12.54
723.252	-10.46
723.278	-6.46
723.304	-7.46
723.33	6.54
723.356	-9.46
723.381	-4.46
723.407	-0.46
723.433	9.54
723.459	-9.46
723.485	1.54
723.511	12.54
723.537	-2.46
723.563	0.54
723.588	7.54
723.614	15.54
723.64	-10.46
723.666	0.54
723.692	2.54
723.718	3.54
723.744	6.54
723.769	2.54
723.795	-3.46
723.821	5.54
723.847	-4.46
723.873	4.54
723.899	8.54
723.924	8.54
723.95	10.54
723.976	-16.46
724.002	9.54
724.028	6.54
724.053	-5.46
724.079	2.54
724.105	1.54
724.131	-1.46
724.157	0.54
724.182	5.54
724.208	-14.46
724.234	17.54
724.26	7.54
724.286	8.54
724.311	-3.46
724.337	-16.46
724.363	4.54
724.389	-4.46
724.415	-3.46
724.44	24.54
724.466	1.54
724.492	-9.46
724.518	-4.46
724.543	0.54
724.569	7.54
724.595	8.54
724.621	-3.46
724.646	-6.46
724.672	6.54
724.698	5.54
724.723	6.54
724.749	8.54
724.775	-2.46
724.801	5.54
724.826	-1.46
724.852	-7.46
724.878	-11.46
724.904	-9.46
724.929	8.54
724.955	-17.46
724.981	10.54
725.006	18.54
725.032	6.54
725.058	2.54
725.083	-11.46
725.109	6.54
725.135	8.54
725.161	20.54
725.186	-11.46
725.212	14.54
725.238	12.54
725.263	-4.46
725.289	-19.46
725.315	-22.46
725.34	-1.46
725.366	4.54
725.392	9.54
725.417	6.54
725.443	4.54
725.468	5.54
725.494	20.54
725.52	7.54
725.545	0.54
725.571	-13.46
725.597	-6.46
725.622	11.54
725.648	-3.46
725.674	11.54
725.699	-10.46
725.725	0.54
725.75	20.54
725.776	11.54
725.802	12.54
725.827	14.54
725.853	2.54
725.878	1.54
725.904	-6.46
725.93	6.54
725.955	1.54
725.981	-3.46
726.006	-13.46
726.032	8.54
726.057	-13.46
726.083	-14.46
726.109	4.54
726.134	-8.46
726.16	-1.46
726.185	-8.46
726.211	1.54
726.236	11.54
726.262	15.54
726.288	30.54
726.313	4.54
726.339	14.54
726.364	8.54
726.39	8.54
726.415	7.54
726.441	-1.46
726.466	-8.46
726.492	4.54
726.517	-11.46
726.543	0.54
726.568	-2.46
726.594	-1.46
726.619	16.54
726.645	13.54
726.67	-4.46
726.696	-2.46
726.721	-5.46
726.747	-8.46
726.772	-2.46
726.798	-6.46
726.823	7.54
726.849	-0.46
726.874	6.54
726.9	32.54
726.925	18.54
726.951	8.54
726.976	20.54
727.002	-8.46
727.027	14.54
727.053	13.54
727.078	6.54
727.104	0.54
727.129	-13.46
727.155	6.54
727.18	17.54
727.205	4.54
727.231	0.54
727.256	-3.46
727.282	0.54
727.307	-7.46
727.333	-22.46
727.358	-15.46
727.383	0.54
727.409	7.54
727.434	25.54
727.46	12.54
727.485	2.54
727.511	7.54
727.536	-18.46
727.561	-5.46
727.587	-4.46
727.612	1.54
727.637	2.54
727.663	-10.46
727.688	16.54
727.714	4.54
727.739	5.54
727.764	-11.46
727.79	0.54
727.815	1.54
727.841	20.54
727.866	19.54
727.891	11.54
727.917	0.54
727.942	-13.46
727.967	-1.46
727.993	-7.46
728.018	-0.46
728.043	-3.46
728.069	7.54
728.094	3.54
728.119	-14.46
728.145	1.54
728.17	13.54
728.195	-2.46
728.221	17.54
728.246	5.54
728.271	-13.46
728.297	8.54
728.322	22.54
728.347	9.54
728.373	11.54
728.398	11.54
728.423	0.54
728.448	5.54
728.474	-1.46
728.499	11.54
728.524	9.54
728.55	0.54
728.575	-7.46
728.6	-9.46
728.625	-11.46
728.651	3.54
728.676	-3.46
728.701	-7.46
728.727	-14.46
728.752	-3.46
728.777	1.54
728.802	6.54
728.828	6.54
728.853	11.54
728.878	14.54
728.903	6.54
728.929	-1.46
728.954	1.54
728.979	9.54
729.004	4.54
729.03	0.54
729.055	-0.46
729.08	4.54
729.105	1.54
729.13	14.54
729.156	10.54
729.181	-2.46
729.206	-19.46
729.231	-9.46
729.256	8.54
729.282	5.54
729.307	-0.46
729.332	1.54
729.357	-3.46
729.382	11.54
729.408	11.54
729.433	5.54
729.458	8.54
729.483	-0.46
729.508	18.54
729.533	7.54
729.559	10.54
729.584	-7.46
729.609	13.54
729.634	12.54
729.659	-4.46
729.684	0.54
729.71	16.54
729.735	13.54
729.76	5.54
729.785	13.54
729.81	8.54
729.835	12.54
729.86	-6.46
729.886	1.54
729.911	-4.46
729.936	-16.46
729.961	3.54
729.986	-19.46
730.011	7.54
730.036	10.54
730.061	10.54
730.086	7.54
730.112	4.54
730.137	16.54
730.162	6.54
730.187	-6.46
730.212	5.54
730.237	-4.46
730.262	1.54
730.287	-0.46
730.312	11.54
730.337	-4.46
730.362	11.54
730.387	0.54
730.413	-2.46
730.438	-0.46
730.463	2.54
730.488	-2.46
730.513	-3.46
730.538	-3.46
730.563	18.54
730.588	-14.46
730.613	13.54
730.638	4.54
730.663	-1.46
730.688	13.54
730.713	-5.46
730.738	5.54
730.763	5.54
730.788	-14.46
730.813	1.54
730.838	-1.46
730.863	8.54
730.888	9.54
730.913	-0.46
730.938	-19.46
730.963	-5.46
730.988	2.54
731.013	9.54
731.038	6.54
731.063	-9.46
731.088	6.54
731.113	-0.46
731.138	-3.46
731.163	7.54
731.188	-6.46
731.213	6.54
731.238	24.54
731.263	0.54
731.288	5.54
731.313	13.54
731.338	6.54
731.363	-2.46
731.388	4.54
731.413	-2.46
731.438	3.54
731.463	4.54
731.487	8.54
731.512	8.54
731.537	-1.46
731.562	-9.46
731.587	16.54
731.612	1.54
731.637	-9.46
731.662	0.54
731.687	1.54
731.712	-0.46
731.737	4.54
731.762	5.54
731.786	11.54
731.811	10.54
731.836	-4.46
731.861	12.54
731.886	-12.46
731.911	9.54
731.936	28.54
731.961	5.54
731.986	-6.46
732.01	-2.46
732.035	-6.46
732.06	18.54
732.085	17.54
732.11	5.54
732.135	-27.46
732.16	1.54
732.184	-0.46
732.209	-11.46
732.234	1.54
732.259	-4.46
732.284	21.54
732.309	11.54
732.334	3.54
732.358	-15.46
732.383	-20.46
732.408	10.54
732.433	8.54
732.458	-0.46
732.482	-9.46
732.507	-9.46
732.532	0.54
732.557	29.54
732.582	8.54
732.607	1.54
732.631	-16.46
732.656	-2.46
732.681	21.54
732.706	5.54
732.73	9.54
732.755	-2.46
732.78	-0.46
732.805	10.54
732.83	6.54
732.854	11.54
732.879	4.54
732.904	-4.46
732.929	2.54
732.953	17.54
732.978	10.54
733.003	-1.46
733.028	-4.46
733.052	1.54
733.077	-5.46
733.102	8.54
733.127	12.54
733.151	7.54
733.176	18.54
733.201	2.54
733.226	6.54
733.25	-1.46
733.275	4.54
733.3	-12.46
733.324	10.54
733.349	5.54
733.374	23.54
733.399	-10.46
733.423	-8.46
733.448	-9.46
733.473	-7.46
733.497	6.54
733.522	12.54
733.547	27.54
733.571	28.54
733.596	-0.46
733.621	-13.46
733.646	-2.46
733.67	-5.46
733.695	-9.46
733.72	2.54
733.744	0.54
733.769	4.54
733.794	19.54
733.818	10.54
733.843	20.54
733.867	6.54
733.892	7.54
733.917	4.54
733.941	13.54
733.966	-21.46
733.991	6.54
734.015	17.54
734.04	-0.46
734.065	-4.46
734.089	17.54
734.114	0.54
734.138	23.54
734.163	-6.46
734.188	9.54
734.212	13.54
734.237	25.54
734.261	8.54
734.286	5.54
734.311	-9.46
734.335	-3.46
734.36	0.54
734.384	9.54
734.409	-6.46
734.434	1.54
734.458	10.54
734.483	10.54
734.507	5.54
734.532	-4.46
734.556	14.54
734.581	-2.46
734.606	2.54
734.63	-2.46
734.655	-2.46
734.679	3.54
734.704	4.54
734.728	9.54
734.753	-10.46
734.777	3.54
734.802	8.54
734.826	5.54
734.851	2.54
734.876	6.54
734.9	20.54
734.925	-9.46
734.949	-0.46
734.974	8.54
734.998	17.54
735.023	-11.46
735.047	-6.46
735.072	10.54
735.096	4.54
735.121	-3.46
735.145	-0.46
735.17	-0.46
735.194	13.54
735.219	-4.46
735.243	11.54
735.268	9.54
735.292	6.54
735.317	11.54
735.341	4.54
735.365	-8.46
735.39	6.54
735.414	8.54
735.439	13.54
735.463	0.54
735.488	1.54
735.512	-0.46
735.537	-1.46
735.561	-2.46
735.586	0.54
735.61	8.54
735.634	-0.46
735.659	21.54
735.683	28.54
735.708	9.54
735.732	-2.46
735.757	1.54
735.781	2.54
735.805	-1.46
735.83	-11.46
735.854	-10.46
735.879	-6.46
735.903	7.54
735.927	4.54
735.952	6.54
735.976	-7.46
736.001	5.54
736.025	-0.46
736.049	18.54
736.074	-10.46
736.098	2.54
736.123	7.54
736.147	-3.46
736.171	7.54
736.196	-4.46
736.22	-2.46
736.244	5.54
736.269	2.54
736.293	-3.46
736.317	-0.46
736.342	-4.46
736.366	13.54
736.39	8.54
736.415	-7.46
736.439	2.54
736.463	14.54
736.488	4.54
736.512	-1.46
736.536	6.54
736.561	22.54
736.585	5.54
736.609	9.54
736.634	4.54
736.658	-1.46
736.682	-23.46
736.707	-11.46
736.731	-5.46
736.755	4.54
736.78	13.54
736.804	12.54
736.828	-0.46
736.852	0.54
736.877	9.54
736.901	13.54
736.925	-2.46
736.949	15.54
736.974	-0.46
736.998	-8.46
737.022	8.54
737.047	1.54
737.071	-11.46
737.095	11.54
737.119	23.54
737.144	17.54
737.168	12.54
737.192	2.54
737.216	8.54
737.241	-13.46
737.265	1.54
737.289	2.54
737.313	11.54
737.337	10.54
737.362	6.54
737.386	8.54
737.41	-1.46
737.434	5.54
737.459	0.54
737.483	-2.46
737.507	8.54
737.531	-3.46
737.555	6.54
737.58	18.54
737.604	-1.46
737.628	-14.46
737.652	-11.46
737.676	-3.46
737.701	9.54
737.725	-1.46
737.749	-3.46
737.773	-9.46
737.797	-4.46
737.821	2.54
737.846	6.54
737.87	16.54
737.894	0.54
737.918	0.54
737.942	8.54
737.966	6.54
737.99	-5.46
738.015	0.54
738.039	-5.46
738.063	0.54
738.087	4.54
738.111	-2.46
738.135	16.54
738.159	-6.46
738.184	-22.46
738.208	-1.46
738.232	7.54
738.256	18.54
738.28	0.54
738.304	19.54
738.328	-7.46
738.352	1.54
738.376	4.54
738.4	4.54
738.425	17.54
738.449	-2.46
738.473	13.54
738.497	13.54
738.521	6.54
738.545	11.54
738.569	0.54
738.593	17.54
738.617	5.54
738.641	7.54
738.665	4.54
738.689	19.54
738.713	11.54
738.737	-0.46
738.762	21.54
738.786	8.54
738.81	-14.46
738.834	11.54
738.858	-8.46
738.882	-9.46
738.906	-11.46
738.93	-0.46
738.954	-2.46
738.978	-1.46
739.002	-13.46
739.026	22.54
739.05	19.54
739.074	7.54
739.098	17.54
739.122	14.54
739.146	4.54
739.17	16.54
739.194	17.54
739.218	-20.46
739.242	0.54
739.266	5.54
739.29	17.54
739.314	12.54
739.338	-2.46
739.362	18.54
739.386	13.54
739.41	-4.46
739.434	0.54
739.458	16.54
739.482	18.54
739.506	25.54
739.53	0.54
739.554	10.54
739.577	1.54
739.601	-0.46
739.625	6.54
739.649	9.54
739.673	-7.46
739.697	13.54
739.721	1.54
739.745	-0.46
739.769	6.54
739.793	23.54
739.817	26.54
739.841	4.54
739.865	0.54
739.889	-22.46
739.912	12.54
739.936	4.54
739.96	2.54
739.984	5.54
740.008	2.54
740.032	-5.46
740.056	1.54
740.08	4.54
740.104	-0.46
740.127	4.54
740.151	6.54
740.175	30.54
740.199	6.54
740.223	59.54
740.247	11.54
740.271	-1.46
740.295	5.54
740.318	-1.46
740.342	4.54
740.366	9.54
740.39	8.54
740.414	1.54
740.438	-9.46
740.461	17.54
740.485	5.54
740.509	-4.46
740.533	-1.46
740.557	-14.46
740.581	-2.46
740.604	0.54
740.628	1.54
740.652	8.54
740.676	1.54
740.7	8.54
740.723	1.54
740.747	7.54
740.771	-6.46
740.795	-8.46
740.819	-1.46
740.842	-8.46
740.866	-3.46
740.89	8.54
740.914	13.54
740.938	2.54
740.961	11.54
740.985	-0.46
741.009	-4.46
741.033	3.54
741.056	-5.46
741.08	-1.46
741.104	-7.46
741.128	13.54
741.151	5.54
741.175	8.54
741.199	3.54
741.223	0.54
741.246	-1.46
741.27	15.54
741.294	5.54
741.318	-1.46
741.341	-10.46
741.365	-3.46
741.389	9.54
741.413	8.54
741.436	9.54
741.46	15.54
741.484	15.54
741.507	16.54
741.531	21.54
741.555	16.54
741.579	5.54
741.602	9.54
741.626	10.54
741.65	2.54
741.673	9.54
741.697	10.54
741.721	2.54
741.744	-18.46
741.768	4.54
741.792	2.54
741.815	1.54
741.839	14.54
741.863	7.54
741.886	10.54
741.91	14.54
741.934	8.54
741.957	-6.46
741.981	5.54
742.005	1.54
742.028	-10.46
742.052	-10.46
742.075	-0.46
742.099	25.54
742.123	3.54
742.146	-4.46
742.17	4.54
742.194	-23.46
742.217	-11.46
742.241	-2.46
742.264	4.54
742.288	17.54
742.312	5.54
742.335	-5.46
742.359	6.54
742.382	10.54
742.406	7.54
742.43	1.54
742.453	6.54
742.477	5.54
742.5	9.54
742.524	-7.46
742.548	4.54
742.571	11.54
742.595	0.54
742.618	10.54
742.642	-0.46
742.665	11.54
742.689	-12.46
742.712	17.54
742.736	22.54
742.76	5.54
742.783	-6.46
742.807	16.54
742.83	18.54
742.854	4.54
742.877	-0.46
742.901	0.54
742.924	-0.46
742.948	10.54
742.971	9.54
742.995	10.54
743.018	-3.46
743.042	-6.46
743.065	-3.46
743.089	-3.46
743.112	-7.46
743.136	-0.46
743.159	-17.46
743.183	-7.46
743.206	-2.46
743.23	-5.46
743.253	2.54
743.277	25.54
743.3	-8.46
743.324	1.54
743.347	-6.46
743.371	13.54
743.394	13.54
743.418	22.54
743.441	23.54
743.465	13.54
743.488	8.54
743.512	0.54
743.535	-0.46
743.558	-1.46
743.582	-6.46
743.605	7.54
743.629	7.54
743.652	-2.46
743.676	-6.46
743.699	7.54
743.723	0.54
743.746	14.54
743.769	-2.46
743.793	10.54
743.816	7.54
743.84	8.54
743.863	4.54
743.886	23.54
743.91	13.54
743.933	8.54
743.957	8.54
743.98	-6.46
744.003	1.54
744.027	11.54
744.05	-3.46
744.074	5.54
744.097	-9.46
744.12	5.54
744.144	-5.46
744.167	5.54
744.19	-1.46
744.214	2.54
744.237	-6.46
744.26	-1.46
744.284	-12.46
744.307	-8.46
744.331	1.54
744.354	-1.46
744.377	-4.46
744.401	-12.46
744.424	-8.46
744.447	-23.46
744.471	4.54
