Data from HighRes_H2D2_15_04_11_07_2024_HR4C61891__47__15-05-39-143.txt Node

Date: Thu Nov 07 15:05:39 EST 2024
User: crc00042
Spectrometer: HR4C6189
Trigger mode: 4
Integration Time (sec): 1.000000E-1
Scans to average: 1
Electric dark correction enabled: true
Nonlinearity correction enabled: false
Boxcar width: 0
XAxis mode: Wavelengths
Number of Pixels in Spectrum: 3648
>>>>>Begin Spectral Data<<<<<
639.567	-74.46
639.602	-74.46
639.636	-74.46
639.67	-50.46
639.704	7.54
639.738	-12.46
639.773	7.54
639.807	-17.46
639.841	-1.46
639.875	22.54
639.909	-13.46
639.943	-10.46
639.978	-10.46
640.012	2.54
640.046	5.54
640.08	19.54
640.114	12.54
640.148	-4.46
640.182	-10.46
640.217	-17.46
640.251	10.54
640.285	12.54
640.319	-10.46
640.353	3.54
640.387	6.54
640.421	12.54
640.455	2.54
640.49	12.54
640.524	0.54
640.558	10.54
640.592	-1.46
640.626	-6.46
640.66	1.54
640.694	5.54
640.728	14.54
640.762	9.54
640.796	13.54
640.83	12.54
640.865	3.54
640.899	0.54
640.933	1.54
640.967	8.54
641.001	18.54
641.035	5.54
641.069	-8.46
641.103	-16.46
641.137	-4.46
641.171	-2.46
641.205	2.54
641.239	3.54
641.273	6.54
641.307	19.54
641.341	6.54
641.375	-15.46
641.409	-14.46
641.443	12.54
641.477	2.54
641.511	11.54
641.545	10.54
641.579	-5.46
641.614	16.54
641.648	5.54
641.682	-6.46
641.716	9.54
641.75	12.54
641.784	11.54
641.818	3.54
641.852	4.54
641.886	1.54
641.919	19.54
641.953	-0.46
641.987	-15.46
642.021	4.54
642.055	9.54
642.089	7.54
642.123	-20.46
642.157	14.54
642.191	-3.46
642.225	15.54
642.259	-2.46
642.293	10.54
642.327	0.54
642.361	-8.46
642.395	17.54
642.429	23.54
642.463	11.54
642.497	22.54
642.531	-13.46
642.565	8.54
642.599	-5.46
642.633	-16.46
642.666	-8.46
642.7	17.54
642.734	14.54
642.768	-5.46
642.802	-8.46
642.836	17.54
642.87	7.54
642.904	11.54
642.938	-7.46
642.972	-7.46
643.005	-9.46
643.039	23.54
643.073	-12.46
643.107	3.54
643.141	-6.46
643.175	5.54
643.209	-3.46
643.243	-12.46
643.276	-0.46
643.31	-0.46
643.344	-2.46
643.378	-2.46
643.412	9.54
643.446	11.54
643.48	-5.46
643.513	9.54
643.547	-5.46
643.581	1.54
643.615	21.54
643.649	18.54
643.683	14.54
643.716	6.54
643.75	3.54
643.784	-13.46
643.818	9.54
643.852	-6.46
643.886	2.54
643.919	10.54
643.953	7.54
643.987	15.54
644.021	14.54
644.055	16.54
644.088	-15.46
644.122	-7.46
644.156	-2.46
644.19	1.54
644.224	1.54
644.257	1.54
644.291	8.54
644.325	5.54
644.359	-2.46
644.392	24.54
644.426	13.54
644.46	4.54
644.494	-14.46
644.527	-6.46
644.561	2.54
644.595	5.54
644.629	-5.46
644.662	8.54
644.696	8.54
644.73	9.54
644.764	-1.46
644.797	4.54
644.831	1.54
644.865	18.54
644.899	7.54
644.932	26.54
644.966	0.54
645	-1.46
645.033	3.54
645.067	8.54
645.101	9.54
645.135	-12.46
645.168	-30.46
645.202	-11.46
645.236	0.54
645.269	2.54
645.303	-12.46
645.337	-5.46
645.37	-9.46
645.404	3.54
645.438	2.54
645.471	2.54
645.505	18.54
645.539	12.54
645.572	-10.46
645.606	-12.46
645.64	12.54
645.673	17.54
645.707	28.54
645.741	3.54
645.774	-9.46
645.808	3.54
645.842	0.54
645.875	21.54
645.909	-0.46
645.943	-12.46
645.976	0.54
646.01	-1.46
646.043	15.54
646.077	9.54
646.111	9.54
646.144	2.54
646.178	2.54
646.212	-20.46
646.245	-6.46
646.279	7.54
646.312	5.54
646.346	-0.46
646.38	-7.46
646.413	25.54
646.447	23.54
646.48	14.54
646.514	14.54
646.547	-2.46
646.581	2.54
646.615	5.54
646.648	-11.46
646.682	-7.46
646.715	-15.46
646.749	4.54
646.782	-5.46
646.816	-4.46
646.85	-1.46
646.883	0.54
646.917	-5.46
646.95	5.54
646.984	10.54
647.017	7.54
647.051	6.54
647.084	17.54
647.118	-7.46
647.151	-6.46
647.185	-3.46
647.218	-9.46
647.252	3.54
647.285	-17.46
647.319	-14.46
647.353	4.54
647.386	15.54
647.42	12.54
647.453	5.54
647.487	6.54
647.52	8.54
647.553	3.54
647.587	-3.46
647.62	0.54
647.654	13.54
647.687	11.54
647.721	5.54
647.754	1.54
647.788	-3.46
647.821	-11.46
647.855	-14.46
647.888	14.54
647.922	18.54
647.955	13.54
647.989	0.54
648.022	2.54
648.055	11.54
648.089	-5.46
648.122	15.54
648.156	0.54
648.189	-2.46
648.223	2.54
648.256	-1.46
648.29	-3.46
648.323	3.54
648.356	18.54
648.39	11.54
648.423	-2.46
648.457	-0.46
648.49	10.54
648.523	13.54
648.557	-0.46
648.59	-14.46
648.624	-8.46
648.657	16.54
648.69	16.54
648.724	8.54
648.757	3.54
648.791	9.54
648.824	-6.46
648.857	14.54
648.891	-9.46
648.924	9.54
648.957	15.54
648.991	-3.46
649.024	10.54
649.057	-1.46
649.091	1.54
649.124	10.54
649.158	16.54
649.191	25.54
649.224	16.54
649.258	21.54
649.291	15.54
649.324	13.54
649.358	11.54
649.391	13.54
649.424	5.54
649.458	10.54
649.491	4.54
649.524	-0.46
649.557	-9.46
649.591	-13.46
649.624	6.54
649.657	1.54
649.691	-3.46
649.724	-1.46
649.757	1.54
649.791	-10.46
649.824	15.54
649.857	20.54
649.89	2.54
649.924	-10.46
649.957	-7.46
649.99	-17.46
650.023	-13.46
650.057	5.54
650.09	17.54
650.123	-5.46
650.157	18.54
650.19	17.54
650.223	-5.46
650.256	-5.46
650.29	3.54
650.323	-2.46
650.356	12.54
650.389	5.54
650.423	5.54
650.456	14.54
650.489	2.54
650.522	27.54
650.555	8.54
650.589	5.54
650.622	10.54
650.655	18.54
650.688	8.54
650.721	-8.46
650.755	17.54
650.788	25.54
650.821	11.54
650.854	-3.46
650.887	0.54
650.921	7.54
650.954	0.54
650.987	4.54
651.02	-21.46
651.053	-13.46
651.087	-7.46
651.12	19.54
651.153	12.54
651.186	12.54
651.219	-2.46
651.252	8.54
651.286	4.54
651.319	1.54
651.352	12.54
651.385	2.54
651.418	6.54
651.451	5.54
651.484	1.54
651.518	-6.46
651.551	14.54
651.584	4.54
651.617	26.54
651.65	12.54
651.683	18.54
651.716	12.54
651.749	-7.46
651.783	2.54
651.816	-1.46
651.849	15.54
651.882	9.54
651.915	4.54
651.948	10.54
651.981	-0.46
652.014	4.54
652.047	-6.46
652.08	-13.46
652.114	-13.46
652.147	-0.46
652.18	-0.46
652.213	23.54
652.246	17.54
652.279	-9.46
652.312	12.54
652.345	-8.46
652.378	7.54
652.411	13.54
652.444	16.54
652.477	6.54
652.51	-5.46
652.543	-0.46
652.576	18.54
652.609	-5.46
652.642	13.54
652.675	23.54
652.709	-1.46
652.742	10.54
652.775	17.54
652.808	17.54
652.841	-3.46
652.874	4.54
652.907	12.54
652.94	6.54
652.973	0.54
653.006	-5.46
653.039	-1.46
653.072	-6.46
653.105	15.54
653.138	-8.46
653.171	5.54
653.204	10.54
653.237	-0.46
653.27	-19.46
653.303	8.54
653.336	6.54
653.368	-4.46
653.401	-6.46
653.434	-13.46
653.467	6.54
653.5	-11.46
653.533	-7.46
653.566	2.54
653.599	0.54
653.632	-7.46
653.665	-2.46
653.698	-12.46
653.731	2.54
653.764	23.54
653.797	0.54
653.83	11.54
653.863	10.54
653.896	-2.46
653.929	-4.46
653.961	-0.46
653.994	-12.46
654.027	-3.46
654.06	6.54
654.093	2.54
654.126	15.54
654.159	3.54
654.192	12.54
654.225	12.54
654.258	-4.46
654.29	1.54
654.323	8.54
654.356	-4.46
654.389	3.54
654.422	1.54
654.455	4.54
654.488	-0.46
654.521	-3.46
654.553	-7.46
654.586	-1.46
654.619	3.54
654.652	-9.46
654.685	6.54
654.718	21.54
654.751	11.54
654.783	-9.46
654.816	15.54
654.849	3.54
654.882	-16.46
654.915	-9.46
654.948	3.54
654.98	-6.46
655.013	-8.46
655.046	-6.46
655.079	4.54
655.112	10.54
655.144	-0.46
655.177	3.54
655.21	10.54
655.243	25.54
655.276	14.54
655.308	-8.46
655.341	-11.46
655.374	0.54
655.407	-2.46
655.44	9.54
655.472	7.54
655.505	0.54
655.538	11.54
655.571	18.54
655.603	14.54
655.636	-5.46
655.669	11.54
655.702	11.54
655.734	-0.46
655.767	-5.46
655.8	24.54
655.833	16.54
655.865	10.54
655.898	-11.46
655.931	8.54
655.964	17.54
655.996	24.54
656.029	42.54
656.062	19.54
656.095	68.54
656.127	79.54
656.16	206.54
656.193	629.54
656.225	932.54
656.258	554.54
656.291	205.54
656.324	170.54
656.356	348.54
656.389	743.54
656.422	673.54
656.454	237.54
656.487	85.54
656.52	42.54
656.552	21.54
656.585	12.54
656.618	-6.46
656.65	19.54
656.683	-1.46
656.716	16.54
656.748	17.54
656.781	-10.46
656.814	3.54
656.846	6.54
656.879	-9.46
656.912	5.54
656.944	-3.46
656.977	-3.46
657.01	-9.46
657.042	6.54
657.075	11.54
657.108	-2.46
657.14	4.54
657.173	18.54
657.205	40.54
657.238	12.54
657.271	19.54
657.303	-9.46
657.336	3.54
657.369	-4.46
657.401	1.54
657.434	7.54
657.466	14.54
657.499	3.54
657.532	-9.46
657.564	-0.46
657.597	-4.46
657.629	14.54
657.662	2.54
657.694	5.54
657.727	-18.46
657.76	-0.46
657.792	-9.46
657.825	-11.46
657.857	2.54
657.89	-8.46
657.922	11.54
657.955	-6.46
657.987	1.54
658.02	9.54
658.053	23.54
658.085	-1.46
658.118	7.54
658.15	0.54
658.183	23.54
658.215	10.54
658.248	-3.46
658.28	-1.46
658.313	9.54
658.345	17.54
658.378	4.54
658.41	-1.46
658.443	10.54
658.475	3.54
658.508	3.54
658.54	7.54
658.573	-4.46
658.605	1.54
658.638	-9.46
658.67	-2.46
658.703	2.54
658.735	-12.46
658.768	2.54
658.8	14.54
658.833	23.54
658.865	17.54
658.898	12.54
658.93	-13.46
658.963	0.54
658.995	-4.46
659.028	29.54
659.06	10.54
659.092	1.54
659.125	4.54
659.157	1.54
659.19	-10.46
659.222	-1.46
659.255	-3.46
659.287	-0.46
659.32	-3.46
659.352	0.54
659.384	4.54
659.417	4.54
659.449	13.54
659.482	14.54
659.514	-15.46
659.546	-6.46
659.579	-19.46
659.611	-6.46
659.644	-7.46
659.676	0.54
659.708	-4.46
659.741	-2.46
659.773	12.54
659.806	-3.46
659.838	0.54
659.87	-4.46
659.903	-10.46
659.935	6.54
659.967	15.54
660	3.54
660.032	-8.46
660.065	-1.46
660.097	6.54
660.129	2.54
660.162	-4.46
660.194	0.54
660.226	-8.46
660.259	10.54
660.291	-8.46
660.323	11.54
660.356	-4.46
660.388	-5.46
660.42	-1.46
660.453	9.54
660.485	10.54
660.517	0.54
660.55	10.54
660.582	-1.46
660.614	12.54
660.647	3.54
660.679	-13.46
660.711	9.54
660.743	-3.46
660.776	-3.46
660.808	-10.46
660.84	0.54
660.873	-2.46
660.905	-8.46
660.937	2.54
660.969	12.54
661.002	13.54
661.034	20.54
661.066	15.54
661.099	9.54
661.131	15.54
661.163	-6.46
661.195	-1.46
661.228	17.54
661.26	4.54
661.292	9.54
661.324	-0.46
661.357	9.54
661.389	7.54
661.421	8.54
661.453	9.54
661.485	0.54
661.518	5.54
661.55	7.54
661.582	18.54
661.614	14.54
661.647	7.54
661.679	0.54
661.711	10.54
661.743	12.54
661.775	-9.46
661.808	26.54
661.84	-14.46
661.872	17.54
661.904	1.54
661.936	-6.46
661.969	2.54
662.001	-2.46
662.033	-3.46
662.065	-5.46
662.097	6.54
662.129	3.54
662.162	2.54
662.194	-4.46
662.226	2.54
662.258	2.54
662.29	3.54
662.322	-4.46
662.355	-13.46
662.387	19.54
662.419	11.54
662.451	11.54
662.483	22.54
662.515	-7.46
662.547	-7.46
662.58	6.54
662.612	2.54
662.644	-9.46
662.676	0.54
662.708	13.54
662.74	-4.46
662.772	7.54
662.804	8.54
662.836	16.54
662.869	13.54
662.901	12.54
662.933	3.54
662.965	30.54
662.997	-1.46
663.029	-20.46
663.061	2.54
663.093	-7.46
663.125	2.54
663.157	17.54
663.189	12.54
663.221	7.54
663.254	7.54
663.286	1.54
663.318	-18.46
663.35	-2.46
663.382	1.54
663.414	1.54
663.446	-11.46
663.478	-8.46
663.51	23.54
663.542	-0.46
663.574	9.54
663.606	13.54
663.638	-7.46
663.67	-4.46
663.702	-13.46
663.734	0.54
663.766	2.54
663.798	-17.46
663.83	5.54
663.862	-7.46
663.894	1.54
663.926	-10.46
663.958	12.54
663.99	2.54
664.022	-4.46
664.054	13.54
664.086	1.54
664.118	-22.46
664.15	-21.46
664.182	-0.46
664.214	-9.46
664.246	0.54
664.278	2.54
664.31	19.54
664.342	1.54
664.374	12.54
664.406	7.54
664.438	-6.46
664.47	4.54
664.502	0.54
664.534	-4.46
664.566	-13.46
664.598	0.54
664.63	-11.46
664.662	-0.46
664.693	9.54
664.725	-4.46
664.757	7.54
664.789	-6.46
664.821	6.54
664.853	16.54
664.885	6.54
664.917	8.54
664.949	20.54
664.981	24.54
665.013	-13.46
665.045	-2.46
665.076	-5.46
665.108	-4.46
665.14	-9.46
665.172	11.54
665.204	-15.46
665.236	-5.46
665.268	19.54
665.3	11.54
665.331	7.54
665.363	17.54
665.395	-6.46
665.427	10.54
665.459	6.54
665.491	-6.46
665.523	-1.46
665.555	0.54
665.586	-5.46
665.618	-17.46
665.65	-14.46
665.682	23.54
665.714	2.54
665.746	-13.46
665.777	1.54
665.809	7.54
665.841	23.54
665.873	6.54
665.905	4.54
665.937	6.54
665.968	-10.46
666	-1.46
666.032	5.54
666.064	-2.46
666.096	-12.46
666.127	10.54
666.159	9.54
666.191	15.54
666.223	-5.46
666.255	17.54
666.286	1.54
666.318	-9.46
666.35	13.54
666.382	4.54
666.413	0.54
666.445	-8.46
666.477	-6.46
666.509	-2.46
666.54	-7.46
666.572	0.54
666.604	25.54
666.636	7.54
666.667	1.54
666.699	21.54
666.731	9.54
666.763	-18.46
666.794	6.54
666.826	2.54
666.858	-4.46
666.89	12.54
666.921	7.54
666.953	-1.46
666.985	7.54
667.017	23.54
667.048	3.54
667.08	9.54
667.112	8.54
667.143	-16.46
667.175	5.54
667.207	6.54
667.238	16.54
667.27	3.54
667.302	15.54
667.334	-2.46
667.365	14.54
667.397	-13.46
667.429	13.54
667.46	22.54
667.492	16.54
667.524	9.54
667.555	15.54
667.587	1.54
667.619	-12.46
667.65	-4.46
667.682	2.54
667.714	10.54
667.745	7.54
667.777	15.54
667.808	4.54
667.84	10.54
667.872	6.54
667.903	29.54
667.935	-10.46
667.967	3.54
667.998	9.54
668.03	-1.46
668.061	9.54
668.093	-1.46
668.125	4.54
668.156	10.54
668.188	3.54
668.22	-7.46
668.251	-7.46
668.283	-1.46
668.314	20.54
668.346	-8.46
668.377	-7.46
668.409	-4.46
668.441	3.54
668.472	2.54
668.504	33.54
668.535	11.54
668.567	11.54
668.599	13.54
668.63	10.54
668.662	4.54
668.693	12.54
668.725	2.54
668.756	-10.46
668.788	-7.46
668.819	11.54
668.851	16.54
668.882	1.54
668.914	5.54
668.946	3.54
668.977	-20.46
669.009	6.54
669.04	-9.46
669.072	-6.46
669.103	-1.46
669.135	-6.46
669.166	4.54
669.198	-7.46
669.229	5.54
669.261	-7.46
669.292	-2.46
669.324	13.54
669.355	10.54
669.387	-9.46
669.418	15.54
669.45	-0.46
669.481	12.54
669.513	24.54
669.544	13.54
669.576	4.54
669.607	12.54
669.639	10.54
669.67	-8.46
669.701	16.54
669.733	-19.46
669.764	9.54
669.796	-6.46
669.827	-8.46
669.859	-4.46
669.89	20.54
669.922	7.54
669.953	-0.46
669.985	7.54
670.016	18.54
670.047	12.54
670.079	-2.46
670.11	19.54
670.142	2.54
670.173	-4.46
670.204	11.54
670.236	10.54
670.267	13.54
670.299	-5.46
670.33	2.54
670.362	17.54
670.393	-3.46
670.424	6.54
670.456	-2.46
670.487	-3.46
670.518	4.54
670.55	10.54
670.581	5.54
670.613	20.54
670.644	4.54
670.675	5.54
670.707	4.54
670.738	5.54
670.769	-1.46
670.801	-1.46
670.832	-1.46
670.864	-18.46
670.895	14.54
670.926	6.54
670.958	-16.46
670.989	-6.46
671.02	-15.46
671.052	-10.46
671.083	1.54
671.114	-6.46
671.146	2.54
671.177	6.54
671.208	-3.46
671.24	2.54
671.271	0.54
671.302	9.54
671.333	3.54
671.365	4.54
671.396	7.54
671.427	8.54
671.459	8.54
671.49	10.54
671.521	9.54
671.553	-1.46
671.584	5.54
671.615	-8.46
671.646	5.54
671.678	3.54
671.709	-22.46
671.74	-15.46
671.771	-6.46
671.803	-21.46
671.834	-3.46
671.865	-18.46
671.896	9.54
671.928	11.54
671.959	11.54
671.99	-12.46
672.021	1.54
672.053	-13.46
672.084	-2.46
672.115	-5.46
672.146	-6.46
672.178	-18.46
672.209	-14.46
672.24	2.54
672.271	29.54
672.303	14.54
672.334	-11.46
672.365	2.54
672.396	7.54
672.427	24.54
672.459	21.54
672.49	30.54
672.521	1.54
672.552	10.54
672.583	15.54
672.615	-3.46
672.646	19.54
672.677	-8.46
672.708	9.54
672.739	3.54
672.77	-1.46
672.802	-14.46
672.833	9.54
672.864	5.54
672.895	-1.46
672.926	10.54
672.957	-9.46
672.989	-2.46
673.02	19.54
673.051	5.54
673.082	18.54
673.113	6.54
673.144	-1.46
673.175	8.54
673.206	-1.46
673.238	-9.46
673.269	0.54
673.3	-8.46
673.331	-3.46
673.362	7.54
673.393	9.54
673.424	16.54
673.455	25.54
673.487	7.54
673.518	3.54
673.549	10.54
673.58	10.54
673.611	10.54
673.642	10.54
673.673	-2.46
673.704	-2.46
673.735	8.54
673.766	11.54
673.797	7.54
673.828	-2.46
673.86	-13.46
673.891	-14.46
673.922	2.54
673.953	-9.46
673.984	9.54
674.015	12.54
674.046	7.54
674.077	3.54
674.108	-1.46
674.139	3.54
674.17	13.54
674.201	0.54
674.232	6.54
674.263	-8.46
674.294	-7.46
674.325	-4.46
674.356	19.54
674.387	9.54
674.418	17.54
674.449	-1.46
674.48	-0.46
674.511	7.54
674.542	12.54
674.573	3.54
674.604	6.54
674.635	1.54
674.666	1.54
674.697	2.54
674.728	6.54
674.759	5.54
674.79	0.54
674.821	8.54
674.852	11.54
674.883	2.54
674.914	9.54
674.945	-6.46
674.976	-3.46
675.007	-1.46
675.038	2.54
675.069	-21.46
675.1	-2.46
675.131	6.54
675.162	-6.46
675.193	-3.46
675.224	-3.46
675.254	-1.46
675.285	1.54
675.316	21.54
675.347	-5.46
675.378	-1.46
675.409	-12.46
675.44	0.54
675.471	4.54
675.502	-5.46
675.533	3.54
675.564	7.54
675.595	-0.46
675.625	19.54
675.656	23.54
675.687	-1.46
675.718	-13.46
675.749	24.54
675.78	14.54
675.811	-5.46
675.842	14.54
675.873	6.54
675.903	-4.46
675.934	-3.46
675.965	6.54
675.996	10.54
676.027	12.54
676.058	9.54
676.089	-20.46
676.119	13.54
676.15	5.54
676.181	5.54
676.212	10.54
676.243	3.54
676.274	-3.46
676.304	30.54
676.335	-1.46
676.366	19.54
676.397	7.54
676.428	6.54
676.459	11.54
676.489	26.54
676.52	16.54
676.551	0.54
676.582	-8.46
676.613	13.54
676.643	2.54
676.674	17.54
676.705	7.54
676.736	17.54
676.767	13.54
676.797	10.54
676.828	5.54
676.859	7.54
676.89	4.54
676.92	10.54
676.951	9.54
676.982	2.54
677.013	8.54
677.044	6.54
677.074	9.54
677.105	-1.46
677.136	5.54
677.167	-7.46
677.197	11.54
677.228	17.54
677.259	22.54
677.289	8.54
677.32	-12.46
677.351	-10.46
677.382	0.54
677.412	-12.46
677.443	13.54
677.474	9.54
677.505	-1.46
677.535	1.54
677.566	-6.46
677.597	3.54
677.627	-5.46
677.658	-4.46
677.689	-2.46
677.72	-1.46
677.75	-3.46
677.781	14.54
677.812	-5.46
677.842	14.54
677.873	10.54
677.904	14.54
677.934	-1.46
677.965	-5.46
677.996	-19.46
678.026	5.54
678.057	5.54
678.088	-10.46
678.118	-13.46
678.149	3.54
678.18	2.54
678.21	5.54
678.241	-4.46
678.272	1.54
678.302	10.54
678.333	17.54
678.363	13.54
678.394	8.54
678.425	10.54
678.455	12.54
678.486	17.54
678.517	-8.46
678.547	-1.46
678.578	12.54
678.608	-0.46
678.639	11.54
678.67	-4.46
678.7	0.54
678.731	-16.46
678.761	0.54
678.792	-6.46
678.823	2.54
678.853	7.54
678.884	-5.46
678.914	10.54
678.945	13.54
678.975	7.54
679.006	16.54
679.037	-6.46
679.067	14.54
679.098	2.54
679.128	-5.46
679.159	0.54
679.189	14.54
679.22	-0.46
679.25	10.54
679.281	1.54
679.312	2.54
679.342	13.54
679.373	26.54
679.403	9.54
679.434	21.54
679.464	-5.46
679.495	-6.46
679.525	9.54
679.556	5.54
679.586	12.54
679.617	0.54
679.647	-9.46
679.678	4.54
679.708	-4.46
679.739	-5.46
679.769	-5.46
679.8	-1.46
679.83	3.54
679.861	21.54
679.891	-3.46
679.922	-13.46
679.952	4.54
679.983	5.54
680.013	10.54
680.044	1.54
680.074	19.54
680.105	7.54
680.135	1.54
680.165	-0.46
680.196	10.54
680.226	13.54
680.257	12.54
680.287	8.54
680.318	-5.46
680.348	-6.46
680.379	15.54
680.409	-0.46
680.439	1.54
680.47	5.54
680.5	-1.46
680.531	-11.46
680.561	18.54
680.592	11.54
680.622	15.54
680.652	-0.46
680.683	19.54
680.713	2.54
680.744	10.54
680.774	-15.46
680.804	8.54
680.835	11.54
680.865	11.54
680.896	10.54
680.926	2.54
680.956	2.54
680.987	11.54
681.017	1.54
681.047	-6.46
681.078	-17.46
681.108	2.54
681.139	-2.46
681.169	7.54
681.199	4.54
681.23	9.54
681.26	4.54
681.29	1.54
681.321	6.54
681.351	4.54
681.381	2.54
681.412	17.54
681.442	5.54
681.472	5.54
681.503	8.54
681.533	13.54
681.563	-1.46
681.594	-2.46
681.624	12.54
681.654	-0.46
681.685	7.54
681.715	11.54
681.745	10.54
681.775	-2.46
681.806	5.54
681.836	-3.46
681.866	-9.46
681.897	11.54
681.927	-3.46
681.957	-3.46
681.987	12.54
682.018	3.54
682.048	15.54
682.078	4.54
682.109	17.54
682.139	8.54
682.169	7.54
682.199	4.54
682.23	-3.46
682.26	2.54
682.29	-1.46
682.32	7.54
682.351	1.54
682.381	-13.46
682.411	-6.46
682.441	-12.46
682.472	-22.46
682.502	-6.46
682.532	1.54
682.562	10.54
682.592	12.54
682.623	1.54
682.653	-0.46
682.683	6.54
682.713	16.54
682.743	13.54
682.774	-12.46
682.804	6.54
682.834	18.54
682.864	-18.46
682.894	-8.46
682.925	-11.46
682.955	2.54
682.985	-0.46
683.015	11.54
683.045	11.54
683.076	2.54
683.106	5.54
683.136	-3.46
683.166	5.54
683.196	9.54
683.226	4.54
683.257	-8.46
683.287	-4.46
683.317	-24.46
683.347	-4.46
683.377	-19.46
683.407	9.54
683.437	14.54
683.468	20.54
683.498	-15.46
683.528	-1.46
683.558	-0.46
683.588	11.54
683.618	4.54
683.648	-15.46
683.678	7.54
683.708	8.54
683.739	14.54
683.769	-11.46
683.799	8.54
683.829	9.54
683.859	5.54
683.889	3.54
683.919	2.54
683.949	6.54
683.979	8.54
684.009	-0.46
684.039	13.54
684.07	-14.46
684.1	16.54
684.13	-0.46
684.16	-3.46
684.19	-5.46
684.22	2.54
684.25	-12.46
684.28	-9.46
684.31	15.54
684.34	11.54
684.37	8.54
684.4	-7.46
684.43	10.54
684.46	11.54
684.49	12.54
684.52	10.54
684.55	9.54
684.58	7.54
684.61	19.54
684.64	22.54
684.67	16.54
684.7	6.54
684.73	-1.46
684.76	-3.46
684.79	21.54
684.82	6.54
684.85	3.54
684.88	14.54
684.91	12.54
684.94	-2.46
684.97	3.54
685	-1.46
685.03	-9.46
685.06	1.54
685.09	-4.46
685.12	2.54
685.15	-9.46
685.18	27.54
685.21	0.54
685.24	14.54
685.27	13.54
685.3	14.54
685.33	9.54
685.36	2.54
685.39	-0.46
685.42	10.54
685.45	-2.46
685.48	5.54
685.51	8.54
685.54	21.54
685.569	19.54
685.599	13.54
685.629	7.54
685.659	8.54
685.689	-5.46
685.719	3.54
685.749	1.54
685.779	0.54
685.809	-0.46
685.839	-10.46
685.869	-3.46
685.898	5.54
685.928	4.54
685.958	15.54
685.988	7.54
686.018	2.54
686.048	0.54
686.078	10.54
686.108	24.54
686.137	11.54
686.167	12.54
686.197	-7.46
686.227	-5.46
686.257	16.54
686.287	24.54
686.317	15.54
686.346	10.54
686.376	-5.46
686.406	5.54
686.436	11.54
686.466	-12.46
686.496	2.54
686.525	8.54
686.555	7.54
686.585	7.54
686.615	27.54
686.645	18.54
686.675	7.54
686.704	22.54
686.734	3.54
686.764	-10.46
686.794	7.54
686.824	6.54
686.853	10.54
686.883	21.54
686.913	6.54
686.943	3.54
686.973	-4.46
687.002	-4.46
687.032	13.54
687.062	6.54
687.092	22.54
687.121	13.54
687.151	9.54
687.181	1.54
687.211	6.54
687.24	8.54
687.27	-4.46
687.3	2.54
687.33	-4.46
687.359	-13.46
687.389	-6.46
687.419	-2.46
687.449	-7.46
687.478	12.54
687.508	-1.46
687.538	18.54
687.568	10.54
687.597	-16.46
687.627	-1.46
687.657	5.54
687.686	17.54
687.716	25.54
687.746	-6.46
687.776	-3.46
687.805	9.54
687.835	6.54
687.865	22.54
687.894	-5.46
687.924	-7.46
687.954	-4.46
687.983	14.54
688.013	11.54
688.043	2.54
688.072	3.54
688.102	13.54
688.132	-13.46
688.161	-1.46
688.191	-14.46
688.221	23.54
688.25	0.54
688.28	11.54
688.31	3.54
688.339	-12.46
688.369	-10.46
688.399	-25.46
688.428	6.54
688.458	-4.46
688.488	-4.46
688.517	-14.46
688.547	-16.46
688.576	38.54
688.606	14.54
688.636	-5.46
688.665	8.54
688.695	17.54
688.725	4.54
688.754	9.54
688.784	14.54
688.813	15.54
688.843	4.54
688.873	-8.46
688.902	-7.46
688.932	0.54
688.961	13.54
688.991	30.54
689.02	15.54
689.05	-2.46
689.08	9.54
689.109	9.54
689.139	1.54
689.168	12.54
689.198	1.54
689.227	-4.46
689.257	0.54
689.287	19.54
689.316	-13.46
689.346	0.54
689.375	1.54
689.405	11.54
689.434	2.54
689.464	6.54
689.493	-6.46
689.523	9.54
689.552	2.54
689.582	10.54
689.611	9.54
689.641	19.54
689.67	9.54
689.7	18.54
689.73	16.54
689.759	14.54
689.789	25.54
689.818	11.54
689.848	7.54
689.877	23.54
689.906	3.54
689.936	3.54
689.965	21.54
689.995	6.54
690.024	11.54
690.054	-2.46
690.083	-6.46
690.113	4.54
690.142	3.54
690.172	-14.46
690.201	9.54
690.231	6.54
690.26	1.54
690.29	1.54
690.319	18.54
690.348	2.54
690.378	16.54
690.407	14.54
690.437	5.54
690.466	-2.46
690.496	-10.46
690.525	-1.46
690.555	-5.46
690.584	8.54
690.613	0.54
690.643	8.54
690.672	11.54
690.702	6.54
690.731	1.54
690.76	-4.46
690.79	-4.46
690.819	-6.46
690.849	14.54
690.878	7.54
690.907	11.54
690.937	10.54
690.966	10.54
690.996	4.54
691.025	-7.46
691.054	2.54
691.084	2.54
691.113	-6.46
691.142	18.54
691.172	17.54
691.201	37.54
691.23	5.54
691.26	25.54
691.289	6.54
691.319	0.54
691.348	-7.46
691.377	6.54
691.407	23.54
691.436	27.54
691.465	10.54
691.495	-6.46
691.524	-5.46
691.553	2.54
691.583	3.54
691.612	17.54
691.641	-15.46
691.67	-1.46
691.7	3.54
691.729	-11.46
691.758	2.54
691.788	1.54
691.817	0.54
691.846	3.54
691.876	10.54
691.905	-7.46
691.934	-2.46
691.963	16.54
691.993	13.54
692.022	4.54
692.051	-2.46
692.081	11.54
692.11	15.54
692.139	5.54
692.168	3.54
692.198	12.54
692.227	9.54
692.256	14.54
692.285	-0.46
692.315	18.54
692.344	3.54
692.373	6.54
692.402	-12.46
692.432	-15.46
692.461	5.54
692.49	-4.46
692.519	5.54
692.548	13.54
692.578	17.54
692.607	-4.46
692.636	-5.46
692.665	21.54
692.694	-8.46
692.724	-0.46
692.753	4.54
692.782	10.54
692.811	-1.46
692.84	8.54
692.87	12.54
692.899	22.54
692.928	18.54
692.957	12.54
692.986	-2.46
693.016	-6.46
693.045	10.54
693.074	9.54
693.103	11.54
693.132	1.54
693.161	8.54
693.191	6.54
693.22	9.54
693.249	3.54
693.278	-4.46
693.307	2.54
693.336	-18.46
693.365	-14.46
693.395	-0.46
693.424	-4.46
693.453	16.54
693.482	5.54
693.511	6.54
693.54	21.54
693.569	14.54
693.598	6.54
693.628	14.54
693.657	21.54
693.686	31.54
693.715	30.54
693.744	17.54
693.773	6.54
693.802	14.54
693.831	5.54
693.86	30.54
693.889	4.54
693.919	7.54
693.948	6.54
693.977	3.54
694.006	3.54
694.035	-1.46
694.064	-4.46
694.093	4.54
694.122	2.54
694.151	-1.46
694.18	13.54
694.209	23.54
694.238	22.54
694.267	31.54
694.296	32.54
694.325	10.54
694.354	8.54
694.383	-4.46
694.412	-5.46
694.441	-2.46
694.471	-2.46
694.5	5.54
694.529	17.54
694.558	33.54
694.587	3.54
694.616	1.54
694.645	10.54
694.674	9.54
694.703	20.54
694.732	-0.46
694.761	-0.46
694.79	3.54
694.819	-4.46
694.848	5.54
694.877	20.54
694.906	26.54
694.935	9.54
694.963	19.54
694.992	8.54
695.021	11.54
695.05	9.54
695.079	5.54
695.108	6.54
695.137	26.54
695.166	14.54
695.195	-20.46
695.224	17.54
695.253	-7.46
695.282	14.54
695.311	33.54
695.34	21.54
695.369	8.54
695.398	12.54
695.427	31.54
695.456	2.54
695.485	14.54
695.513	16.54
695.542	-4.46
695.571	-9.46
695.6	10.54
695.629	6.54
695.658	13.54
695.687	6.54
695.716	-5.46
695.745	21.54
695.774	3.54
695.802	-7.46
695.831	10.54
695.86	16.54
695.889	13.54
695.918	10.54
695.947	10.54
695.976	0.54
696.005	13.54
696.033	7.54
696.062	17.54
696.091	7.54
696.12	-6.46
696.149	23.54
696.178	1.54
696.207	7.54
696.235	-5.46
696.264	12.54
696.293	5.54
696.322	10.54
696.351	20.54
696.38	13.54
696.408	16.54
696.437	13.54
696.466	-3.46
696.495	10.54
696.524	12.54
696.553	-0.46
696.581	19.54
696.61	13.54
696.639	9.54
696.668	7.54
696.697	0.54
696.725	15.54
696.754	11.54
696.783	3.54
696.812	6.54
696.84	5.54
696.869	4.54
696.898	6.54
696.927	8.54
696.956	23.54
696.984	-8.46
697.013	5.54
697.042	-1.46
697.071	7.54
697.099	26.54
697.128	42.54
697.157	22.54
697.186	-0.46
697.214	9.54
697.243	-1.46
697.272	15.54
697.301	24.54
697.329	21.54
697.358	9.54
697.387	24.54
697.415	2.54
697.444	11.54
697.473	-3.46
697.502	9.54
697.53	8.54
697.559	8.54
697.588	-5.46
697.616	-6.46
697.645	-9.46
697.674	19.54
697.703	4.54
697.731	22.54
697.76	6.54
697.789	10.54
697.817	15.54
697.846	19.54
697.875	10.54
697.903	17.54
697.932	7.54
697.961	5.54
697.989	-4.46
698.018	12.54
698.047	2.54
698.075	3.54
698.104	13.54
698.133	11.54
698.161	-12.46
698.19	5.54
698.218	1.54
698.247	14.54
698.276	-7.46
698.304	3.54
698.333	10.54
698.362	6.54
698.39	-0.46
698.419	14.54
698.447	10.54
698.476	-3.46
698.505	9.54
698.533	13.54
698.562	16.54
698.591	-9.46
698.619	-2.46
698.648	11.54
698.676	15.54
698.705	7.54
698.733	8.54
698.762	27.54
698.791	-4.46
698.819	9.54
698.848	9.54
698.876	26.54
698.905	9.54
698.933	1.54
698.962	7.54
698.991	3.54
699.019	6.54
699.048	9.54
699.076	12.54
699.105	0.54
699.133	-9.46
699.162	6.54
699.19	25.54
699.219	18.54
699.248	8.54
699.276	8.54
699.305	-6.46
699.333	10.54
699.362	6.54
699.39	27.54
699.419	-3.46
699.447	2.54
699.476	17.54
699.504	3.54
699.533	-2.46
699.561	-11.46
699.59	-4.46
699.618	1.54
699.647	7.54
699.675	19.54
699.704	23.54
699.732	4.54
699.761	18.54
699.789	13.54
699.818	27.54
699.846	8.54
699.874	7.54
699.903	5.54
699.931	8.54
699.96	0.54
699.988	3.54
700.017	1.54
700.045	13.54
700.074	9.54
700.102	6.54
700.13	-8.46
700.159	3.54
700.187	-4.46
700.216	-9.46
700.244	-5.46
700.273	7.54
700.301	10.54
700.329	18.54
700.358	15.54
700.386	3.54
700.415	-14.46
700.443	14.54
700.472	-7.46
700.5	7.54
700.528	11.54
700.557	1.54
700.585	10.54
700.614	9.54
700.642	9.54
700.67	20.54
700.699	15.54
700.727	20.54
700.755	0.54
700.784	-2.46
700.812	8.54
700.841	11.54
700.869	3.54
700.897	4.54
700.926	5.54
700.954	14.54
700.982	25.54
701.011	-2.46
701.039	22.54
701.067	14.54
701.096	1.54
701.124	-3.46
701.152	-5.46
701.181	1.54
701.209	-16.46
701.237	2.54
701.266	2.54
701.294	-2.46
701.322	-2.46
701.351	20.54
701.379	19.54
701.407	-3.46
701.435	1.54
701.464	27.54
701.492	39.54
701.52	9.54
701.549	2.54
701.577	-2.46
701.605	1.54
701.634	3.54
701.662	12.54
701.69	10.54
701.718	-4.46
701.747	22.54
701.775	9.54
701.803	-1.46
701.831	9.54
701.86	14.54
701.888	0.54
701.916	-3.46
701.944	5.54
701.973	5.54
702.001	-5.46
702.029	-6.46
702.057	0.54
702.086	11.54
702.114	-10.46
702.142	8.54
702.17	-3.46
702.199	10.54
702.227	-11.46
702.255	7.54
702.283	1.54
702.311	9.54
702.34	9.54
702.368	1.54
702.396	-2.46
702.424	12.54
702.452	-0.46
702.481	13.54
702.509	10.54
702.537	9.54
702.565	-0.46
702.593	-6.46
702.621	-2.46
702.65	8.54
702.678	8.54
702.706	11.54
702.734	-16.46
702.762	20.54
702.79	5.54
702.819	11.54
702.847	26.54
702.875	15.54
702.903	24.54
702.931	-1.46
702.959	-1.46
702.988	14.54
703.016	9.54
703.044	6.54
703.072	3.54
703.1	-9.46
703.128	7.54
703.156	4.54
703.184	2.54
703.212	0.54
703.241	8.54
703.269	12.54
703.297	11.54
703.325	-9.46
703.353	-1.46
703.381	-16.46
703.409	-3.46
703.437	-7.46
703.465	-3.46
703.493	-2.46
703.522	19.54
703.55	15.54
703.578	13.54
703.606	14.54
703.634	-0.46
703.662	-4.46
703.69	2.54
703.718	14.54
703.746	12.54
703.774	11.54
703.802	26.54
703.83	7.54
703.858	-2.46
703.886	-17.46
703.914	2.54
703.942	6.54
703.97	-1.46
703.998	6.54
704.027	24.54
704.055	10.54
704.083	18.54
704.111	-0.46
704.139	14.54
704.167	2.54
704.195	10.54
704.223	1.54
704.251	6.54
704.279	2.54
704.307	3.54
704.335	-5.46
704.363	8.54
704.391	-7.46
704.419	1.54
704.447	-3.46
704.475	8.54
704.503	-7.46
704.531	13.54
704.558	3.54
704.586	3.54
704.614	-14.46
704.642	-0.46
704.67	-4.46
704.698	2.54
704.726	3.54
704.754	-9.46
704.782	-7.46
704.81	10.54
704.838	15.54
704.866	-1.46
704.894	-10.46
704.922	-7.46
704.95	9.54
704.978	20.54
705.006	9.54
705.034	6.54
705.061	1.54
705.089	3.54
705.117	12.54
705.145	-4.46
705.173	7.54
705.201	16.54
705.229	25.54
705.257	6.54
705.285	5.54
705.313	13.54
705.34	-6.46
705.368	-4.46
705.396	17.54
705.424	5.54
705.452	-16.46
705.48	4.54
705.508	4.54
705.536	-1.46
705.563	-10.46
705.591	3.54
705.619	6.54
705.647	7.54
705.675	17.54
705.703	15.54
705.731	1.54
705.758	2.54
705.786	13.54
705.814	19.54
705.842	6.54
705.87	16.54
705.898	22.54
705.925	2.54
705.953	2.54
705.981	-4.46
706.009	-1.46
706.037	18.54
706.065	-1.46
706.092	-9.46
706.12	9.54
706.148	-4.46
706.176	5.54
706.204	13.54
706.231	8.54
706.259	-6.46
706.287	-3.46
706.315	23.54
706.342	12.54
706.37	9.54
706.398	-6.46
706.426	-5.46
706.454	-0.46
706.481	-0.46
706.509	5.54
706.537	10.54
706.565	-0.46
706.592	2.54
706.62	3.54
706.648	3.54
706.676	1.54
706.703	12.54
706.731	10.54
706.759	3.54
706.787	-13.46
706.814	-5.46
706.842	3.54
706.87	-6.46
706.897	2.54
706.925	1.54
706.953	16.54
706.981	7.54
707.008	14.54
707.036	1.54
707.064	12.54
707.091	-2.46
707.119	17.54
707.147	9.54
707.174	-4.46
707.202	23.54
707.23	-6.46
707.258	-13.46
707.285	-0.46
707.313	5.54
707.341	-0.46
707.368	3.54
707.396	12.54
707.424	9.54
707.451	-2.46
707.479	1.54
707.507	7.54
707.534	7.54
707.562	7.54
707.59	-2.46
707.617	-3.46
707.645	-6.46
707.672	-0.46
707.7	9.54
707.728	14.54
707.755	13.54
707.783	-1.46
707.811	-3.46
707.838	0.54
707.866	14.54
707.893	0.54
707.921	2.54
707.949	-2.46
707.976	17.54
708.004	-0.46
708.031	-2.46
708.059	5.54
708.087	0.54
708.114	4.54
708.142	-2.46
708.169	5.54
708.197	0.54
708.225	13.54
708.252	16.54
708.28	2.54
708.307	-9.46
708.335	-5.46
708.362	-1.46
708.39	-1.46
708.418	-8.46
708.445	3.54
708.473	1.54
708.5	3.54
708.528	6.54
708.555	6.54
708.583	17.54
708.61	-6.46
708.638	-2.46
708.665	-12.46
708.693	4.54
708.72	1.54
708.748	1.54
708.776	-8.46
708.803	26.54
708.831	6.54
708.858	8.54
708.886	2.54
708.913	16.54
708.941	5.54
708.968	12.54
708.996	-9.46
709.023	18.54
709.051	10.54
709.078	1.54
709.105	13.54
709.133	12.54
709.16	9.54
709.188	13.54
709.215	2.54
709.243	13.54
709.27	13.54
709.298	6.54
709.325	-4.46
709.353	2.54
709.38	3.54
709.408	10.54
709.435	0.54
709.462	0.54
709.49	-1.46
709.517	0.54
709.545	11.54
709.572	9.54
709.6	5.54
709.627	-4.46
709.655	4.54
709.682	-5.46
709.709	0.54
709.737	-2.46
709.764	-0.46
709.792	11.54
709.819	7.54
709.846	-7.46
709.874	3.54
709.901	16.54
709.929	12.54
709.956	3.54
709.983	-10.46
710.011	2.54
710.038	-5.46
710.066	13.54
710.093	12.54
710.12	9.54
710.148	9.54
710.175	-14.46
710.202	-2.46
710.23	3.54
710.257	14.54
710.284	14.54
710.312	5.54
710.339	1.54
710.366	6.54
710.394	-5.46
710.421	4.54
710.448	-8.46
710.476	-1.46
710.503	4.54
710.53	23.54
710.558	18.54
710.585	18.54
710.612	11.54
710.64	-0.46
710.667	-0.46
710.694	-16.46
710.722	0.54
710.749	4.54
710.776	2.54
710.804	30.54
710.831	7.54
710.858	-1.46
710.885	8.54
710.913	6.54
710.94	16.54
710.967	0.54
710.995	-5.46
711.022	6.54
711.049	13.54
711.076	0.54
711.104	0.54
711.131	3.54
711.158	0.54
711.185	17.54
711.213	2.54
711.24	1.54
711.267	-0.46
711.294	5.54
711.322	9.54
711.349	-1.46
711.376	3.54
711.403	10.54
711.431	0.54
711.458	7.54
711.485	-3.46
711.512	10.54
711.54	3.54
711.567	0.54
711.594	1.54
711.621	6.54
711.648	6.54
711.676	7.54
711.703	4.54
711.73	2.54
711.757	5.54
711.784	-14.46
711.812	-15.46
711.839	5.54
711.866	-4.46
711.893	-16.46
711.92	9.54
711.947	13.54
711.975	24.54
712.002	-9.46
712.029	7.54
712.056	2.54
712.083	2.54
712.11	-6.46
712.138	8.54
712.165	0.54
712.192	5.54
712.219	-4.46
712.246	-20.46
712.273	2.54
712.3	-14.46
712.328	3.54
712.355	18.54
712.382	3.54
712.409	7.54
712.436	-5.46
712.463	7.54
712.49	-0.46
712.517	2.54
712.544	10.54
712.572	2.54
712.599	-5.46
712.626	7.54
712.653	-1.46
712.68	4.54
712.707	17.54
712.734	6.54
712.761	2.54
712.788	2.54
712.815	7.54
712.842	10.54
712.87	3.54
712.897	5.54
712.924	-12.46
712.951	10.54
712.978	34.54
713.005	14.54
713.032	3.54
713.059	2.54
713.086	-6.46
713.113	-1.46
713.14	0.54
713.167	7.54
713.194	11.54
713.221	13.54
713.248	12.54
713.275	3.54
713.302	2.54
713.329	9.54
713.356	25.54
713.383	2.54
713.41	8.54
713.437	-9.46
713.464	1.54
713.491	5.54
713.518	3.54
713.545	5.54
713.572	-6.46
713.599	24.54
713.626	-0.46
713.653	0.54
713.68	-1.46
713.707	-0.46
713.734	14.54
713.761	2.54
713.788	-10.46
713.815	22.54
713.842	6.54
713.869	2.54
713.896	10.54
713.923	0.54
713.95	2.54
713.977	5.54
714.004	-0.46
714.031	4.54
714.058	-3.46
714.085	4.54
714.112	18.54
714.139	-0.46
714.165	-1.46
714.192	-9.46
714.219	-5.46
714.246	9.54
714.273	10.54
714.3	7.54
714.327	7.54
714.354	6.54
714.381	2.54
714.408	5.54
714.435	2.54
714.461	-4.46
714.488	-0.46
714.515	2.54
714.542	-8.46
714.569	-7.46
714.596	-13.46
714.623	-5.46
714.65	-23.46
714.677	-1.46
714.703	6.54
714.73	-0.46
714.757	7.54
714.784	16.54
714.811	-4.46
714.838	9.54
714.865	6.54
714.891	1.54
714.918	-2.46
714.945	-8.46
714.972	10.54
714.999	11.54
715.026	2.54
715.052	16.54
715.079	9.54
715.106	0.54
715.133	22.54
715.16	20.54
715.187	-1.46
715.213	6.54
715.24	-11.46
715.267	-14.46
715.294	7.54
715.321	-3.46
715.347	0.54
715.374	-0.46
715.401	-13.46
715.428	-5.46
715.455	-1.46
715.481	-18.46
715.508	9.54
715.535	10.54
715.562	14.54
715.588	15.54
715.615	5.54
715.642	8.54
715.669	12.54
715.695	-5.46
715.722	-6.46
715.749	13.54
715.776	22.54
715.802	7.54
715.829	6.54
715.856	3.54
715.883	13.54
715.909	-3.46
715.936	11.54
715.963	14.54
715.99	-4.46
716.016	-4.46
716.043	1.54
716.07	0.54
716.096	-1.46
716.123	-3.46
716.15	-0.46
716.177	16.54
716.203	15.54
716.23	29.54
716.257	14.54
716.283	19.54
716.31	13.54
716.337	-4.46
716.363	-13.46
716.39	-9.46
716.417	5.54
716.443	2.54
716.47	11.54
716.497	16.54
716.523	6.54
716.55	2.54
716.577	5.54
716.603	3.54
716.63	2.54
716.657	24.54
716.683	0.54
716.71	-5.46
716.737	-8.46
716.763	15.54
716.79	5.54
716.817	-4.46
716.843	5.54
716.87	2.54
716.897	9.54
716.923	24.54
716.95	9.54
716.976	3.54
717.003	13.54
717.03	8.54
717.056	-1.46
717.083	-5.46
717.109	19.54
717.136	15.54
717.163	2.54
717.189	19.54
717.216	2.54
717.242	9.54
717.269	-2.46
717.296	1.54
717.322	10.54
717.349	9.54
717.375	5.54
717.402	1.54
717.428	-4.46
717.455	1.54
717.481	-9.46
717.508	7.54
717.535	17.54
717.561	11.54
717.588	5.54
717.614	6.54
717.641	0.54
717.667	1.54
717.694	15.54
717.72	-1.46
717.747	-4.46
717.773	1.54
717.8	-3.46
717.826	3.54
717.853	20.54
717.88	12.54
717.906	6.54
717.933	7.54
717.959	12.54
717.986	5.54
718.012	3.54
718.039	16.54
718.065	12.54
718.092	17.54
718.118	2.54
718.144	9.54
718.171	19.54
718.197	5.54
718.224	7.54
718.25	12.54
718.277	-4.46
718.303	14.54
718.33	3.54
718.356	1.54
718.383	-15.46
718.409	2.54
718.436	5.54
718.462	-9.46
718.489	3.54
718.515	26.54
718.541	16.54
718.568	9.54
718.594	7.54
718.621	18.54
718.647	5.54
718.674	6.54
718.7	12.54
718.726	9.54
718.753	8.54
718.779	25.54
718.806	-1.46
718.832	2.54
718.858	8.54
718.885	12.54
718.911	1.54
718.938	9.54
718.964	4.54
718.99	11.54
719.017	6.54
719.043	2.54
719.07	24.54
719.096	5.54
719.122	6.54
719.149	15.54
719.175	17.54
719.201	8.54
719.228	11.54
719.254	14.54
719.281	3.54
719.307	12.54
719.333	5.54
719.36	14.54
719.386	14.54
719.412	6.54
719.439	-5.46
719.465	0.54
719.491	-12.46
719.518	7.54
719.544	13.54
719.57	17.54
719.597	-4.46
719.623	5.54
719.649	9.54
719.675	-2.46
719.702	0.54
719.728	9.54
719.754	0.54
719.781	7.54
719.807	-0.46
719.833	-2.46
719.86	-4.46
719.886	-3.46
719.912	-6.46
719.938	-6.46
719.965	-4.46
719.991	22.54
720.017	13.54
720.044	-12.46
720.07	12.54
720.096	6.54
720.122	4.54
720.149	7.54
720.175	15.54
720.201	2.54
720.227	3.54
720.254	15.54
720.28	11.54
720.306	-13.46
720.332	5.54
720.359	10.54
720.385	3.54
720.411	-0.46
720.437	6.54
720.463	-1.46
720.49	15.54
720.516	-5.46
720.542	-30.46
720.568	6.54
720.595	10.54
720.621	-6.46
720.647	5.54
720.673	9.54
720.699	27.54
720.725	13.54
720.752	6.54
720.778	12.54
720.804	15.54
720.83	14.54
720.856	-3.46
720.883	-3.46
720.909	-2.46
720.935	8.54
720.961	20.54
720.987	17.54
721.013	8.54
721.04	-3.46
721.066	2.54
721.092	0.54
721.118	9.54
721.144	2.54
721.17	26.54
721.196	8.54
721.223	-16.46
721.249	-5.46
721.275	21.54
721.301	-4.46
721.327	-0.46
721.353	22.54
721.379	7.54
721.405	9.54
721.432	17.54
721.458	5.54
721.484	2.54
721.51	-14.46
721.536	12.54
721.562	6.54
721.588	0.54
721.614	14.54
721.64	6.54
721.666	12.54
721.693	8.54
721.719	2.54
721.745	-1.46
721.771	-5.46
721.797	-4.46
721.823	8.54
721.849	18.54
721.875	10.54
721.901	10.54
721.927	-7.46
721.953	3.54
721.979	14.54
722.005	6.54
722.031	6.54
722.057	12.54
722.083	13.54
722.109	12.54
722.135	-3.46
722.161	1.54
722.187	-2.46
722.214	-0.46
722.24	4.54
722.266	-7.46
722.292	15.54
722.318	10.54
722.344	18.54
722.37	17.54
722.396	13.54
722.422	5.54
722.448	1.54
722.474	-9.46
722.5	14.54
722.526	9.54
722.552	1.54
722.578	10.54
722.603	14.54
722.629	9.54
722.655	0.54
722.681	-4.46
722.707	-4.46
722.733	4.54
722.759	9.54
722.785	9.54
722.811	8.54
722.837	2.54
722.863	-9.46
722.889	13.54
722.915	7.54
722.941	6.54
722.967	4.54
722.993	5.54
723.019	0.54
723.045	11.54
723.071	7.54
723.097	8.54
723.122	16.54
723.148	1.54
723.174	13.54
723.2	25.54
723.226	10.54
723.252	21.54
723.278	-5.46
723.304	-9.46
723.33	-9.46
723.356	-1.46
723.381	0.54
723.407	-5.46
723.433	7.54
723.459	2.54
723.485	3.54
723.511	12.54
723.537	6.54
723.563	-0.46
723.588	-3.46
723.614	21.54
723.64	0.54
723.666	13.54
723.692	15.54
723.718	23.54
723.744	7.54
723.769	2.54
723.795	9.54
723.821	2.54
723.847	-9.46
723.873	5.54
723.899	9.54
723.924	3.54
723.95	-2.46
723.976	-12.46
724.002	-3.46
724.028	6.54
724.053	-1.46
724.079	-3.46
724.105	-1.46
724.131	7.54
724.157	14.54
724.182	7.54
724.208	1.54
724.234	15.54
724.26	2.54
724.286	21.54
724.311	13.54
724.337	-10.46
724.363	-4.46
724.389	3.54
724.415	13.54
724.44	20.54
724.466	5.54
724.492	3.54
724.518	13.54
724.543	13.54
724.569	5.54
724.595	16.54
724.621	4.54
724.646	9.54
724.672	10.54
724.698	7.54
724.723	-5.46
724.749	11.54
724.775	11.54
724.801	3.54
724.826	-5.46
724.852	0.54
724.878	11.54
724.904	-12.46
724.929	-0.46
724.955	5.54
724.981	1.54
725.006	8.54
725.032	3.54
725.058	17.54
725.083	-1.46
725.109	0.54
725.135	6.54
725.161	6.54
725.186	0.54
725.212	3.54
725.238	0.54
725.263	4.54
725.289	-14.46
725.315	1.54
725.34	0.54
725.366	5.54
725.392	9.54
725.417	15.54
725.443	6.54
725.468	3.54
725.494	14.54
725.52	-1.46
725.545	-0.46
725.571	-3.46
725.597	5.54
725.622	8.54
725.648	1.54
725.674	5.54
725.699	5.54
725.725	14.54
725.75	31.54
725.776	-4.46
725.802	11.54
725.827	16.54
725.853	2.54
725.878	10.54
725.904	3.54
725.93	13.54
725.955	-12.46
725.981	-10.46
726.006	3.54
726.032	18.54
726.057	-10.46
726.083	-1.46
726.109	4.54
726.134	0.54
726.16	12.54
726.185	-1.46
726.211	-12.46
726.236	12.54
726.262	14.54
726.288	11.54
726.313	3.54
726.339	18.54
726.364	16.54
726.39	38.54
726.415	13.54
726.441	4.54
726.466	-8.46
726.492	-2.46
726.517	18.54
726.543	-0.46
726.568	-2.46
726.594	-2.46
726.619	6.54
726.645	10.54
726.67	12.54
726.696	2.54
726.721	5.54
726.747	-6.46
726.772	-2.46
726.798	3.54
726.823	22.54
726.849	1.54
726.874	5.54
726.9	24.54
726.925	16.54
726.951	1.54
726.976	6.54
727.002	-2.46
727.027	2.54
727.053	26.54
727.078	16.54
727.104	11.54
727.129	-20.46
727.155	4.54
727.18	23.54
727.205	18.54
727.231	2.54
727.256	2.54
727.282	22.54
727.307	20.54
727.333	7.54
727.358	-14.46
727.383	-10.46
727.409	-18.46
727.434	11.54
727.46	1.54
727.485	-1.46
727.511	14.54
727.536	-10.46
727.561	2.54
727.587	-16.46
727.612	-9.46
727.637	-5.46
727.663	-10.46
727.688	23.54
727.714	4.54
727.739	-3.46
727.764	-7.46
727.79	5.54
727.815	14.54
727.841	2.54
727.866	8.54
727.891	10.54
727.917	7.54
727.942	-6.46
727.967	-16.46
727.993	-10.46
728.018	3.54
728.043	18.54
728.069	2.54
728.094	22.54
728.119	0.54
728.145	19.54
728.17	1.54
728.195	2.54
728.221	10.54
728.246	-2.46
728.271	3.54
728.297	13.54
728.322	-8.46
728.347	3.54
728.373	2.54
728.398	13.54
728.423	5.54
728.448	-2.46
728.474	-4.46
728.499	0.54
728.524	4.54
728.55	-7.46
728.575	2.54
728.6	-0.46
728.625	1.54
728.651	9.54
728.676	-0.46
728.701	2.54
728.727	7.54
728.752	1.54
728.777	-1.46
728.802	0.54
728.828	14.54
728.853	8.54
728.878	2.54
728.903	-6.46
728.929	-9.46
728.954	-1.46
728.979	9.54
729.004	1.54
729.03	-6.46
729.055	19.54
729.08	-14.46
729.105	-1.46
729.13	2.54
729.156	-1.46
729.181	-5.46
729.206	-13.46
729.231	-9.46
729.256	-1.46
729.282	4.54
729.307	-15.46
729.332	-1.46
729.357	5.54
729.382	6.54
729.408	-1.46
729.433	4.54
729.458	5.54
729.483	6.54
729.508	19.54
729.533	14.54
729.559	16.54
729.584	-2.46
729.609	11.54
729.634	9.54
729.659	5.54
729.684	-16.46
729.71	25.54
729.735	5.54
729.76	3.54
729.785	-2.46
729.81	20.54
729.835	3.54
729.86	6.54
729.886	16.54
729.911	7.54
729.936	10.54
729.961	17.54
729.986	-12.46
730.011	-6.46
730.036	0.54
730.061	6.54
730.086	11.54
730.112	-5.46
730.137	18.54
730.162	-6.46
730.187	-19.46
730.212	6.54
730.237	4.54
730.262	-17.46
730.287	11.54
730.312	18.54
730.337	3.54
730.362	14.54
730.387	8.54
730.413	2.54
730.438	2.54
730.463	7.54
730.488	-15.46
730.513	-6.46
730.538	-8.46
730.563	27.54
730.588	9.54
730.613	13.54
730.638	-15.46
730.663	6.54
730.688	21.54
730.713	-12.46
730.738	0.54
730.763	-5.46
730.788	-10.46
730.813	10.54
730.838	1.54
730.863	10.54
730.888	11.54
730.913	-1.46
730.938	-23.46
730.963	9.54
730.988	15.54
731.013	17.54
731.038	6.54
731.063	-1.46
731.088	5.54
731.113	-0.46
731.138	4.54
731.163	5.54
731.188	-13.46
731.213	-13.46
731.238	14.54
731.263	3.54
731.288	2.54
731.313	15.54
731.338	1.54
731.363	5.54
731.388	6.54
731.413	9.54
731.438	5.54
731.463	6.54
731.487	-6.46
731.512	-13.46
731.537	-0.46
731.562	-5.46
731.587	-5.46
731.612	-13.46
731.637	5.54
731.662	5.54
731.687	-1.46
731.712	3.54
731.737	1.54
731.762	6.54
731.786	3.54
731.811	21.54
731.836	23.54
731.861	3.54
731.886	-5.46
731.911	6.54
731.936	8.54
731.961	11.54
731.986	3.54
732.01	3.54
732.035	5.54
732.06	18.54
732.085	13.54
732.11	2.54
732.135	-2.46
732.16	2.54
732.184	5.54
732.209	-1.46
732.234	19.54
732.259	10.54
732.284	15.54
732.309	4.54
732.334	0.54
732.358	-13.46
732.383	-9.46
732.408	-12.46
732.433	8.54
732.458	12.54
732.482	16.54
732.507	6.54
732.532	-11.46
732.557	21.54
732.582	14.54
732.607	-1.46
732.631	-13.46
732.656	-18.46
732.681	-1.46
732.706	4.54
732.73	3.54
732.755	-6.46
732.78	1.54
732.805	5.54
732.83	1.54
732.854	10.54
732.879	7.54
732.904	3.54
732.929	7.54
732.953	13.54
732.978	17.54
733.003	-10.46
733.028	-5.46
733.052	10.54
733.077	11.54
733.102	3.54
733.127	3.54
733.151	-4.46
733.176	3.54
733.201	4.54
733.226	21.54
733.25	-6.46
733.275	2.54
733.3	-3.46
733.324	9.54
733.349	26.54
733.374	16.54
733.399	-5.46
733.423	3.54
733.448	-2.46
733.473	-2.46
733.497	1.54
733.522	-4.46
733.547	3.54
733.571	16.54
733.596	2.54
733.621	2.54
733.646	6.54
733.67	1.54
733.695	-24.46
733.72	6.54
733.744	6.54
733.769	9.54
733.794	26.54
733.818	6.54
733.843	-7.46
733.867	-1.46
733.892	-0.46
733.917	10.54
733.941	3.54
733.966	1.54
733.991	0.54
734.015	10.54
734.04	16.54
734.065	5.54
734.089	1.54
734.114	-6.46
734.138	13.54
734.163	-14.46
734.188	16.54
734.212	14.54
734.237	18.54
734.261	13.54
734.286	1.54
734.311	-2.46
734.335	-2.46
734.36	-14.46
734.384	2.54
734.409	3.54
734.434	5.54
734.458	-5.46
734.483	11.54
734.507	1.54
734.532	7.54
734.556	3.54
734.581	8.54
734.606	5.54
734.63	-0.46
734.655	6.54
734.679	12.54
734.704	5.54
734.728	-0.46
734.753	10.54
734.777	8.54
734.802	-6.46
734.826	1.54
734.851	3.54
734.876	10.54
734.9	13.54
734.925	32.54
734.949	11.54
734.974	3.54
734.998	4.54
735.023	-10.46
735.047	-5.46
735.072	25.54
735.096	2.54
735.121	7.54
735.145	6.54
735.17	6.54
735.194	11.54
735.219	9.54
735.243	1.54
735.268	4.54
735.292	21.54
735.317	15.54
735.341	13.54
735.365	2.54
735.39	1.54
735.414	6.54
735.439	5.54
735.463	6.54
735.488	8.54
735.512	6.54
735.537	9.54
735.561	-6.46
735.586	14.54
735.61	1.54
735.634	-4.46
735.659	12.54
735.683	22.54
735.708	-13.46
735.732	-2.46
735.757	0.54
735.781	5.54
735.805	8.54
735.83	3.54
735.854	11.54
735.879	-0.46
735.903	17.54
735.927	14.54
735.952	2.54
735.976	-0.46
736.001	16.54
736.025	9.54
736.049	11.54
736.074	11.54
736.098	5.54
736.123	6.54
736.147	-1.46
736.171	9.54
736.196	1.54
736.22	-7.46
736.244	-9.46
736.269	-6.46
736.293	5.54
736.317	1.54
736.342	18.54
736.366	7.54
736.39	7.54
736.415	7.54
736.439	-10.46
736.463	-2.46
736.488	-0.46
736.512	9.54
736.536	8.54
736.561	17.54
736.585	7.54
736.609	4.54
736.634	1.54
736.658	9.54
736.682	6.54
736.707	4.54
736.731	-0.46
736.755	-5.46
736.78	25.54
736.804	18.54
736.828	14.54
736.852	0.54
736.877	-0.46
736.901	3.54
736.925	9.54
736.949	8.54
736.974	-6.46
736.998	-2.46
737.022	-1.46
737.047	7.54
737.071	14.54
737.095	23.54
737.119	22.54
737.144	16.54
737.168	-5.46
737.192	3.54
737.216	19.54
737.241	-27.46
737.265	4.54
737.289	-2.46
737.313	2.54
737.337	11.54
737.362	5.54
737.386	9.54
737.41	-2.46
737.434	2.54
737.459	3.54
737.483	20.54
737.507	15.54
737.531	22.54
737.555	1.54
737.58	6.54
737.604	5.54
737.628	-9.46
737.652	1.54
737.676	0.54
737.701	-1.46
737.725	0.54
737.749	0.54
737.773	3.54
737.797	-6.46
737.821	6.54
737.846	16.54
737.87	23.54
737.894	1.54
737.918	-0.46
737.942	8.54
737.966	12.54
737.99	8.54
738.015	-6.46
738.039	3.54
738.063	-4.46
738.087	15.54
738.111	5.54
738.135	22.54
738.159	-4.46
738.184	6.54
738.208	1.54
738.232	-1.46
738.256	9.54
738.28	15.54
738.304	30.54
738.328	-0.46
738.352	0.54
738.376	5.54
738.4	12.54
738.425	-0.46
738.449	-4.46
738.473	18.54
738.497	8.54
738.521	12.54
738.545	7.54
738.569	-7.46
738.593	22.54
738.617	14.54
738.641	9.54
738.665	14.54
738.689	-2.46
738.713	3.54
738.737	8.54
738.762	11.54
738.786	14.54
738.81	11.54
738.834	9.54
738.858	-4.46
738.882	5.54
738.906	-21.46
738.93	-4.46
738.954	7.54
738.978	9.54
739.002	5.54
739.026	26.54
739.05	-3.46
739.074	-1.46
739.098	24.54
739.122	27.54
739.146	23.54
739.17	18.54
739.194	24.54
739.218	1.54
739.242	-2.46
739.266	0.54
739.29	13.54
739.314	14.54
739.338	12.54
739.362	17.54
739.386	9.54
739.41	13.54
739.434	2.54
739.458	33.54
739.482	20.54
739.506	26.54
739.53	5.54
739.554	8.54
739.577	6.54
739.601	19.54
739.625	-12.46
739.649	2.54
739.673	-0.46
739.697	19.54
739.721	13.54
739.745	18.54
739.769	22.54
739.793	2.54
739.817	18.54
739.841	9.54
739.865	14.54
739.889	-6.46
739.912	9.54
739.936	-6.46
739.96	1.54
739.984	18.54
740.008	1.54
740.032	2.54
740.056	2.54
740.08	16.54
740.104	5.54
740.127	9.54
740.151	13.54
740.175	11.54
740.199	10.54
740.223	48.54
740.247	16.54
740.271	14.54
740.295	-2.46
740.318	8.54
740.342	15.54
740.366	17.54
740.39	8.54
740.414	14.54
740.438	2.54
740.461	21.54
740.485	6.54
740.509	7.54
740.533	21.54
740.557	2.54
740.581	6.54
740.604	-2.46
740.628	-5.46
740.652	5.54
740.676	4.54
740.7	16.54
740.723	-1.46
740.747	5.54
740.771	-5.46
740.795	1.54
740.819	19.54
740.842	5.54
740.866	11.54
740.89	9.54
740.914	-6.46
740.938	-8.46
740.961	8.54
740.985	-5.46
741.009	2.54
741.033	20.54
741.056	13.54
741.08	7.54
741.104	-11.46
741.128	-0.46
741.151	1.54
741.175	17.54
741.199	12.54
741.223	20.54
741.246	-10.46
741.27	-0.46
741.294	10.54
741.318	1.54
741.341	-0.46
741.365	-12.46
741.389	8.54
741.413	20.54
741.436	26.54
741.46	6.54
741.484	22.54
741.507	-3.46
741.531	16.54
741.555	26.54
741.579	3.54
741.602	2.54
741.626	5.54
741.65	1.54
741.673	10.54
741.697	25.54
741.721	17.54
741.744	-4.46
741.768	-15.46
741.792	10.54
741.815	4.54
741.839	15.54
741.863	26.54
741.886	28.54
741.91	7.54
741.934	-0.46
741.957	-7.46
741.981	21.54
742.005	10.54
742.028	-12.46
742.052	-2.46
742.075	6.54
742.099	16.54
742.123	1.54
742.146	4.54
742.17	1.54
742.194	-5.46
742.217	2.54
742.241	-1.46
742.264	11.54
742.288	21.54
742.312	10.54
742.335	2.54
742.359	3.54
742.382	10.54
742.406	18.54
742.43	11.54
742.453	5.54
742.477	-1.46
742.5	-0.46
742.524	1.54
742.548	-8.46
742.571	1.54
742.595	-3.46
742.618	0.54
742.642	-1.46
742.665	18.54
742.689	-5.46
742.712	18.54
742.736	0.54
742.76	15.54
742.783	0.54
742.807	16.54
742.83	5.54
742.854	-20.46
742.877	-2.46
742.901	3.54
742.924	7.54
742.948	18.54
742.971	7.54
742.995	8.54
743.018	-6.46
743.042	-4.46
743.065	-1.46
743.089	-1.46
743.112	10.54
743.136	-5.46
743.159	-8.46
743.183	-10.46
743.206	24.54
743.23	3.54
743.253	8.54
743.277	16.54
743.3	14.54
743.324	5.54
743.347	-10.46
743.371	16.54
743.394	3.54
743.418	17.54
743.441	16.54
743.465	-1.46
743.488	1.54
743.512	-10.46
743.535	4.54
743.558	10.54
743.582	13.54
743.605	5.54
743.629	-0.46
743.652	9.54
743.676	-2.46
743.699	13.54
743.723	12.54
743.746	0.54
743.769	13.54
743.793	1.54
743.816	7.54
743.84	15.54
743.863	14.54
743.886	13.54
743.91	21.54
743.933	-0.46
743.957	0.54
743.98	4.54
744.003	14.54
744.027	3.54
744.05	6.54
744.074	-10.46
744.097	-16.46
744.12	-4.46
744.144	-6.46
744.167	13.54
744.19	3.54
744.214	-5.46
744.237	5.54
744.26	13.54
744.284	3.54
744.307	-5.46
744.331	7.54
744.354	-6.46
744.377	-3.46
744.401	8.54
744.424	7.54
744.447	-6.46
744.471	5.54
