Data from HighRes_H2D2_15_04_11_07_2024_HR4C61891__67__15-05-41-143.txt Node

Date: Thu Nov 07 15:05:41 EST 2024
User: crc00042
Spectrometer: HR4C6189
Trigger mode: 4
Integration Time (sec): 1.000000E-1
Scans to average: 1
Electric dark correction enabled: true
Nonlinearity correction enabled: false
Boxcar width: 0
XAxis mode: Wavelengths
Number of Pixels in Spectrum: 3648
>>>>>Begin Spectral Data<<<<<
639.567	-75.15
639.602	-75.15
639.636	-75.15
639.67	-40.15
639.704	-15.15
639.738	-4.15
639.773	27.85
639.807	-7.15
639.841	-1.15
639.875	16.85
639.909	6.85
639.943	-6.15
639.978	2.85
640.012	4.85
640.046	-12.15
640.08	-17.15
640.114	-4.15
640.148	-7.15
640.182	-8.15
640.217	-6.15
640.251	25.85
640.285	10.85
640.319	8.85
640.353	8.85
640.387	8.85
640.421	13.85
640.455	6.85
640.49	-1.15
640.524	-5.15
640.558	3.85
640.592	-3.15
640.626	0.85
640.66	5.85
640.694	6.85
640.728	10.85
640.762	-1.15
640.796	16.85
640.83	15.85
640.865	-9.15
640.899	-6.15
640.933	-1.15
640.967	-3.15
641.001	-0.15
641.035	0.85
641.069	-11.15
641.103	-10.15
641.137	-9.15
641.171	-5.15
641.205	4.85
641.239	16.85
641.273	18.85
641.307	29.85
641.341	1.85
641.375	-0.15
641.409	-15.15
641.443	-3.15
641.477	7.85
641.511	-0.15
641.545	-1.15
641.579	11.85
641.614	6.85
641.648	2.85
641.682	-3.15
641.716	-5.15
641.75	7.85
641.784	6.85
641.818	2.85
641.852	12.85
641.886	-5.15
641.919	12.85
641.953	0.85
641.987	-2.15
642.021	4.85
642.055	13.85
642.089	-1.15
642.123	-1.15
642.157	-6.15
642.191	-4.15
642.225	13.85
642.259	-6.15
642.293	21.85
642.327	-4.15
642.361	5.85
642.395	5.85
642.429	17.85
642.463	14.85
642.497	12.85
642.531	11.85
642.565	-2.15
642.599	20.85
642.633	-14.15
642.666	7.85
642.7	11.85
642.734	11.85
642.768	0.85
642.802	-0.15
642.836	11.85
642.87	-6.15
642.904	13.85
642.938	0.85
642.972	-1.15
643.005	1.85
643.039	5.85
643.073	-4.15
643.107	6.85
643.141	-0.15
643.175	-14.15
643.209	-6.15
643.243	-1.15
643.276	8.85
643.31	-8.15
643.344	-14.15
643.378	4.85
643.412	11.85
643.446	1.85
643.48	-4.15
643.513	16.85
643.547	8.85
643.581	-4.15
643.615	10.85
643.649	10.85
643.683	12.85
643.716	-1.15
643.75	2.85
643.784	-8.15
643.818	0.85
643.852	-9.15
643.886	-4.15
643.919	8.85
643.953	-2.15
643.987	-14.15
644.021	13.85
644.055	10.85
644.088	7.85
644.122	1.85
644.156	-2.15
644.19	-5.15
644.224	-9.15
644.257	1.85
644.291	1.85
644.325	8.85
644.359	-10.15
644.392	13.85
644.426	9.85
644.46	-13.15
644.494	2.85
644.527	-9.15
644.561	-0.15
644.595	7.85
644.629	6.85
644.662	-14.15
644.696	14.85
644.73	15.85
644.764	9.85
644.797	14.85
644.831	1.85
644.865	13.85
644.899	2.85
644.932	15.85
644.966	9.85
645	14.85
645.033	16.85
645.067	-7.15
645.101	7.85
645.135	-17.15
645.168	-18.15
645.202	-5.15
645.236	-3.15
645.269	8.85
645.303	-6.15
645.337	-10.15
645.37	-9.15
645.404	9.85
645.438	-10.15
645.471	1.85
645.505	7.85
645.539	0.85
645.572	-4.15
645.606	-7.15
645.64	-1.15
645.673	10.85
645.707	25.85
645.741	0.85
645.774	-8.15
645.808	-5.15
645.842	-10.15
645.875	1.85
645.909	11.85
645.943	5.85
645.976	19.85
646.01	22.85
646.043	-0.15
646.077	8.85
646.111	-5.15
646.144	15.85
646.178	12.85
646.212	-4.15
646.245	-2.15
646.279	6.85
646.312	-7.15
646.346	9.85
646.38	-7.15
646.413	6.85
646.447	20.85
646.48	-4.15
646.514	2.85
646.547	-13.15
646.581	3.85
646.615	-4.15
646.648	-6.15
646.682	11.85
646.715	0.85
646.749	3.85
646.782	-3.15
646.816	3.85
646.85	2.85
646.883	0.85
646.917	5.85
646.95	7.85
646.984	10.85
647.017	9.85
647.051	-1.15
647.084	2.85
647.118	-16.15
647.151	-3.15
647.185	6.85
647.218	-5.15
647.252	-1.15
647.285	-5.15
647.319	-4.15
647.353	1.85
647.386	12.85
647.42	-4.15
647.453	-6.15
647.487	0.85
647.52	7.85
647.553	13.85
647.587	11.85
647.62	-0.15
647.654	5.85
647.687	14.85
647.721	7.85
647.754	10.85
647.788	-3.15
647.821	-14.15
647.855	-19.15
647.888	12.85
647.922	9.85
647.955	2.85
647.989	-2.15
648.022	-4.15
648.055	7.85
648.089	7.85
648.122	24.85
648.156	3.85
648.189	-3.15
648.223	3.85
648.256	22.85
648.29	-0.15
648.323	-9.15
648.356	8.85
648.39	9.85
648.423	5.85
648.457	-11.15
648.49	5.85
648.523	20.85
648.557	13.85
648.59	-5.15
648.624	1.85
648.657	-4.15
648.69	6.85
648.724	10.85
648.757	19.85
648.791	-1.15
648.824	14.85
648.857	13.85
648.891	4.85
648.924	1.85
648.957	12.85
648.991	-4.15
649.024	3.85
649.057	2.85
649.091	-9.15
649.124	6.85
649.158	6.85
649.191	24.85
649.224	11.85
649.258	-3.15
649.291	9.85
649.324	11.85
649.358	18.85
649.391	12.85
649.424	13.85
649.458	-5.15
649.491	-7.15
649.524	-10.15
649.557	-3.15
649.591	-7.15
649.624	4.85
649.657	1.85
649.691	5.85
649.724	-4.15
649.757	-7.15
649.791	-8.15
649.824	16.85
649.857	4.85
649.89	6.85
649.924	-20.15
649.957	-12.15
649.99	-14.15
650.023	-9.15
650.057	3.85
650.09	19.85
650.123	8.85
650.157	5.85
650.19	20.85
650.223	-1.15
650.256	-28.15
650.29	-7.15
650.323	0.85
650.356	6.85
650.389	0.85
650.423	-15.15
650.456	5.85
650.489	-1.15
650.522	9.85
650.555	11.85
650.589	0.85
650.622	-2.15
650.655	19.85
650.688	8.85
650.721	5.85
650.755	8.85
650.788	17.85
650.821	5.85
650.854	-2.15
650.887	-3.15
650.921	0.85
650.954	2.85
650.987	-8.15
651.02	-10.15
651.053	4.85
651.087	1.85
651.12	13.85
651.153	1.85
651.186	3.85
651.219	-8.15
651.252	29.85
651.286	14.85
651.319	-6.15
651.352	-2.15
651.385	10.85
651.418	11.85
651.451	9.85
651.484	10.85
651.518	-6.15
651.551	30.85
651.584	1.85
651.617	18.85
651.65	-4.15
651.683	24.85
651.716	8.85
651.749	-9.15
651.783	-10.15
651.816	-2.15
651.849	8.85
651.882	-3.15
651.915	-4.15
651.948	2.85
651.981	-15.15
652.014	-17.15
652.047	-16.15
652.08	-14.15
652.114	11.85
652.147	-8.15
652.18	11.85
652.213	32.85
652.246	-0.15
652.279	-8.15
652.312	17.85
652.345	-1.15
652.378	9.85
652.411	17.85
652.444	11.85
652.477	7.85
652.51	2.85
652.543	-6.15
652.576	3.85
652.609	2.85
652.642	10.85
652.675	7.85
652.709	-2.15
652.742	9.85
652.775	11.85
652.808	-1.15
652.841	2.85
652.874	9.85
652.907	9.85
652.94	-6.15
652.973	-20.15
653.006	-3.15
653.039	0.85
653.072	18.85
653.105	8.85
653.138	-12.15
653.171	-17.15
653.204	-0.15
653.237	10.85
653.27	2.85
653.303	11.85
653.336	5.85
653.368	2.85
653.401	0.85
653.434	-10.15
653.467	2.85
653.5	-6.15
653.533	-2.15
653.566	-0.15
653.599	3.85
653.632	2.85
653.665	13.85
653.698	-10.15
653.731	0.85
653.764	11.85
653.797	20.85
653.83	-6.15
653.863	16.85
653.896	3.85
653.929	-5.15
653.961	7.85
653.994	1.85
654.027	2.85
654.06	-5.15
654.093	7.85
654.126	-1.15
654.159	-8.15
654.192	9.85
654.225	13.85
654.258	5.85
654.29	2.85
654.323	-4.15
654.356	-8.15
654.389	16.85
654.422	-1.15
654.455	-2.15
654.488	4.85
654.521	-18.15
654.553	-17.15
654.586	-8.15
654.619	-6.15
654.652	-16.15
654.685	1.85
654.718	3.85
654.751	11.85
654.783	-2.15
654.816	13.85
654.849	-11.15
654.882	-7.15
654.915	-20.15
654.948	8.85
654.98	-3.15
655.013	-14.15
655.046	-12.15
655.079	-10.15
655.112	-0.15
655.144	-2.15
655.177	11.85
655.21	12.85
655.243	5.85
655.276	12.85
655.308	-0.15
655.341	6.85
655.374	7.85
655.407	14.85
655.44	5.85
655.472	10.85
655.505	0.85
655.538	-8.15
655.571	5.85
655.603	-5.15
655.636	-0.15
655.669	-4.15
655.702	2.85
655.734	-14.15
655.767	8.85
655.8	8.85
655.833	12.85
655.865	25.85
655.898	10.85
655.931	14.85
655.964	16.85
655.996	22.85
656.029	41.85
656.062	23.85
656.095	44.85
656.127	77.85
656.16	201.85
656.193	623.85
656.225	983.85
656.258	556.85
656.291	209.85
656.324	170.85
656.356	358.85
656.389	764.85
656.422	661.85
656.454	248.85
656.487	93.85
656.52	33.85
656.552	9.85
656.585	21.85
656.618	13.85
656.65	17.85
656.683	5.85
656.716	8.85
656.748	8.85
656.781	-10.15
656.814	6.85
656.846	10.85
656.879	-0.15
656.912	-9.15
656.944	-9.15
656.977	-0.15
657.01	10.85
657.042	6.85
657.075	17.85
657.108	-2.15
657.14	-1.15
657.173	8.85
657.205	23.85
657.238	17.85
657.271	6.85
657.303	-12.15
657.336	6.85
657.369	1.85
657.401	-3.15
657.434	10.85
657.466	6.85
657.499	-15.15
657.532	-6.15
657.564	21.85
657.597	7.85
657.629	16.85
657.662	-6.15
657.694	5.85
657.727	-20.15
657.76	10.85
657.792	-10.15
657.825	-7.15
657.857	-5.15
657.89	0.85
657.922	12.85
657.955	-14.15
657.987	5.85
658.02	4.85
658.053	22.85
658.085	16.85
658.118	17.85
658.15	21.85
658.183	17.85
658.215	0.85
658.248	-10.15
658.28	0.85
658.313	7.85
658.345	5.85
658.378	11.85
658.41	0.85
658.443	7.85
658.475	5.85
658.508	0.85
658.54	6.85
658.573	0.85
658.605	17.85
658.638	6.85
658.67	-4.15
658.703	9.85
658.735	2.85
658.768	12.85
658.8	4.85
658.833	22.85
658.865	-1.15
658.898	-2.15
658.93	-6.15
658.963	16.85
658.995	-7.15
659.028	6.85
659.06	9.85
659.092	-0.15
659.125	-2.15
659.157	10.85
659.19	-0.15
659.222	10.85
659.255	5.85
659.287	7.85
659.32	-13.15
659.352	3.85
659.384	2.85
659.417	-3.15
659.449	4.85
659.482	6.85
659.514	-20.15
659.546	-17.15
659.579	-6.15
659.611	-8.15
659.644	-5.15
659.676	-7.15
659.708	-8.15
659.741	-4.15
659.773	1.85
659.806	1.85
659.838	8.85
659.87	-1.15
659.903	-2.15
659.935	5.85
659.967	14.85
660	9.85
660.032	-10.15
660.065	9.85
660.097	-2.15
660.129	8.85
660.162	12.85
660.194	-0.15
660.226	17.85
660.259	8.85
660.291	16.85
660.323	9.85
660.356	8.85
660.388	-7.15
660.42	-1.15
660.453	5.85
660.485	3.85
660.517	4.85
660.55	7.85
660.582	7.85
660.614	9.85
660.647	-2.15
660.679	-17.15
660.711	14.85
660.743	-10.15
660.776	-8.15
660.808	6.85
660.84	-5.15
660.873	1.85
660.905	2.85
660.937	5.85
660.969	2.85
661.002	-1.15
661.034	4.85
661.066	10.85
661.099	24.85
661.131	8.85
661.163	-0.15
661.195	13.85
661.228	22.85
661.26	-6.15
661.292	5.85
661.324	17.85
661.357	8.85
661.389	17.85
661.421	12.85
661.453	-2.15
661.485	-0.15
661.518	6.85
661.55	-9.15
661.582	-8.15
661.614	-2.15
661.647	-1.15
661.679	-3.15
661.711	9.85
661.743	-7.15
661.775	-0.15
661.808	22.85
661.84	-4.15
661.872	4.85
661.904	-2.15
661.936	-4.15
661.969	-2.15
662.001	-7.15
662.033	-1.15
662.065	-4.15
662.097	15.85
662.129	22.85
662.162	-9.15
662.194	2.85
662.226	4.85
662.258	2.85
662.29	0.85
662.322	-8.15
662.355	-4.15
662.387	20.85
662.419	-3.15
662.451	9.85
662.483	2.85
662.515	8.85
662.547	-3.15
662.58	8.85
662.612	-4.15
662.644	-10.15
662.676	-8.15
662.708	11.85
662.74	2.85
662.772	4.85
662.804	2.85
662.836	-0.15
662.869	-20.15
662.901	9.85
662.933	-2.15
662.965	9.85
662.997	2.85
663.029	-6.15
663.061	-2.15
663.093	-7.15
663.125	-11.15
663.157	10.85
663.189	12.85
663.221	9.85
663.254	1.85
663.286	10.85
663.318	-15.15
663.35	-9.15
663.382	2.85
663.414	6.85
663.446	0.85
663.478	4.85
663.51	26.85
663.542	9.85
663.574	-3.15
663.606	8.85
663.638	-1.15
663.67	0.85
663.702	-10.15
663.734	0.85
663.766	9.85
663.798	-1.15
663.83	-3.15
663.862	6.85
663.894	-3.15
663.926	-2.15
663.958	20.85
663.99	4.85
664.022	-2.15
664.054	0.85
664.086	-0.15
664.118	-16.15
664.15	-11.15
664.182	-10.15
664.214	11.85
664.246	10.85
664.278	2.85
664.31	21.85
664.342	6.85
664.374	-14.15
664.406	0.85
664.438	-1.15
664.47	11.85
664.502	-6.15
664.534	-3.15
664.566	0.85
664.598	2.85
664.63	2.85
664.662	-2.15
664.693	-4.15
664.725	4.85
664.757	2.85
664.789	-12.15
664.821	9.85
664.853	0.85
664.885	-17.15
664.917	-16.15
664.949	16.85
664.981	8.85
665.013	9.85
665.045	1.85
665.076	-5.15
665.108	1.85
665.14	2.85
665.172	-7.15
665.204	-18.15
665.236	-7.15
665.268	12.85
665.3	21.85
665.331	-10.15
665.363	-13.15
665.395	-4.15
665.427	-5.15
665.459	9.85
665.491	13.85
665.523	3.85
665.555	-0.15
665.586	-11.15
665.618	1.85
665.65	-3.15
665.682	15.85
665.714	-12.15
665.746	-15.15
665.777	-6.15
665.809	-8.15
665.841	4.85
665.873	-7.15
665.905	15.85
665.937	11.85
665.968	-0.15
666	5.85
666.032	-3.15
666.064	-1.15
666.096	8.85
666.127	10.85
666.159	15.85
666.191	10.85
666.223	13.85
666.255	-3.15
666.286	5.85
666.318	14.85
666.35	14.85
666.382	16.85
666.413	-9.15
666.445	-22.15
666.477	-2.15
666.509	9.85
666.54	16.85
666.572	9.85
666.604	4.85
666.636	6.85
666.667	21.85
666.699	15.85
666.731	15.85
666.763	-1.15
666.794	-6.15
666.826	2.85
666.858	3.85
666.89	8.85
666.921	-10.15
666.953	-3.15
666.985	-4.15
667.017	13.85
667.048	-5.15
667.08	7.85
667.112	-2.15
667.143	-15.15
667.175	3.85
667.207	-6.15
667.238	15.85
667.27	11.85
667.302	6.85
667.334	-0.15
667.365	3.85
667.397	4.85
667.429	-21.15
667.46	8.85
667.492	2.85
667.524	-1.15
667.555	6.85
667.587	8.85
667.619	0.85
667.65	-3.15
667.682	-1.15
667.714	5.85
667.745	-5.15
667.777	5.85
667.808	0.85
667.84	12.85
667.872	8.85
667.903	7.85
667.935	-9.15
667.967	-9.15
667.998	13.85
668.03	15.85
668.061	11.85
668.093	2.85
668.125	10.85
668.156	-2.15
668.188	-7.15
668.22	2.85
668.251	6.85
668.283	13.85
668.314	29.85
668.346	-1.15
668.377	-1.15
668.409	-7.15
668.441	7.85
668.472	4.85
668.504	5.85
668.535	-1.15
668.567	17.85
668.599	9.85
668.63	1.85
668.662	-7.15
668.693	2.85
668.725	0.85
668.756	8.85
668.788	-5.15
668.819	6.85
668.851	13.85
668.882	-3.15
668.914	-2.15
668.946	8.85
668.977	-1.15
669.009	-16.15
669.04	-4.15
669.072	10.85
669.103	-12.15
669.135	-5.15
669.166	-10.15
669.198	-2.15
669.229	-0.15
669.261	-0.15
669.292	-9.15
669.324	2.85
669.355	-1.15
669.387	1.85
669.418	13.85
669.45	-1.15
669.481	-7.15
669.513	-0.15
669.544	2.85
669.576	-1.15
669.607	11.85
669.639	8.85
669.67	-8.15
669.701	-2.15
669.733	-6.15
669.764	-3.15
669.796	2.85
669.827	-3.15
669.859	-1.15
669.89	6.85
669.922	8.85
669.953	-2.15
669.985	4.85
670.016	4.85
670.047	-2.15
670.079	-24.15
670.11	1.85
670.142	8.85
670.173	2.85
670.204	-6.15
670.236	1.85
670.267	1.85
670.299	-7.15
670.33	-6.15
670.362	-0.15
670.393	-5.15
670.424	3.85
670.456	-7.15
670.487	-6.15
670.518	-5.15
670.55	0.85
670.581	15.85
670.613	18.85
670.644	5.85
670.675	-5.15
670.707	4.85
670.738	9.85
670.769	-5.15
670.801	3.85
670.832	7.85
670.864	1.85
670.895	1.85
670.926	-9.15
670.958	-10.15
670.989	-6.15
671.02	-17.15
671.052	-2.15
671.083	18.85
671.114	5.85
671.146	6.85
671.177	-2.15
671.208	-19.15
671.24	-17.15
671.271	8.85
671.302	-1.15
671.333	-3.15
671.365	3.85
671.396	-1.15
671.427	8.85
671.459	8.85
671.49	8.85
671.521	0.85
671.553	1.85
671.584	8.85
671.615	-4.15
671.646	-3.15
671.678	5.85
671.709	-0.15
671.74	-9.15
671.771	-13.15
671.803	-3.15
671.834	2.85
671.865	6.85
671.896	7.85
671.928	-3.15
671.959	-5.15
671.99	-9.15
672.021	-3.15
672.053	-10.15
672.084	4.85
672.115	-6.15
672.146	-3.15
672.178	-6.15
672.209	-13.15
672.24	-3.15
672.271	16.85
672.303	3.85
672.334	-5.15
672.365	-5.15
672.396	4.85
672.427	13.85
672.459	16.85
672.49	26.85
672.521	6.85
672.552	4.85
672.583	7.85
672.615	-2.15
672.646	16.85
672.677	-18.15
672.708	-20.15
672.739	5.85
672.77	3.85
672.802	0.85
672.833	-15.15
672.864	20.85
672.895	-21.15
672.926	-5.15
672.957	-2.15
672.989	6.85
673.02	5.85
673.051	1.85
673.082	15.85
673.113	-10.15
673.144	2.85
673.175	3.85
673.206	-11.15
673.238	-3.15
673.269	-11.15
673.3	-15.15
673.331	20.85
673.362	8.85
673.393	5.85
673.424	17.85
673.455	27.85
673.487	21.85
673.518	3.85
673.549	-3.15
673.58	-2.15
673.611	15.85
673.642	-15.15
673.673	-21.15
673.704	0.85
673.735	4.85
673.766	2.85
673.797	-5.15
673.828	-2.15
673.86	-22.15
673.891	-10.15
673.922	-17.15
673.953	-5.15
673.984	16.85
674.015	9.85
674.046	1.85
674.077	-2.15
674.108	-0.15
674.139	7.85
674.17	-15.15
674.201	-9.15
674.232	-2.15
674.263	-17.15
674.294	-7.15
674.325	-19.15
674.356	10.85
674.387	7.85
674.418	24.85
674.449	-19.15
674.48	-3.15
674.511	5.85
674.542	1.85
674.573	-8.15
674.604	6.85
674.635	3.85
674.666	4.85
674.697	5.85
674.728	5.85
674.759	6.85
674.79	-10.15
674.821	-0.15
674.852	-3.15
674.883	-2.15
674.914	6.85
674.945	8.85
674.976	16.85
675.007	-5.15
675.038	-10.15
675.069	-10.15
675.1	-8.15
675.131	-6.15
675.162	-5.15
675.193	-13.15
675.224	-13.15
675.254	5.85
675.285	8.85
675.316	13.85
675.347	0.85
675.378	1.85
675.409	-18.15
675.44	-4.15
675.471	-8.15
675.502	1.85
675.533	-2.15
675.564	-3.15
675.595	-0.15
675.625	28.85
675.656	0.85
675.687	15.85
675.718	-17.15
675.749	12.85
675.78	-0.15
675.811	-1.15
675.842	-6.15
675.873	-13.15
675.903	-2.15
675.934	-2.15
675.965	-9.15
675.996	-5.15
676.027	8.85
676.058	-1.15
676.089	-4.15
676.119	-1.15
676.15	1.85
676.181	-3.15
676.212	-0.15
676.243	19.85
676.274	0.85
676.304	15.85
676.335	-15.15
676.366	10.85
676.397	-4.15
676.428	5.85
676.459	24.85
676.489	8.85
676.52	7.85
676.551	13.85
676.582	-1.15
676.613	4.85
676.643	-2.15
676.674	2.85
676.705	18.85
676.736	-5.15
676.767	21.85
676.797	12.85
676.828	15.85
676.859	-0.15
676.89	-9.15
676.92	10.85
676.951	14.85
676.982	2.85
677.013	7.85
677.044	11.85
677.074	0.85
677.105	-12.15
677.136	5.85
677.167	1.85
677.197	11.85
677.228	-1.15
677.259	-10.15
677.289	-2.15
677.32	-12.15
677.351	4.85
677.382	-5.15
677.412	-4.15
677.443	15.85
677.474	8.85
677.505	-10.15
677.535	-14.15
677.566	-14.15
677.597	-7.15
677.627	-14.15
677.658	1.85
677.689	2.85
677.72	6.85
677.75	-6.15
677.781	10.85
677.812	-3.15
677.842	9.85
677.873	-3.15
677.904	5.85
677.934	10.85
677.965	-3.15
677.996	-18.15
678.026	11.85
678.057	2.85
678.088	-8.15
678.118	14.85
678.149	-2.15
678.18	4.85
678.21	-5.15
678.241	9.85
678.272	11.85
678.302	-1.15
678.333	15.85
678.363	4.85
678.394	16.85
678.425	3.85
678.455	6.85
678.486	19.85
678.517	-5.15
678.547	3.85
678.578	13.85
678.608	-8.15
678.639	8.85
678.67	9.85
678.7	-1.15
678.731	-8.15
678.761	9.85
678.792	3.85
678.823	11.85
678.853	3.85
678.884	-0.15
678.914	9.85
678.945	-1.15
678.975	3.85
679.006	0.85
679.037	-3.15
679.067	16.85
679.098	0.85
679.128	-13.15
679.159	5.85
679.189	15.85
679.22	-9.15
679.25	0.85
679.281	-2.15
679.312	8.85
679.342	-3.15
679.373	9.85
679.403	-3.15
679.434	-3.15
679.464	-4.15
679.495	-0.15
679.525	6.85
679.556	-2.15
679.586	6.85
679.617	14.85
679.647	-0.15
679.678	11.85
679.708	8.85
679.739	-9.15
679.769	-3.15
679.8	2.85
679.83	18.85
679.861	10.85
679.891	-2.15
679.922	-10.15
679.952	1.85
679.983	9.85
680.013	-1.15
680.044	-4.15
680.074	7.85
680.105	27.85
680.135	-3.15
680.165	8.85
680.196	14.85
680.226	11.85
680.257	12.85
680.287	4.85
680.318	1.85
680.348	2.85
680.379	11.85
680.409	-1.15
680.439	-9.15
680.47	2.85
680.5	-3.15
680.531	4.85
680.561	13.85
680.592	-2.15
680.622	33.85
680.652	-5.15
680.683	1.85
680.713	-16.15
680.744	7.85
680.774	-3.15
680.804	23.85
680.835	-5.15
680.865	-12.15
680.896	14.85
680.926	17.85
680.956	11.85
680.987	-9.15
681.017	-8.15
681.047	16.85
681.078	0.85
681.108	-0.15
681.139	-10.15
681.169	7.85
681.199	2.85
681.23	12.85
681.26	0.85
681.29	5.85
681.321	-2.15
681.351	1.85
681.381	-5.15
681.412	-0.15
681.442	2.85
681.472	3.85
681.503	4.85
681.533	14.85
681.563	1.85
681.594	-12.15
681.624	9.85
681.654	-16.15
681.685	-7.15
681.715	-3.15
681.745	-6.15
681.775	1.85
681.806	1.85
681.836	-2.15
681.866	-2.15
681.897	9.85
681.927	-0.15
681.957	-13.15
681.987	11.85
682.018	3.85
682.048	-6.15
682.078	-2.15
682.109	20.85
682.139	2.85
682.169	12.85
682.199	-3.15
682.23	-0.15
682.26	-7.15
682.29	-6.15
682.32	11.85
682.351	-2.15
682.381	-11.15
682.411	3.85
682.441	5.85
682.472	3.85
682.502	-16.15
682.532	4.85
682.562	-1.15
682.592	10.85
682.623	4.85
682.653	5.85
682.683	1.85
682.713	16.85
682.743	3.85
682.774	-11.15
682.804	3.85
682.834	14.85
682.864	7.85
682.894	7.85
682.925	-10.15
682.955	-9.15
682.985	-3.15
683.015	12.85
683.045	3.85
683.076	7.85
683.106	9.85
683.136	1.85
683.166	2.85
683.196	8.85
683.226	12.85
683.257	-1.15
683.287	-5.15
683.317	8.85
683.347	-4.15
683.377	4.85
683.407	0.85
683.437	-1.15
683.468	13.85
683.498	2.85
683.528	0.85
683.558	8.85
683.588	-3.15
683.618	-8.15
683.648	-6.15
683.678	18.85
683.708	24.85
683.739	7.85
683.769	13.85
683.799	2.85
683.829	17.85
683.859	5.85
683.889	6.85
683.919	-1.15
683.949	9.85
683.979	-14.15
684.009	5.85
684.039	5.85
684.07	2.85
684.1	3.85
684.13	14.85
684.16	-1.15
684.19	-0.15
684.22	-1.15
684.25	-2.15
684.28	-0.15
684.31	11.85
684.34	17.85
684.37	-1.15
684.4	4.85
684.43	23.85
684.46	-8.15
684.49	8.85
684.52	16.85
684.55	21.85
684.58	1.85
684.61	11.85
684.64	24.85
684.67	10.85
684.7	-20.15
684.73	6.85
684.76	-2.15
684.79	2.85
684.82	5.85
684.85	-2.15
684.88	16.85
684.91	2.85
684.94	-7.15
684.97	7.85
685	12.85
685.03	0.85
685.06	-0.15
685.09	12.85
685.12	22.85
685.15	0.85
685.18	25.85
685.21	9.85
685.24	24.85
685.27	15.85
685.3	-5.15
685.33	6.85
685.36	-14.15
685.39	-0.15
685.42	5.85
685.45	4.85
685.48	0.85
685.51	-4.15
685.54	11.85
685.569	14.85
685.599	18.85
685.629	17.85
685.659	6.85
685.689	9.85
685.719	-3.15
685.749	10.85
685.779	9.85
685.809	8.85
685.839	4.85
685.869	-0.15
685.898	23.85
685.928	2.85
685.958	1.85
685.988	16.85
686.018	-2.15
686.048	3.85
686.078	16.85
686.108	28.85
686.137	4.85
686.167	2.85
686.197	-11.15
686.227	12.85
686.257	18.85
686.287	3.85
686.317	3.85
686.346	-2.15
686.376	-7.15
686.406	4.85
686.436	4.85
686.466	4.85
686.496	13.85
686.525	13.85
686.555	-15.15
686.585	-2.15
686.615	28.85
686.645	8.85
686.675	2.85
686.704	2.85
686.734	5.85
686.764	11.85
686.794	-1.15
686.824	5.85
686.853	21.85
686.883	4.85
686.913	15.85
686.943	6.85
686.973	3.85
687.002	-7.15
687.032	16.85
687.062	-7.15
687.092	16.85
687.121	4.85
687.151	1.85
687.181	-4.15
687.211	23.85
687.24	2.85
687.27	1.85
687.3	4.85
687.33	6.85
687.359	-15.15
687.389	0.85
687.419	-9.15
687.449	-0.15
687.478	7.85
687.508	6.85
687.538	10.85
687.568	11.85
687.597	-1.15
687.627	5.85
687.657	17.85
687.686	1.85
687.716	11.85
687.746	-2.15
687.776	6.85
687.805	15.85
687.835	0.85
687.865	15.85
687.894	12.85
687.924	-6.15
687.954	-3.15
687.983	2.85
688.013	12.85
688.043	16.85
688.072	10.85
688.102	13.85
688.132	1.85
688.161	-0.15
688.191	0.85
688.221	12.85
688.25	-8.15
688.28	3.85
688.31	3.85
688.339	-4.15
688.369	4.85
688.399	-1.15
688.428	-3.15
688.458	-11.15
688.488	-8.15
688.517	3.85
688.547	6.85
688.576	19.85
688.606	7.85
688.636	-1.15
688.665	9.85
688.695	6.85
688.725	22.85
688.754	11.85
688.784	-4.15
688.813	7.85
688.843	3.85
688.873	-16.15
688.902	-10.15
688.932	-5.15
688.961	-3.15
688.991	16.85
689.02	11.85
689.05	-15.15
689.08	-11.15
689.109	5.85
689.139	6.85
689.168	0.85
689.198	-1.15
689.227	9.85
689.257	3.85
689.287	3.85
689.316	7.85
689.346	-6.15
689.375	2.85
689.405	3.85
689.434	2.85
689.464	5.85
689.493	0.85
689.523	-5.15
689.552	1.85
689.582	-5.15
689.611	0.85
689.641	-5.15
689.67	-2.15
689.7	17.85
689.73	22.85
689.759	20.85
689.789	22.85
689.818	8.85
689.848	1.85
689.877	15.85
689.906	-1.15
689.936	-0.15
689.965	17.85
689.995	10.85
690.024	-9.15
690.054	-7.15
690.083	1.85
690.113	5.85
690.142	5.85
690.172	9.85
690.201	-0.15
690.231	2.85
690.26	8.85
690.29	5.85
690.319	1.85
690.348	-17.15
690.378	6.85
690.407	6.85
690.437	5.85
690.466	0.85
690.496	-12.15
690.525	7.85
690.555	5.85
690.584	5.85
690.613	4.85
690.643	22.85
690.672	3.85
690.702	9.85
690.731	8.85
690.76	-0.15
690.79	-17.15
690.819	2.85
690.849	-5.15
690.878	-7.15
690.907	-5.15
690.937	12.85
690.966	-5.15
690.996	-7.15
691.025	-8.15
691.054	2.85
691.084	-4.15
691.113	19.85
691.142	8.85
691.172	6.85
691.201	5.85
691.23	8.85
691.26	-2.15
691.289	5.85
691.319	-0.15
691.348	-2.15
691.377	16.85
691.407	-2.15
691.436	6.85
691.465	15.85
691.495	-11.15
691.524	-15.15
691.553	-3.15
691.583	6.85
691.612	22.85
691.641	14.85
691.67	-0.15
691.7	6.85
691.729	-19.15
691.758	-5.15
691.788	13.85
691.817	-3.15
691.846	-6.15
691.876	5.85
691.905	8.85
691.934	5.85
691.963	17.85
691.993	5.85
692.022	1.85
692.051	-2.15
692.081	9.85
692.11	24.85
692.139	4.85
692.168	15.85
692.198	27.85
692.227	10.85
692.256	17.85
692.285	1.85
692.315	-4.15
692.344	6.85
692.373	3.85
692.402	-8.15
692.432	-10.15
692.461	4.85
692.49	1.85
692.519	4.85
692.548	2.85
692.578	6.85
692.607	-2.15
692.636	-1.15
692.665	12.85
692.694	8.85
692.724	13.85
692.753	9.85
692.782	7.85
692.811	0.85
692.84	8.85
692.87	8.85
692.899	17.85
692.928	9.85
692.957	10.85
692.986	8.85
693.016	16.85
693.045	1.85
693.074	-0.15
693.103	5.85
693.132	8.85
693.161	23.85
693.191	0.85
693.22	0.85
693.249	1.85
693.278	-5.15
693.307	6.85
693.336	-8.15
693.365	-1.15
693.395	5.85
693.424	7.85
693.453	7.85
693.482	-1.15
693.511	25.85
693.54	26.85
693.569	20.85
693.598	-1.15
693.628	17.85
693.657	29.85
693.686	18.85
693.715	5.85
693.744	17.85
693.773	31.85
693.802	18.85
693.831	5.85
693.86	23.85
693.889	0.85
693.919	18.85
693.948	4.85
693.977	-0.15
694.006	-14.15
694.035	-15.15
694.064	-23.15
694.093	2.85
694.122	8.85
694.151	7.85
694.18	6.85
694.209	21.85
694.238	13.85
694.267	5.85
694.296	18.85
694.325	0.85
694.354	12.85
694.383	13.85
694.412	-5.15
694.441	13.85
694.471	0.85
694.5	-6.15
694.529	0.85
694.558	12.85
694.587	19.85
694.616	6.85
694.645	14.85
694.674	19.85
694.703	13.85
694.732	7.85
694.761	16.85
694.79	8.85
694.819	-2.15
694.848	18.85
694.877	27.85
694.906	22.85
694.935	3.85
694.963	12.85
694.992	-4.15
695.021	4.85
695.05	2.85
695.079	8.85
695.108	5.85
695.137	9.85
695.166	12.85
695.195	-5.15
695.224	6.85
695.253	9.85
695.282	8.85
695.311	16.85
695.34	26.85
695.369	14.85
695.398	2.85
695.427	26.85
695.456	-1.15
695.485	-7.15
695.513	-6.15
695.542	6.85
695.571	4.85
695.6	18.85
695.629	18.85
695.658	17.85
695.687	-0.15
695.716	12.85
695.745	18.85
695.774	2.85
695.802	2.85
695.831	10.85
695.86	18.85
695.889	23.85
695.918	18.85
695.947	-2.15
695.976	-1.15
696.005	3.85
696.033	5.85
696.062	17.85
696.091	1.85
696.12	8.85
696.149	5.85
696.178	1.85
696.207	6.85
696.235	-7.15
696.264	5.85
696.293	1.85
696.322	2.85
696.351	6.85
696.38	-4.15
696.408	15.85
696.437	12.85
696.466	6.85
696.495	13.85
696.524	18.85
696.553	-0.15
696.581	15.85
696.61	-10.15
696.639	-11.15
696.668	5.85
696.697	0.85
696.725	15.85
696.754	13.85
696.783	-0.15
696.812	-9.15
696.84	19.85
696.869	5.85
696.898	6.85
696.927	4.85
696.956	13.85
696.984	-6.15
697.013	-1.15
697.042	6.85
697.071	5.85
697.099	24.85
697.128	21.85
697.157	9.85
697.186	10.85
697.214	-5.15
697.243	-1.15
697.272	1.85
697.301	4.85
697.329	2.85
697.358	1.85
697.387	33.85
697.415	15.85
697.444	4.85
697.473	18.85
697.502	-4.15
697.53	6.85
697.559	-11.15
697.588	8.85
697.616	-6.15
697.645	4.85
697.674	20.85
697.703	8.85
697.731	9.85
697.76	7.85
697.789	3.85
697.817	-7.15
697.846	17.85
697.875	26.85
697.903	21.85
697.932	22.85
697.961	9.85
697.989	3.85
698.018	8.85
698.047	10.85
698.075	17.85
698.104	-14.15
698.133	-2.15
698.161	-3.15
698.19	12.85
698.218	-4.15
698.247	7.85
698.276	15.85
698.304	6.85
698.333	1.85
698.362	12.85
698.39	-0.15
698.419	16.85
698.447	-1.15
698.476	1.85
698.505	14.85
698.533	2.85
698.562	5.85
698.591	-13.15
698.619	-5.15
698.648	3.85
698.676	5.85
698.705	-3.15
698.733	-24.15
698.762	15.85
698.791	12.85
698.819	8.85
698.848	11.85
698.876	13.85
698.905	2.85
698.933	4.85
698.962	9.85
698.991	1.85
699.019	2.85
699.048	2.85
699.076	9.85
699.105	-10.15
699.133	0.85
699.162	17.85
699.19	18.85
699.219	-0.15
699.248	0.85
699.276	-2.15
699.305	-5.15
699.333	3.85
699.362	-2.15
699.39	15.85
699.419	4.85
699.447	-1.15
699.476	15.85
699.504	-3.15
699.533	18.85
699.561	12.85
699.59	8.85
699.618	-9.15
699.647	-9.15
699.675	-3.15
699.704	-1.15
699.732	0.85
699.761	16.85
699.789	-8.15
699.818	15.85
699.846	16.85
699.874	2.85
699.903	-20.15
699.931	-6.15
699.96	12.85
699.988	4.85
700.017	5.85
700.045	5.85
700.074	13.85
700.102	1.85
700.13	8.85
700.159	7.85
700.187	-0.15
700.216	-9.15
700.244	-3.15
700.273	-1.15
700.301	1.85
700.329	12.85
700.358	6.85
700.386	-2.15
700.415	-1.15
700.443	1.85
700.472	-3.15
700.5	9.85
700.528	-0.15
700.557	-0.15
700.585	-1.15
700.614	2.85
700.642	8.85
700.67	15.85
700.699	0.85
700.727	6.85
700.755	2.85
700.784	-6.15
700.812	5.85
700.841	12.85
700.869	0.85
700.897	-29.15
700.926	-3.15
700.954	1.85
700.982	13.85
701.011	4.85
701.039	9.85
701.067	10.85
701.096	17.85
701.124	-8.15
701.152	7.85
701.181	8.85
701.209	-10.15
701.237	3.85
701.266	-20.15
701.294	-6.15
701.322	-0.15
701.351	15.85
701.379	1.85
701.407	-5.15
701.435	-0.15
701.464	15.85
701.492	9.85
701.52	-1.15
701.549	-3.15
701.577	-4.15
701.605	2.85
701.634	2.85
701.662	14.85
701.69	-22.15
701.718	-10.15
701.747	3.85
701.775	9.85
701.803	-13.15
701.831	25.85
701.86	20.85
701.888	10.85
701.916	2.85
701.944	-10.15
701.973	-3.15
702.001	-5.15
702.029	-16.15
702.057	-8.15
702.086	-15.15
702.114	-13.15
702.142	-0.15
702.17	-11.15
702.199	-3.15
702.227	-11.15
702.255	-0.15
702.283	-11.15
702.311	15.85
702.34	5.85
702.368	0.85
702.396	-8.15
702.424	-5.15
702.452	-10.15
702.481	0.85
702.509	10.85
702.537	17.85
702.565	16.85
702.593	-14.15
702.621	5.85
702.65	6.85
702.678	9.85
702.706	4.85
702.734	-17.15
702.762	-3.15
702.79	8.85
702.819	17.85
702.847	15.85
702.875	11.85
702.903	15.85
702.931	7.85
702.959	12.85
702.988	5.85
703.016	-8.15
703.044	5.85
703.072	11.85
703.1	1.85
703.128	2.85
703.156	14.85
703.184	-8.15
703.212	5.85
703.241	-8.15
703.269	1.85
703.297	10.85
703.325	11.85
703.353	5.85
703.381	-10.15
703.409	9.85
703.437	5.85
703.465	8.85
703.493	3.85
703.522	-1.15
703.55	5.85
703.578	-2.15
703.606	1.85
703.634	-10.15
703.662	2.85
703.69	-12.15
703.718	5.85
703.746	16.85
703.774	6.85
703.802	24.85
703.83	-3.15
703.858	5.85
703.886	-1.15
703.914	-11.15
703.942	7.85
703.97	6.85
703.998	6.85
704.027	22.85
704.055	20.85
704.083	16.85
704.111	5.85
704.139	12.85
704.167	-10.15
704.195	4.85
704.223	4.85
704.251	3.85
704.279	10.85
704.307	5.85
704.335	-4.15
704.363	1.85
704.391	-0.15
704.419	-15.15
704.447	4.85
704.475	1.85
704.503	-3.15
704.531	7.85
704.558	8.85
704.586	7.85
704.614	0.85
704.642	5.85
704.67	-11.15
704.698	9.85
704.726	7.85
704.754	-4.15
704.782	-3.15
704.81	4.85
704.838	25.85
704.866	5.85
704.894	2.85
704.922	-8.15
704.95	18.85
704.978	13.85
705.006	-0.15
705.034	18.85
705.061	0.85
705.089	5.85
705.117	-8.15
705.145	5.85
705.173	2.85
705.201	-8.15
705.229	8.85
705.257	-1.15
705.285	15.85
705.313	9.85
705.34	6.85
705.368	-8.15
705.396	-1.15
705.424	1.85
705.452	1.85
705.48	3.85
705.508	7.85
705.536	2.85
705.563	-13.15
705.591	3.85
705.619	4.85
705.647	2.85
705.675	14.85
705.703	14.85
705.731	-16.15
705.758	12.85
705.786	9.85
705.814	10.85
705.842	25.85
705.87	11.85
705.898	5.85
705.925	-9.15
705.953	10.85
705.981	-10.15
706.009	5.85
706.037	4.85
706.065	-3.15
706.092	-16.15
706.12	-6.15
706.148	2.85
706.176	13.85
706.204	15.85
706.231	9.85
706.259	2.85
706.287	2.85
706.315	18.85
706.342	-11.15
706.37	14.85
706.398	7.85
706.426	6.85
706.454	7.85
706.481	5.85
706.509	12.85
706.537	-5.15
706.565	-11.15
706.592	11.85
706.62	7.85
706.648	0.85
706.676	-7.15
706.703	4.85
706.731	-5.15
706.759	-20.15
706.787	1.85
706.814	2.85
706.842	7.85
706.87	-5.15
706.897	7.85
706.925	6.85
706.953	8.85
706.981	16.85
707.008	6.85
707.036	4.85
707.064	-1.15
707.091	-14.15
707.119	21.85
707.147	14.85
707.174	7.85
707.202	18.85
707.23	-16.15
707.258	9.85
707.285	-9.15
707.313	19.85
707.341	-4.15
707.368	-3.15
707.396	4.85
707.424	17.85
707.451	6.85
707.479	-7.15
707.507	4.85
707.534	1.85
707.562	0.85
707.59	1.85
707.617	-0.15
707.645	6.85
707.672	-5.15
707.7	-5.15
707.728	16.85
707.755	9.85
707.783	2.85
707.811	6.85
707.838	10.85
707.866	-3.15
707.893	8.85
707.921	8.85
707.949	5.85
707.976	4.85
708.004	-6.15
708.031	-9.15
708.059	-6.15
708.087	2.85
708.114	-1.15
708.142	-5.15
708.169	2.85
708.197	-11.15
708.225	0.85
708.252	-8.15
708.28	1.85
708.307	-7.15
708.335	1.85
708.362	0.85
708.39	-13.15
708.418	6.85
708.445	-10.15
708.473	0.85
708.5	-10.15
708.528	5.85
708.555	1.85
708.583	-3.15
708.61	-4.15
708.638	1.85
708.665	-14.15
708.693	2.85
708.72	-10.15
708.748	-16.15
708.776	-3.15
708.803	13.85
708.831	11.85
708.858	5.85
708.886	-3.15
708.913	9.85
708.941	1.85
708.968	13.85
708.996	-2.15
709.023	20.85
709.051	-9.15
709.078	-5.15
709.105	-11.15
709.133	-6.15
709.16	-11.15
709.188	12.85
709.215	4.85
709.243	9.85
709.27	10.85
709.298	-3.15
709.325	-11.15
709.353	-0.15
709.38	4.85
709.408	7.85
709.435	2.85
709.462	-0.15
709.49	11.85
709.517	-0.15
709.545	3.85
709.572	8.85
709.6	-3.15
709.627	11.85
709.655	-9.15
709.682	15.85
709.709	5.85
709.737	13.85
709.764	5.85
709.792	18.85
709.819	-1.15
709.846	-12.15
709.874	5.85
709.901	17.85
709.929	23.85
709.956	17.85
709.983	5.85
710.011	21.85
710.038	-2.15
710.066	-0.15
710.093	10.85
710.12	14.85
710.148	15.85
710.175	-3.15
710.202	-17.15
710.23	6.85
710.257	2.85
710.284	0.85
710.312	7.85
710.339	2.85
710.366	15.85
710.394	5.85
710.421	12.85
710.448	5.85
710.476	-13.15
710.503	6.85
710.53	0.85
710.558	4.85
710.585	16.85
710.612	-3.15
710.64	-0.15
710.667	-1.15
710.694	-2.15
710.722	-6.15
710.749	4.85
710.776	-16.15
710.804	25.85
710.831	12.85
710.858	-10.15
710.885	0.85
710.913	-13.15
710.94	13.85
710.967	2.85
710.995	23.85
711.022	4.85
711.049	5.85
711.076	-3.15
711.104	-8.15
711.131	-23.15
711.158	-9.15
711.185	16.85
711.213	2.85
711.24	-9.15
711.267	3.85
711.294	13.85
711.322	19.85
711.349	-3.15
711.376	11.85
711.403	26.85
711.431	-1.15
711.458	3.85
711.485	10.85
711.512	6.85
711.54	6.85
711.567	-3.15
711.594	-6.15
711.621	-13.15
711.648	-1.15
711.676	10.85
711.703	5.85
711.73	-21.15
711.757	6.85
711.784	-1.15
711.812	-1.15
711.839	-4.15
711.866	-6.15
711.893	-0.15
711.92	-2.15
711.947	16.85
711.975	2.85
712.002	-1.15
712.029	5.85
712.056	-9.15
712.083	10.85
712.11	-7.15
712.138	-7.15
712.165	7.85
712.192	-0.15
712.219	-15.15
712.246	1.85
712.273	-8.15
712.3	4.85
712.328	3.85
712.355	9.85
712.382	3.85
712.409	20.85
712.436	3.85
712.463	14.85
712.49	21.85
712.517	-5.15
712.544	-2.15
712.572	-6.15
712.599	1.85
712.626	5.85
712.653	-7.15
712.68	-4.15
712.707	11.85
712.734	6.85
712.761	5.85
712.788	-1.15
712.815	-2.15
712.842	11.85
712.87	-0.15
712.897	-11.15
712.924	-15.15
712.951	5.85
712.978	23.85
713.005	26.85
713.032	15.85
713.059	-8.15
713.086	-2.15
713.113	7.85
713.14	-4.15
713.167	14.85
713.194	22.85
713.221	9.85
713.248	11.85
713.275	4.85
713.302	1.85
713.329	7.85
713.356	2.85
713.383	3.85
713.41	6.85
713.437	-8.15
713.464	7.85
713.491	13.85
713.518	15.85
713.545	-4.15
713.572	-11.15
713.599	12.85
713.626	5.85
713.653	10.85
713.68	-0.15
713.707	13.85
713.734	-1.15
713.761	-0.15
713.788	5.85
713.815	-0.15
713.842	9.85
713.869	11.85
713.896	-1.15
713.923	-6.15
713.95	3.85
713.977	-12.15
714.004	1.85
714.031	-16.15
714.058	1.85
714.085	-1.15
714.112	14.85
714.139	0.85
714.165	2.85
714.192	1.85
714.219	1.85
714.246	8.85
714.273	-2.15
714.3	-0.15
714.327	-1.15
714.354	14.85
714.381	13.85
714.408	3.85
714.435	-0.15
714.461	14.85
714.488	12.85
714.515	5.85
714.542	-0.15
714.569	2.85
714.596	-7.15
714.623	-3.15
714.65	-2.15
714.677	-3.15
714.703	-0.15
714.73	1.85
714.757	6.85
714.784	12.85
714.811	5.85
714.838	20.85
714.865	-16.15
714.891	1.85
714.918	-5.15
714.945	1.85
714.972	2.85
714.999	10.85
715.026	-5.15
715.052	15.85
715.079	20.85
715.106	-1.15
715.133	10.85
715.16	-0.15
715.187	26.85
715.213	11.85
715.24	-2.15
715.267	2.85
715.294	-13.15
715.321	-6.15
715.347	-10.15
715.374	-7.15
715.401	7.85
715.428	18.85
715.455	-2.15
715.481	-9.15
715.508	4.85
715.535	0.85
715.562	24.85
715.588	18.85
715.615	3.85
715.642	4.85
715.669	25.85
715.695	-1.15
715.722	-0.15
715.749	16.85
715.776	23.85
715.802	12.85
715.829	-4.15
715.856	-5.15
715.883	15.85
715.909	1.85
715.936	-5.15
715.963	5.85
715.99	-10.15
716.016	8.85
716.043	11.85
716.07	4.85
716.096	-11.15
716.123	-15.15
716.15	-5.15
716.177	1.85
716.203	18.85
716.23	15.85
716.257	10.85
716.283	26.85
716.31	-4.15
716.337	0.85
716.363	-4.15
716.39	4.85
716.417	15.85
716.443	4.85
716.47	14.85
716.497	18.85
716.523	7.85
716.55	6.85
716.577	5.85
716.603	6.85
716.63	4.85
716.657	14.85
716.683	3.85
716.71	4.85
716.737	-3.15
716.763	6.85
716.79	-0.15
716.817	7.85
716.843	3.85
716.87	0.85
716.897	1.85
716.923	6.85
716.95	2.85
716.976	-10.15
717.003	0.85
717.03	2.85
717.056	-3.15
717.083	12.85
717.109	22.85
717.136	6.85
717.163	-1.15
717.189	13.85
717.216	7.85
717.242	8.85
717.269	-0.15
717.296	9.85
717.322	8.85
717.349	13.85
717.375	7.85
717.402	0.85
717.428	12.85
717.455	3.85
717.481	6.85
717.508	9.85
717.535	-7.15
717.561	-3.15
717.588	-7.15
717.614	4.85
717.641	12.85
717.667	5.85
717.694	7.85
717.72	-8.15
717.747	-2.15
717.773	0.85
717.8	8.85
717.826	6.85
717.853	-4.15
717.88	-2.15
717.906	10.85
717.933	-0.15
717.959	10.85
717.986	10.85
718.012	-0.15
718.039	5.85
718.065	24.85
718.092	9.85
718.118	4.85
718.144	3.85
718.171	17.85
718.197	29.85
718.224	5.85
718.25	4.85
718.277	4.85
718.303	-3.15
718.33	11.85
718.356	-11.15
718.383	-15.15
718.409	-10.15
718.436	-4.15
718.462	0.85
718.489	5.85
718.515	17.85
718.541	15.85
718.568	3.85
718.594	-10.15
718.621	6.85
718.647	5.85
718.674	12.85
718.7	8.85
718.726	2.85
718.753	7.85
718.779	22.85
718.806	1.85
718.832	-7.15
718.858	1.85
718.885	6.85
718.911	7.85
718.938	26.85
718.964	-22.15
718.99	-2.15
719.017	-0.15
719.043	10.85
719.07	23.85
719.096	-11.15
719.122	-0.15
719.149	0.85
719.175	7.85
719.201	16.85
719.228	-0.15
719.254	8.85
719.281	2.85
719.307	0.85
719.333	2.85
719.36	-1.15
719.386	8.85
719.412	17.85
719.439	-22.15
719.465	0.85
719.491	-3.15
719.518	12.85
719.544	21.85
719.57	18.85
719.597	6.85
719.623	-2.15
719.649	9.85
719.675	6.85
719.702	7.85
719.728	9.85
719.754	-2.15
719.781	4.85
719.807	-4.15
719.833	-3.15
719.86	2.85
719.886	1.85
719.912	-16.15
719.938	0.85
719.965	-2.15
719.991	17.85
720.017	1.85
720.044	4.85
720.07	18.85
720.096	5.85
720.122	-6.15
720.149	2.85
720.175	18.85
720.201	9.85
720.227	-6.15
720.254	1.85
720.28	-2.15
720.306	8.85
720.332	9.85
720.359	-0.15
720.385	27.85
720.411	10.85
720.437	2.85
720.463	0.85
720.49	10.85
720.516	5.85
720.542	-3.15
720.568	6.85
720.595	9.85
720.621	7.85
720.647	10.85
720.673	21.85
720.699	7.85
720.725	20.85
720.752	0.85
720.778	5.85
720.804	1.85
720.83	20.85
720.856	-2.15
720.883	-18.15
720.909	1.85
720.935	15.85
720.961	11.85
720.987	3.85
721.013	10.85
721.04	10.85
721.066	1.85
721.092	6.85
721.118	-2.15
721.144	-4.15
721.17	-4.15
721.196	3.85
721.223	-6.15
721.249	-4.15
721.275	17.85
721.301	0.85
721.327	9.85
721.353	0.85
721.379	13.85
721.405	5.85
721.432	21.85
721.458	-4.15
721.484	14.85
721.51	-3.15
721.536	10.85
721.562	6.85
721.588	5.85
721.614	-7.15
721.64	-7.15
721.666	-3.15
721.693	-0.15
721.719	-9.15
721.745	2.85
721.771	-6.15
721.797	-2.15
721.823	0.85
721.849	20.85
721.875	3.85
721.901	6.85
721.927	9.85
721.953	0.85
721.979	5.85
722.005	5.85
722.031	4.85
722.057	3.85
722.083	12.85
722.109	15.85
722.135	20.85
722.161	-3.15
722.187	-2.15
722.214	0.85
722.24	-5.15
722.266	0.85
722.292	19.85
722.318	18.85
722.344	-2.15
722.37	14.85
722.396	6.85
722.422	3.85
722.448	11.85
722.474	2.85
722.5	19.85
722.526	-3.15
722.552	7.85
722.578	11.85
722.603	12.85
722.629	5.85
722.655	19.85
722.681	-5.15
722.707	4.85
722.733	4.85
722.759	-3.15
722.785	-2.15
722.811	-7.15
722.837	-2.15
722.863	21.85
722.889	16.85
722.915	0.85
722.941	-0.15
722.967	9.85
722.993	33.85
723.019	2.85
723.045	5.85
723.071	5.85
723.097	3.85
723.122	-1.15
723.148	0.85
723.174	17.85
723.2	16.85
723.226	13.85
723.252	8.85
723.278	0.85
723.304	6.85
723.33	2.85
723.356	4.85
723.381	0.85
723.407	-21.15
723.433	0.85
723.459	-10.15
723.485	-0.15
723.511	16.85
723.537	-7.15
723.563	8.85
723.588	3.85
723.614	6.85
723.64	-3.15
723.666	4.85
723.692	7.85
723.718	9.85
723.744	-2.15
723.769	-0.15
723.795	14.85
723.821	8.85
723.847	-6.15
723.873	10.85
723.899	10.85
723.924	4.85
723.95	-6.15
723.976	-19.15
724.002	-14.15
724.028	4.85
724.053	-2.15
724.079	0.85
724.105	16.85
724.131	1.85
724.157	-10.15
724.182	0.85
724.208	-7.15
724.234	20.85
724.26	12.85
724.286	9.85
724.311	-0.15
724.337	9.85
724.363	-1.15
724.389	6.85
724.415	-0.15
724.44	21.85
724.466	10.85
724.492	-1.15
724.518	9.85
724.543	5.85
724.569	14.85
724.595	28.85
724.621	21.85
724.646	-3.15
724.672	-10.15
724.698	5.85
724.723	-5.15
724.749	-1.15
724.775	-7.15
724.801	0.85
724.826	-15.15
724.852	-5.15
724.878	-7.15
724.904	-12.15
724.929	-4.15
724.955	1.85
724.981	22.85
725.006	-1.15
725.032	-3.15
725.058	6.85
725.083	4.85
725.109	-20.15
725.135	0.85
725.161	13.85
725.186	1.85
725.212	-11.15
725.238	8.85
725.263	-4.15
725.289	-19.15
725.315	-6.15
725.34	17.85
725.366	19.85
725.392	0.85
725.417	6.85
725.443	5.85
725.468	1.85
725.494	0.85
725.52	9.85
725.545	-11.15
725.571	8.85
725.597	-17.15
725.622	4.85
725.648	0.85
725.674	18.85
725.699	9.85
725.725	9.85
725.75	22.85
725.776	-6.15
725.802	7.85
725.827	10.85
725.853	15.85
725.878	4.85
725.904	12.85
725.93	-3.15
725.955	-9.15
725.981	-2.15
726.006	2.85
726.032	16.85
726.057	-0.15
726.083	-18.15
726.109	1.85
726.134	14.85
726.16	15.85
726.185	-3.15
726.211	4.85
726.236	11.85
726.262	16.85
726.288	12.85
726.313	15.85
726.339	18.85
726.364	7.85
726.39	18.85
726.415	1.85
726.441	-5.15
726.466	9.85
726.492	5.85
726.517	-3.15
726.543	-14.15
726.568	-6.15
726.594	-5.15
726.619	12.85
726.645	19.85
726.67	12.85
726.696	15.85
726.721	2.85
726.747	0.85
726.772	8.85
726.798	2.85
726.823	6.85
726.849	13.85
726.874	10.85
726.9	21.85
726.925	13.85
726.951	8.85
726.976	20.85
727.002	-2.15
727.027	18.85
727.053	15.85
727.078	17.85
727.104	25.85
727.129	6.85
727.155	0.85
727.18	17.85
727.205	-4.15
727.231	-10.15
727.256	-1.15
727.282	2.85
727.307	4.85
727.333	5.85
727.358	-5.15
727.383	-8.15
727.409	-7.15
727.434	25.85
727.46	9.85
727.485	4.85
727.511	4.85
727.536	-6.15
727.561	-19.15
727.587	-1.15
727.612	-1.15
727.637	8.85
727.663	4.85
727.688	6.85
727.714	2.85
727.739	3.85
727.764	-8.15
727.79	5.85
727.815	7.85
727.841	2.85
727.866	6.85
727.891	3.85
727.917	-7.15
727.942	-1.15
727.967	-1.15
727.993	-14.15
728.018	1.85
728.043	12.85
728.069	6.85
728.094	16.85
728.119	4.85
728.145	6.85
728.17	-2.15
728.195	10.85
728.221	15.85
728.246	-7.15
728.271	5.85
728.297	10.85
728.322	13.85
728.347	1.85
728.373	9.85
728.398	13.85
728.423	7.85
728.448	4.85
728.474	-2.15
728.499	6.85
728.524	-3.15
728.55	1.85
728.575	4.85
728.6	-7.15
728.625	4.85
728.651	6.85
728.676	8.85
728.701	12.85
728.727	12.85
728.752	-10.15
728.777	1.85
728.802	8.85
728.828	13.85
728.853	19.85
728.878	6.85
728.903	-12.15
728.929	-8.15
728.954	-3.15
728.979	14.85
729.004	8.85
729.03	-8.15
729.055	15.85
729.08	3.85
729.105	-0.15
729.13	23.85
729.156	16.85
729.181	10.85
729.206	-7.15
729.231	8.85
729.256	17.85
729.282	-0.15
729.307	-3.15
729.332	12.85
729.357	0.85
729.382	-0.15
729.408	4.85
729.433	9.85
729.458	8.85
729.483	11.85
729.508	13.85
729.533	-1.15
729.559	1.85
729.584	-1.15
729.609	10.85
729.634	7.85
729.659	0.85
729.684	13.85
729.71	29.85
729.735	8.85
729.76	6.85
729.785	5.85
729.81	10.85
729.835	3.85
729.86	5.85
729.886	20.85
729.911	-3.15
729.936	-6.15
729.961	11.85
729.986	-7.15
730.011	-1.15
730.036	8.85
730.061	12.85
730.086	6.85
730.112	9.85
730.137	21.85
730.162	9.85
730.187	-10.15
730.212	4.85
730.237	-4.15
730.262	2.85
730.287	6.85
730.312	17.85
730.337	2.85
730.362	19.85
730.387	6.85
730.413	0.85
730.438	0.85
730.463	-15.15
730.488	-2.15
730.513	6.85
730.538	13.85
730.563	3.85
730.588	3.85
730.613	15.85
730.638	-5.15
730.663	1.85
730.688	25.85
730.713	1.85
730.738	4.85
730.763	7.85
730.788	-14.15
730.813	4.85
730.838	-7.15
730.863	0.85
730.888	-4.15
730.913	-10.15
730.938	-10.15
730.963	7.85
730.988	13.85
731.013	19.85
731.038	10.85
731.063	-1.15
731.088	9.85
731.113	10.85
731.138	1.85
731.163	-0.15
731.188	-3.15
731.213	20.85
731.238	16.85
731.263	-7.15
731.288	-8.15
731.313	16.85
731.338	14.85
731.363	8.85
731.388	11.85
731.413	17.85
731.438	21.85
731.463	21.85
731.487	1.85
731.512	1.85
731.537	-7.15
731.562	3.85
731.587	-2.15
731.612	4.85
731.637	-2.15
731.662	-1.15
731.687	-4.15
731.712	-5.15
731.737	5.85
731.762	10.85
731.786	-5.15
731.811	9.85
731.836	10.85
731.861	5.85
731.886	3.85
731.911	3.85
731.936	-0.15
731.961	-8.15
731.986	-11.15
732.01	-4.15
732.035	2.85
732.06	19.85
732.085	4.85
732.11	0.85
732.135	1.85
732.16	18.85
732.184	20.85
732.209	2.85
732.234	10.85
732.259	-1.15
732.284	15.85
732.309	6.85
732.334	11.85
732.358	-5.15
732.383	0.85
732.408	3.85
732.433	23.85
732.458	-0.15
732.482	3.85
732.507	1.85
732.532	0.85
732.557	7.85
732.582	15.85
732.607	-1.15
732.631	-10.15
732.656	-1.15
732.681	4.85
732.706	9.85
732.73	-5.15
732.755	-7.15
732.78	-6.15
732.805	6.85
732.83	-1.15
732.854	-3.15
732.879	23.85
732.904	6.85
732.929	1.85
732.953	-0.15
732.978	-1.15
733.003	-5.15
733.028	-7.15
733.052	11.85
733.077	8.85
733.102	15.85
733.127	4.85
733.151	-2.15
733.176	-3.15
733.201	1.85
733.226	0.85
733.25	-8.15
733.275	-0.15
733.3	15.85
733.324	18.85
733.349	-0.15
733.374	13.85
733.399	12.85
733.423	13.85
733.448	5.85
733.473	-0.15
733.497	5.85
733.522	1.85
733.547	15.85
733.571	16.85
733.596	0.85
733.621	-6.15
733.646	-10.15
733.67	15.85
733.695	0.85
733.72	3.85
733.744	14.85
733.769	1.85
733.794	4.85
733.818	0.85
733.843	-1.15
733.867	-4.15
733.892	9.85
733.917	6.85
733.941	-4.15
733.966	-7.15
733.991	-6.15
734.015	17.85
734.04	10.85
734.065	22.85
734.089	32.85
734.114	9.85
734.138	1.85
734.163	5.85
734.188	6.85
734.212	19.85
734.237	18.85
734.261	7.85
734.286	-1.15
734.311	1.85
734.335	-14.15
734.36	-6.15
734.384	7.85
734.409	8.85
734.434	-6.15
734.458	6.85
734.483	-1.15
734.507	5.85
734.532	14.85
734.556	15.85
734.581	4.85
734.606	11.85
734.63	-1.15
734.655	14.85
734.679	7.85
734.704	0.85
734.728	-6.15
734.753	6.85
734.777	2.85
734.802	2.85
734.826	20.85
734.851	13.85
734.876	4.85
734.9	7.85
734.925	13.85
734.949	23.85
734.974	16.85
734.998	6.85
735.023	-3.15
735.047	1.85
735.072	17.85
735.096	11.85
735.121	11.85
735.145	-16.15
735.17	8.85
735.194	7.85
735.219	6.85
735.243	9.85
735.268	0.85
735.292	2.85
735.317	-2.15
735.341	-3.15
735.365	-21.15
735.39	11.85
735.414	12.85
735.439	10.85
735.463	4.85
735.488	6.85
735.512	-2.15
735.537	6.85
735.561	6.85
735.586	10.85
735.61	17.85
735.634	-1.15
735.659	-3.15
735.683	25.85
735.708	1.85
735.732	-5.15
735.757	6.85
735.781	-1.15
735.805	14.85
735.83	-4.15
735.854	11.85
735.879	8.85
735.903	15.85
735.927	5.85
735.952	8.85
735.976	8.85
736.001	-2.15
736.025	-9.15
736.049	12.85
736.074	2.85
736.098	12.85
736.123	2.85
736.147	6.85
736.171	12.85
736.196	19.85
736.22	-7.15
736.244	5.85
736.269	-9.15
736.293	-6.15
736.317	6.85
736.342	0.85
736.366	0.85
736.39	17.85
736.415	4.85
736.439	13.85
736.463	4.85
736.488	-4.15
736.512	8.85
736.536	-2.15
736.561	17.85
736.585	-3.15
736.609	2.85
736.634	-14.15
736.658	4.85
736.682	-6.15
736.707	-10.15
736.731	-24.15
736.755	12.85
736.78	11.85
736.804	10.85
736.828	8.85
736.852	-7.15
736.877	6.85
736.901	4.85
736.925	-6.15
736.949	-0.15
736.974	0.85
736.998	-9.15
737.022	1.85
737.047	-2.15
737.071	-5.15
737.095	5.85
737.119	20.85
737.144	14.85
737.168	-0.15
737.192	0.85
737.216	14.85
737.241	8.85
737.265	2.85
737.289	1.85
737.313	-7.15
737.337	5.85
737.362	-2.15
737.386	-5.15
737.41	-3.15
737.434	-7.15
737.459	-2.15
737.483	9.85
737.507	24.85
737.531	13.85
737.555	12.85
737.58	8.85
737.604	1.85
737.628	-2.15
737.652	8.85
737.676	7.85
737.701	4.85
737.725	6.85
737.749	12.85
737.773	-0.15
737.797	9.85
737.821	5.85
737.846	1.85
737.87	34.85
737.894	-0.15
737.918	-8.15
737.942	-7.15
737.966	15.85
737.99	25.85
738.015	7.85
738.039	8.85
738.063	1.85
738.087	5.85
738.111	21.85
738.135	18.85
738.159	-1.15
738.184	5.85
738.208	5.85
738.232	6.85
738.256	17.85
738.28	18.85
738.304	13.85
738.328	12.85
738.352	21.85
738.376	1.85
738.4	14.85
738.425	13.85
738.449	2.85
738.473	36.85
738.497	5.85
738.521	12.85
738.545	7.85
738.569	17.85
738.593	18.85
738.617	12.85
738.641	1.85
738.665	-2.15
738.689	-2.15
738.713	-3.15
738.737	13.85
738.762	12.85
738.786	10.85
738.81	-15.15
738.834	16.85
738.858	7.85
738.882	4.85
738.906	-10.15
738.93	4.85
738.954	10.85
738.978	5.85
739.002	6.85
739.026	5.85
739.05	2.85
739.074	1.85
739.098	28.85
739.122	15.85
739.146	-0.15
739.17	19.85
739.194	15.85
739.218	1.85
739.242	-15.15
739.266	-8.15
739.29	15.85
739.314	3.85
739.338	8.85
739.362	11.85
739.386	9.85
739.41	-6.15
739.434	-2.15
739.458	-0.15
739.482	11.85
739.506	16.85
739.53	-10.15
739.554	6.85
739.577	0.85
739.601	21.85
739.625	4.85
739.649	-21.15
739.673	2.85
739.697	28.85
739.721	4.85
739.745	14.85
739.769	13.85
739.793	7.85
739.817	5.85
739.841	9.85
739.865	-7.15
739.889	-8.15
739.912	-2.15
739.936	-9.15
739.96	9.85
739.984	0.85
740.008	-7.15
740.032	1.85
740.056	14.85
740.08	18.85
740.104	2.85
740.127	10.85
740.151	17.85
740.175	10.85
740.199	2.85
740.223	35.85
740.247	-2.15
740.271	2.85
740.295	-5.15
740.318	-0.15
740.342	-0.15
740.366	-0.15
740.39	25.85
740.414	9.85
740.438	0.85
740.461	1.85
740.485	3.85
740.509	8.85
740.533	1.85
740.557	-4.15
740.581	-11.15
740.604	-22.15
740.628	-11.15
740.652	14.85
740.676	10.85
740.7	4.85
740.723	1.85
740.747	-3.15
740.771	3.85
740.795	-12.15
740.819	-1.15
740.842	4.85
740.866	10.85
740.89	1.85
740.914	6.85
740.938	2.85
740.961	10.85
740.985	17.85
741.009	-2.15
741.033	16.85
741.056	9.85
741.08	8.85
741.104	19.85
741.128	11.85
741.151	23.85
741.175	0.85
741.199	0.85
741.223	-6.15
741.246	-4.15
741.27	3.85
741.294	7.85
741.318	16.85
741.341	-2.15
741.365	-2.15
741.389	13.85
741.413	10.85
741.436	27.85
741.46	-2.15
741.484	7.85
741.507	3.85
741.531	36.85
741.555	23.85
741.579	4.85
741.602	-3.15
741.626	4.85
741.65	-9.15
741.673	4.85
741.697	15.85
741.721	0.85
741.744	-8.15
741.768	-0.15
741.792	0.85
741.815	-11.15
741.839	25.85
741.863	19.85
741.886	19.85
741.91	3.85
741.934	18.85
741.957	-16.15
741.981	10.85
742.005	5.85
742.028	-6.15
742.052	-7.15
742.075	11.85
742.099	9.85
742.123	-1.15
742.146	1.85
742.17	0.85
742.194	-15.15
742.217	-4.15
742.241	-2.15
742.264	-7.15
742.288	18.85
742.312	4.85
742.335	-8.15
742.359	4.85
742.382	1.85
742.406	24.85
742.43	-7.15
742.453	10.85
742.477	5.85
742.5	13.85
742.524	-6.15
742.548	4.85
742.571	0.85
742.595	2.85
742.618	2.85
742.642	12.85
742.665	11.85
742.689	-20.15
742.712	0.85
742.736	-3.15
742.76	-3.15
742.783	4.85
742.807	1.85
742.83	8.85
742.854	-7.15
742.877	0.85
742.901	14.85
742.924	25.85
742.948	-2.15
742.971	7.85
742.995	7.85
743.018	-13.15
743.042	1.85
743.065	-14.15
743.089	-11.15
743.112	1.85
743.136	-0.15
743.159	-5.15
743.183	-4.15
743.206	7.85
743.23	9.85
743.253	-6.15
743.277	13.85
743.3	-1.15
743.324	5.85
743.347	-0.15
743.371	15.85
743.394	8.85
743.418	12.85
743.441	7.85
743.465	10.85
743.488	-0.15
743.512	-19.15
743.535	-15.15
743.558	0.85
743.582	7.85
743.605	-1.15
743.629	8.85
743.652	13.85
743.676	-1.15
743.699	9.85
743.723	9.85
743.746	20.85
743.769	-2.15
743.793	2.85
743.816	12.85
743.84	24.85
743.863	2.85
743.886	-2.15
743.91	-2.15
743.933	14.85
743.957	-1.15
743.98	-2.15
744.003	8.85
744.027	3.85
744.05	-0.15
744.074	1.85
744.097	-7.15
744.12	-1.15
744.144	-6.15
744.167	-0.15
744.19	1.85
744.214	-0.15
744.237	-0.15
744.26	8.85
744.284	0.85
744.307	-13.15
744.331	1.85
744.354	-1.15
744.377	-13.15
744.401	-4.15
744.424	0.85
744.447	-10.15
744.471	-5.15
