Data from HighRes_H2D2_15_04_11_07_2024_HR4C61891__22__15-05-36-643.txt Node

Date: Thu Nov 07 15:05:36 EST 2024
User: crc00042
Spectrometer: HR4C6189
Trigger mode: 4
Integration Time (sec): 1.000000E-1
Scans to average: 1
Electric dark correction enabled: true
Nonlinearity correction enabled: false
Boxcar width: 0
XAxis mode: Wavelengths
Number of Pixels in Spectrum: 3648
>>>>>Begin Spectral Data<<<<<
639.567	-75.38
639.602	-75.38
639.636	-75.38
639.67	-48.38
639.704	-10.38
639.738	6.62
639.773	13.62
639.807	-5.38
639.841	-2.38
639.875	5.62
639.909	-12.38
639.943	-9.38
639.978	-7.38
640.012	-6.38
640.046	6.62
640.08	6.62
640.114	1.62
640.148	2.62
640.182	-5.38
640.217	9.62
640.251	22.62
640.285	6.62
640.319	1.62
640.353	-5.38
640.387	0.62
640.421	7.62
640.455	-12.38
640.49	-3.38
640.524	13.62
640.558	21.62
640.592	13.62
640.626	1.62
640.66	11.62
640.694	-8.38
640.728	5.62
640.762	0.62
640.796	19.62
640.83	10.62
640.865	-0.38
640.899	5.62
640.933	5.62
640.967	-3.38
641.001	-1.38
641.035	17.62
641.069	1.62
641.103	-10.38
641.137	-0.38
641.171	-15.38
641.205	20.62
641.239	10.62
641.273	0.62
641.307	-10.38
641.341	8.62
641.375	-5.38
641.409	-13.38
641.443	7.62
641.477	8.62
641.511	7.62
641.545	8.62
641.579	-0.38
641.614	8.62
641.648	12.62
641.682	4.62
641.716	5.62
641.75	5.62
641.784	-13.38
641.818	-11.38
641.852	-9.38
641.886	-5.38
641.919	31.62
641.953	14.62
641.987	-26.38
642.021	-4.38
642.055	21.62
642.089	9.62
642.123	-9.38
642.157	0.62
642.191	-7.38
642.225	14.62
642.259	10.62
642.293	2.62
642.327	2.62
642.361	9.62
642.395	22.62
642.429	25.62
642.463	4.62
642.497	2.62
642.531	9.62
642.565	-14.38
642.599	4.62
642.633	-14.38
642.666	17.62
642.7	17.62
642.734	11.62
642.768	6.62
642.802	12.62
642.836	4.62
642.87	9.62
642.904	16.62
642.938	3.62
642.972	12.62
643.005	-7.38
643.039	10.62
643.073	-1.38
643.107	14.62
643.141	-3.38
643.175	6.62
643.209	-5.38
643.243	1.62
643.276	9.62
643.31	23.62
643.344	2.62
643.378	-7.38
643.412	14.62
643.446	-13.38
643.48	-9.38
643.513	8.62
643.547	5.62
643.581	0.62
643.615	15.62
643.649	-2.38
643.683	5.62
643.716	3.62
643.75	11.62
643.784	-17.38
643.818	11.62
643.852	-0.38
643.886	-2.38
643.919	11.62
643.953	8.62
643.987	9.62
644.021	2.62
644.055	-6.38
644.088	-16.38
644.122	-18.38
644.156	-5.38
644.19	1.62
644.224	3.62
644.257	5.62
644.291	14.62
644.325	6.62
644.359	-0.38
644.392	15.62
644.426	16.62
644.46	9.62
644.494	0.62
644.527	1.62
644.561	0.62
644.595	-2.38
644.629	-11.38
644.662	0.62
644.696	11.62
644.73	25.62
644.764	3.62
644.797	6.62
644.831	-4.38
644.865	2.62
644.899	-2.38
644.932	24.62
644.966	7.62
645	28.62
645.033	11.62
645.067	0.62
645.101	10.62
645.135	2.62
645.168	-8.38
645.202	-4.38
645.236	-5.38
645.269	12.62
645.303	2.62
645.337	-10.38
645.37	-13.38
645.404	1.62
645.438	13.62
645.471	-3.38
645.505	5.62
645.539	5.62
645.572	-4.38
645.606	-2.38
645.64	-2.38
645.673	15.62
645.707	13.62
645.741	1.62
645.774	-4.38
645.808	13.62
645.842	1.62
645.875	1.62
645.909	-15.38
645.943	-3.38
645.976	-4.38
646.01	-4.38
646.043	-0.38
646.077	21.62
646.111	4.62
646.144	0.62
646.178	10.62
646.212	-3.38
646.245	-8.38
646.279	1.62
646.312	11.62
646.346	20.62
646.38	7.62
646.413	10.62
646.447	10.62
646.48	-3.38
646.514	9.62
646.547	-9.38
646.581	-10.38
646.615	8.62
646.648	3.62
646.682	3.62
646.715	1.62
646.749	19.62
646.782	8.62
646.816	-3.38
646.85	19.62
646.883	-1.38
646.917	7.62
646.95	1.62
646.984	15.62
647.017	13.62
647.051	5.62
647.084	12.62
647.118	-0.38
647.151	1.62
647.185	4.62
647.218	-17.38
647.252	5.62
647.285	-15.38
647.319	-3.38
647.353	7.62
647.386	16.62
647.42	-2.38
647.453	4.62
647.487	6.62
647.52	5.62
647.553	-6.38
647.587	-5.38
647.62	-2.38
647.654	-1.38
647.687	0.62
647.721	-4.38
647.754	17.62
647.788	12.62
647.821	1.62
647.855	4.62
647.888	7.62
647.922	9.62
647.955	5.62
647.989	17.62
648.022	4.62
648.055	0.62
648.089	3.62
648.122	25.62
648.156	-0.38
648.189	-2.38
648.223	8.62
648.256	13.62
648.29	5.62
648.323	-10.38
648.356	-5.38
648.39	-0.38
648.423	8.62
648.457	2.62
648.49	10.62
648.523	18.62
648.557	-10.38
648.59	-0.38
648.624	6.62
648.657	7.62
648.69	8.62
648.724	1.62
648.757	23.62
648.791	4.62
648.824	10.62
648.857	11.62
648.891	9.62
648.924	11.62
648.957	23.62
648.991	-1.38
649.024	1.62
649.057	-2.38
649.091	9.62
649.124	17.62
649.158	6.62
649.191	23.62
649.224	4.62
649.258	-2.38
649.291	8.62
649.324	13.62
649.358	0.62
649.391	-5.38
649.424	-7.38
649.458	-4.38
649.491	2.62
649.524	-4.38
649.557	-2.38
649.591	-11.38
649.624	2.62
649.657	-16.38
649.691	-7.38
649.724	4.62
649.757	-7.38
649.791	-13.38
649.824	4.62
649.857	-6.38
649.89	15.62
649.924	3.62
649.957	1.62
649.99	-2.38
650.023	4.62
650.057	9.62
650.09	7.62
650.123	-4.38
650.157	5.62
650.19	-1.38
650.223	-18.38
650.256	-3.38
650.29	-7.38
650.323	-3.38
650.356	-4.38
650.389	4.62
650.423	-5.38
650.456	-0.38
650.489	8.62
650.522	9.62
650.555	-13.38
650.589	5.62
650.622	6.62
650.655	14.62
650.688	0.62
650.721	-6.38
650.755	-1.38
650.788	2.62
650.821	-5.38
650.854	-13.38
650.887	-4.38
650.921	-2.38
650.954	6.62
650.987	-5.38
651.02	-3.38
651.053	3.62
651.087	-20.38
651.12	10.62
651.153	-1.38
651.186	-12.38
651.219	-7.38
651.252	-2.38
651.286	15.62
651.319	8.62
651.352	-6.38
651.385	-4.38
651.418	3.62
651.451	26.62
651.484	-0.38
651.518	-1.38
651.551	19.62
651.584	2.62
651.617	5.62
651.65	-2.38
651.683	9.62
651.716	4.62
651.749	-11.38
651.783	-2.38
651.816	-1.38
651.849	12.62
651.882	-1.38
651.915	-10.38
651.948	10.62
651.981	2.62
652.014	-17.38
652.047	-2.38
652.08	-6.38
652.114	-9.38
652.147	-5.38
652.18	1.62
652.213	26.62
652.246	-6.38
652.279	-15.38
652.312	2.62
652.345	-13.38
652.378	-2.38
652.411	25.62
652.444	17.62
652.477	10.62
652.51	-2.38
652.543	-14.38
652.576	9.62
652.609	2.62
652.642	-1.38
652.675	18.62
652.709	2.62
652.742	15.62
652.775	12.62
652.808	9.62
652.841	1.62
652.874	-5.38
652.907	-1.38
652.94	5.62
652.973	-4.38
653.006	-17.38
653.039	12.62
653.072	18.62
653.105	-14.38
653.138	-14.38
653.171	-2.38
653.204	14.62
653.237	16.62
653.27	-5.38
653.303	8.62
653.336	15.62
653.368	-7.38
653.401	5.62
653.434	-2.38
653.467	10.62
653.5	-15.38
653.533	-19.38
653.566	9.62
653.599	21.62
653.632	16.62
653.665	16.62
653.698	-2.38
653.731	-7.38
653.764	-4.38
653.797	-6.38
653.83	10.62
653.863	16.62
653.896	-3.38
653.929	-6.38
653.961	13.62
653.994	7.62
654.027	-12.38
654.06	12.62
654.093	-7.38
654.126	16.62
654.159	7.62
654.192	11.62
654.225	-10.38
654.258	5.62
654.29	12.62
654.323	22.62
654.356	2.62
654.389	-8.38
654.422	-17.38
654.455	7.62
654.488	6.62
654.521	-15.38
654.553	-23.38
654.586	10.62
654.619	-1.38
654.652	0.62
654.685	1.62
654.718	16.62
654.751	-0.38
654.783	-0.38
654.816	13.62
654.849	6.62
654.882	-2.38
654.915	-7.38
654.948	-5.38
654.98	-3.38
655.013	5.62
655.046	-3.38
655.079	-11.38
655.112	16.62
655.144	-3.38
655.177	12.62
655.21	7.62
655.243	18.62
655.276	5.62
655.308	7.62
655.341	3.62
655.374	-8.38
655.407	-12.38
655.44	-7.38
655.472	-1.38
655.505	18.62
655.538	5.62
655.571	11.62
655.603	5.62
655.636	-24.38
655.669	-2.38
655.702	8.62
655.734	-10.38
655.767	3.62
655.8	29.62
655.833	16.62
655.865	21.62
655.898	11.62
655.931	2.62
655.964	16.62
655.996	27.62
656.029	29.62
656.062	32.62
656.095	42.62
656.127	89.62
656.16	202.62
656.193	651.62
656.225	970.62
656.258	533.62
656.291	221.62
656.324	185.62
656.356	369.62
656.389	763.62
656.422	678.62
656.454	241.62
656.487	75.62
656.52	47.62
656.552	25.62
656.585	3.62
656.618	8.62
656.65	13.62
656.683	0.62
656.716	18.62
656.748	-3.38
656.781	-5.38
656.814	-4.38
656.846	3.62
656.879	-1.38
656.912	-6.38
656.944	-14.38
656.977	-6.38
657.01	-9.38
657.042	9.62
657.075	10.62
657.108	-4.38
657.14	4.62
657.173	11.62
657.205	28.62
657.238	13.62
657.271	8.62
657.303	2.62
657.336	3.62
657.369	1.62
657.401	-0.38
657.434	3.62
657.466	9.62
657.499	11.62
657.532	1.62
657.564	10.62
657.597	-19.38
657.629	2.62
657.662	-6.38
657.694	1.62
657.727	-6.38
657.76	3.62
657.792	13.62
657.825	-6.38
657.857	-5.38
657.89	4.62
657.922	4.62
657.955	-4.38
657.987	5.62
658.02	4.62
658.053	13.62
658.085	-8.38
658.118	21.62
658.15	7.62
658.183	13.62
658.215	4.62
658.248	-4.38
658.28	-9.38
658.313	14.62
658.345	19.62
658.378	8.62
658.41	-7.38
658.443	11.62
658.475	10.62
658.508	-8.38
658.54	-2.38
658.573	-8.38
658.605	5.62
658.638	-4.38
658.67	14.62
658.703	-9.38
658.735	-6.38
658.768	10.62
658.8	-1.38
658.833	25.62
658.865	14.62
658.898	-0.38
658.93	-9.38
658.963	5.62
658.995	-10.38
659.028	-0.38
659.06	9.62
659.092	8.62
659.125	6.62
659.157	4.62
659.19	-0.38
659.222	-0.38
659.255	-8.38
659.287	-5.38
659.32	8.62
659.352	8.62
659.384	19.62
659.417	-10.38
659.449	-5.38
659.482	2.62
659.514	-12.38
659.546	-22.38
659.579	-10.38
659.611	0.62
659.644	-1.38
659.676	-13.38
659.708	-13.38
659.741	-9.38
659.773	11.62
659.806	4.62
659.838	-1.38
659.87	-0.38
659.903	-4.38
659.935	1.62
659.967	13.62
660	-3.38
660.032	-6.38
660.065	4.62
660.097	-4.38
660.129	-0.38
660.162	-20.38
660.194	1.62
660.226	4.62
660.259	11.62
660.291	-12.38
660.323	4.62
660.356	2.62
660.388	-10.38
660.42	-7.38
660.453	1.62
660.485	9.62
660.517	5.62
660.55	22.62
660.582	14.62
660.614	13.62
660.647	4.62
660.679	-25.38
660.711	7.62
660.743	0.62
660.776	-15.38
660.808	1.62
660.84	-16.38
660.873	2.62
660.905	2.62
660.937	-21.38
660.969	-3.38
661.002	-3.38
661.034	-2.38
661.066	1.62
661.099	6.62
661.131	13.62
661.163	2.62
661.195	7.62
661.228	5.62
661.26	-5.38
661.292	-0.38
661.324	6.62
661.357	8.62
661.389	12.62
661.421	-2.38
661.453	4.62
661.485	3.62
661.518	3.62
661.55	-1.38
661.582	-14.38
661.614	0.62
661.647	6.62
661.679	8.62
661.711	8.62
661.743	4.62
661.775	-12.38
661.808	20.62
661.84	0.62
661.872	1.62
661.904	-8.38
661.936	-1.38
661.969	-14.38
662.001	0.62
662.033	5.62
662.065	-6.38
662.097	7.62
662.129	23.62
662.162	-7.38
662.194	-12.38
662.226	9.62
662.258	5.62
662.29	-3.38
662.322	2.62
662.355	-4.38
662.387	2.62
662.419	6.62
662.451	0.62
662.483	-5.38
662.515	11.62
662.547	-10.38
662.58	-5.38
662.612	-20.38
662.644	-18.38
662.676	8.62
662.708	17.62
662.74	-7.38
662.772	-1.38
662.804	3.62
662.836	25.62
662.869	-1.38
662.901	7.62
662.933	-0.38
662.965	21.62
662.997	3.62
663.029	-14.38
663.061	-10.38
663.093	4.62
663.125	11.62
663.157	12.62
663.189	0.62
663.221	7.62
663.254	8.62
663.286	3.62
663.318	-17.38
663.35	-23.38
663.382	5.62
663.414	-1.38
663.446	6.62
663.478	5.62
663.51	30.62
663.542	7.62
663.574	-6.38
663.606	8.62
663.638	4.62
663.67	-13.38
663.702	3.62
663.734	-5.38
663.766	-1.38
663.798	0.62
663.83	15.62
663.862	13.62
663.894	8.62
663.926	-1.38
663.958	13.62
663.99	-1.38
664.022	-2.38
664.054	0.62
664.086	1.62
664.118	-9.38
664.15	-26.38
664.182	-13.38
664.214	7.62
664.246	14.62
664.278	11.62
664.31	25.62
664.342	-2.38
664.374	0.62
664.406	-5.38
664.438	-2.38
664.47	11.62
664.502	-2.38
664.534	12.62
664.566	2.62
664.598	5.62
664.63	1.62
664.662	6.62
664.693	-1.38
664.725	-5.38
664.757	-7.38
664.789	-1.38
664.821	30.62
664.853	7.62
664.885	-3.38
664.917	-0.38
664.949	7.62
664.981	15.62
665.013	14.62
665.045	-0.38
665.076	7.62
665.108	9.62
665.14	4.62
665.172	-1.38
665.204	-11.38
665.236	-3.38
665.268	9.62
665.3	-3.38
665.331	-19.38
665.363	9.62
665.395	-18.38
665.427	-16.38
665.459	6.62
665.491	-2.38
665.523	-5.38
665.555	0.62
665.586	-10.38
665.618	-2.38
665.65	-16.38
665.682	13.62
665.714	3.62
665.746	-13.38
665.777	-3.38
665.809	3.62
665.841	-9.38
665.873	-3.38
665.905	8.62
665.937	10.62
665.968	11.62
666	5.62
666.032	8.62
666.064	-6.38
666.096	0.62
666.127	2.62
666.159	8.62
666.191	12.62
666.223	1.62
666.255	-8.38
666.286	0.62
666.318	-16.38
666.35	6.62
666.382	12.62
666.413	-14.38
666.445	-7.38
666.477	5.62
666.509	9.62
666.54	-13.38
666.572	-8.38
666.604	-1.38
666.636	6.62
666.667	36.62
666.699	14.62
666.731	7.62
666.763	-7.38
666.794	-0.38
666.826	7.62
666.858	-10.38
666.89	4.62
666.921	3.62
666.953	4.62
666.985	3.62
667.017	7.62
667.048	15.62
667.08	-14.38
667.112	-2.38
667.143	-8.38
667.175	-1.38
667.207	-2.38
667.238	8.62
667.27	21.62
667.302	6.62
667.334	-1.38
667.365	6.62
667.397	-2.38
667.429	-3.38
667.46	3.62
667.492	9.62
667.524	2.62
667.555	-13.38
667.587	-5.38
667.619	-13.38
667.65	-5.38
667.682	0.62
667.714	2.62
667.745	12.62
667.777	10.62
667.808	19.62
667.84	7.62
667.872	-1.38
667.903	23.62
667.935	9.62
667.967	-11.38
667.998	13.62
668.03	-4.38
668.061	15.62
668.093	0.62
668.125	1.62
668.156	-5.38
668.188	-5.38
668.22	11.62
668.251	15.62
668.283	11.62
668.314	7.62
668.346	-19.38
668.377	9.62
668.409	10.62
668.441	16.62
668.472	-4.38
668.504	1.62
668.535	13.62
668.567	9.62
668.599	0.62
668.63	-1.38
668.662	3.62
668.693	5.62
668.725	5.62
668.756	8.62
668.788	3.62
668.819	14.62
668.851	16.62
668.882	5.62
668.914	7.62
668.946	-7.38
668.977	2.62
669.009	9.62
669.04	-8.38
669.072	10.62
669.103	20.62
669.135	12.62
669.166	-3.38
669.198	12.62
669.229	7.62
669.261	13.62
669.292	13.62
669.324	7.62
669.355	-0.38
669.387	12.62
669.418	8.62
669.45	3.62
669.481	20.62
669.513	15.62
669.544	0.62
669.576	11.62
669.607	3.62
669.639	18.62
669.67	-5.38
669.701	-1.38
669.733	5.62
669.764	9.62
669.796	-8.38
669.827	-5.38
669.859	-17.38
669.89	3.62
669.922	5.62
669.953	13.62
669.985	-2.38
670.016	6.62
670.047	5.62
670.079	-2.38
670.11	18.62
670.142	-0.38
670.173	4.62
670.204	-1.38
670.236	16.62
670.267	2.62
670.299	2.62
670.33	-0.38
670.362	14.62
670.393	-6.38
670.424	1.62
670.456	-14.38
670.487	-0.38
670.518	-5.38
670.55	10.62
670.581	-4.38
670.613	-9.38
670.644	-8.38
670.675	-18.38
670.707	2.62
670.738	11.62
670.769	-3.38
670.801	-8.38
670.832	12.62
670.864	-8.38
670.895	9.62
670.926	-6.38
670.958	1.62
670.989	5.62
671.02	7.62
671.052	7.62
671.083	3.62
671.114	4.62
671.146	-3.38
671.177	3.62
671.208	-7.38
671.24	-7.38
671.271	3.62
671.302	8.62
671.333	-7.38
671.365	-13.38
671.396	-3.38
671.427	0.62
671.459	6.62
671.49	13.62
671.521	6.62
671.553	10.62
671.584	0.62
671.615	-13.38
671.646	8.62
671.678	-2.38
671.709	-23.38
671.74	-15.38
671.771	-14.38
671.803	-3.38
671.834	-6.38
671.865	-7.38
671.896	-0.38
671.928	4.62
671.959	-13.38
671.99	-16.38
672.021	-1.38
672.053	-18.38
672.084	5.62
672.115	9.62
672.146	-1.38
672.178	-11.38
672.209	-8.38
672.24	-1.38
672.271	29.62
672.303	7.62
672.334	9.62
672.365	9.62
672.396	5.62
672.427	1.62
672.459	3.62
672.49	13.62
672.521	2.62
672.552	18.62
672.583	1.62
672.615	2.62
672.646	7.62
672.677	-6.38
672.708	-11.38
672.739	7.62
672.77	16.62
672.802	8.62
672.833	-7.38
672.864	-10.38
672.895	-6.38
672.926	-6.38
672.957	-7.38
672.989	13.62
673.02	10.62
673.051	-11.38
673.082	11.62
673.113	3.62
673.144	6.62
673.175	18.62
673.206	11.62
673.238	1.62
673.269	-0.38
673.3	-7.38
673.331	5.62
673.362	2.62
673.393	3.62
673.424	15.62
673.455	22.62
673.487	11.62
673.518	5.62
673.549	4.62
673.58	-7.38
673.611	6.62
673.642	12.62
673.673	-29.38
673.704	-9.38
673.735	-6.38
673.766	20.62
673.797	-5.38
673.828	-7.38
673.86	-4.38
673.891	1.62
673.922	-8.38
673.953	-8.38
673.984	13.62
674.015	7.62
674.046	11.62
674.077	1.62
674.108	-6.38
674.139	-15.38
674.17	7.62
674.201	-18.38
674.232	1.62
674.263	-6.38
674.294	-1.38
674.325	-6.38
674.356	11.62
674.387	16.62
674.418	7.62
674.449	7.62
674.48	3.62
674.511	8.62
674.542	0.62
674.573	-14.38
674.604	-9.38
674.635	5.62
674.666	8.62
674.697	-9.38
674.728	-0.38
674.759	-2.38
674.79	-14.38
674.821	1.62
674.852	6.62
674.883	-0.38
674.914	-2.38
674.945	5.62
674.976	6.62
675.007	1.62
675.038	0.62
675.069	-27.38
675.1	-8.38
675.131	-10.38
675.162	-3.38
675.193	4.62
675.224	4.62
675.254	-5.38
675.285	17.62
675.316	9.62
675.347	-1.38
675.378	-9.38
675.409	-5.38
675.44	-5.38
675.471	9.62
675.502	4.62
675.533	-11.38
675.564	-1.38
675.595	7.62
675.625	9.62
675.656	8.62
675.687	2.62
675.718	-22.38
675.749	10.62
675.78	12.62
675.811	5.62
675.842	3.62
675.873	-2.38
675.903	-3.38
675.934	-4.38
675.965	2.62
675.996	-21.38
676.027	13.62
676.058	-3.38
676.089	-10.38
676.119	11.62
676.15	9.62
676.181	-0.38
676.212	-5.38
676.243	5.62
676.274	-5.38
676.304	21.62
676.335	-6.38
676.366	-0.38
676.397	-0.38
676.428	5.62
676.459	3.62
676.489	19.62
676.52	5.62
676.551	-1.38
676.582	1.62
676.613	0.62
676.643	-13.38
676.674	-0.38
676.705	-2.38
676.736	9.62
676.767	5.62
676.797	15.62
676.828	9.62
676.859	4.62
676.89	1.62
676.92	1.62
676.951	-9.38
676.982	6.62
677.013	3.62
677.044	8.62
677.074	4.62
677.105	-11.38
677.136	1.62
677.167	-1.38
677.197	10.62
677.228	2.62
677.259	-4.38
677.289	8.62
677.32	-7.38
677.351	-0.38
677.382	-1.38
677.412	-1.38
677.443	1.62
677.474	7.62
677.505	-21.38
677.535	-4.38
677.566	-9.38
677.597	-2.38
677.627	-0.38
677.658	0.62
677.689	-3.38
677.72	6.62
677.75	-15.38
677.781	5.62
677.812	-5.38
677.842	-3.38
677.873	20.62
677.904	7.62
677.934	7.62
677.965	-5.38
677.996	-7.38
678.026	6.62
678.057	8.62
678.088	-1.38
678.118	-0.38
678.149	-9.38
678.18	10.62
678.21	8.62
678.241	8.62
678.272	5.62
678.302	10.62
678.333	1.62
678.363	22.62
678.394	3.62
678.425	5.62
678.455	-5.38
678.486	7.62
678.517	-10.38
678.547	-1.38
678.578	7.62
678.608	-6.38
678.639	-5.38
678.67	1.62
678.7	-3.38
678.731	-5.38
678.761	1.62
678.792	5.62
678.823	8.62
678.853	5.62
678.884	-14.38
678.914	-6.38
678.945	5.62
678.975	-5.38
679.006	14.62
679.037	-3.38
679.067	19.62
679.098	13.62
679.128	-7.38
679.159	-13.38
679.189	6.62
679.22	-8.38
679.25	9.62
679.281	-16.38
679.312	-4.38
679.342	8.62
679.373	8.62
679.403	-0.38
679.434	-4.38
679.464	-4.38
679.495	11.62
679.525	9.62
679.556	6.62
679.586	26.62
679.617	17.62
679.647	18.62
679.678	6.62
679.708	5.62
679.739	12.62
679.769	6.62
679.8	0.62
679.83	12.62
679.861	14.62
679.891	-8.38
679.922	-15.38
679.952	-3.38
679.983	4.62
680.013	16.62
680.044	8.62
680.074	7.62
680.105	12.62
680.135	8.62
680.165	-1.38
680.196	2.62
680.226	21.62
680.257	14.62
680.287	-4.38
680.318	5.62
680.348	4.62
680.379	5.62
680.409	1.62
680.439	2.62
680.47	-2.38
680.5	1.62
680.531	-10.38
680.561	22.62
680.592	10.62
680.622	19.62
680.652	7.62
680.683	13.62
680.713	14.62
680.744	1.62
680.774	-26.38
680.804	25.62
680.835	6.62
680.865	0.62
680.896	7.62
680.926	9.62
680.956	-1.38
680.987	16.62
681.017	8.62
681.047	26.62
681.078	-8.38
681.108	7.62
681.139	-0.38
681.169	-25.38
681.199	-10.38
681.23	1.62
681.26	10.62
681.29	11.62
681.321	0.62
681.351	-2.38
681.381	-15.38
681.412	0.62
681.442	8.62
681.472	17.62
681.503	2.62
681.533	1.62
681.563	6.62
681.594	9.62
681.624	8.62
681.654	-2.38
681.685	5.62
681.715	-0.38
681.745	-12.38
681.775	-5.38
681.806	15.62
681.836	0.62
681.866	-9.38
681.897	18.62
681.927	1.62
681.957	-18.38
681.987	8.62
682.018	-15.38
682.048	7.62
682.078	11.62
682.109	23.62
682.139	19.62
682.169	-2.38
682.199	9.62
682.23	-0.38
682.26	-3.38
682.29	-10.38
682.32	4.62
682.351	-9.38
682.381	6.62
682.411	7.62
682.441	9.62
682.472	2.62
682.502	-3.38
682.532	14.62
682.562	-2.38
682.592	12.62
682.623	-8.38
682.653	-3.38
682.683	-7.38
682.713	-2.38
682.743	-2.38
682.774	14.62
682.804	25.62
682.834	17.62
682.864	-6.38
682.894	-9.38
682.925	-0.38
682.955	11.62
682.985	1.62
683.015	-2.38
683.045	1.62
683.076	-14.38
683.106	-13.38
683.136	-9.38
683.166	-10.38
683.196	0.62
683.226	-3.38
683.257	-8.38
683.287	6.62
683.317	-8.38
683.347	1.62
683.377	1.62
683.407	7.62
683.437	22.62
683.468	15.62
683.498	-8.38
683.528	1.62
683.558	-3.38
683.588	-3.38
683.618	-5.38
683.648	10.62
683.678	6.62
683.708	15.62
683.739	-2.38
683.769	-1.38
683.799	9.62
683.829	-8.38
683.859	6.62
683.889	11.62
683.919	2.62
683.949	0.62
683.979	12.62
684.009	9.62
684.039	17.62
684.07	9.62
684.1	16.62
684.13	13.62
684.16	17.62
684.19	-3.38
684.22	-0.38
684.25	6.62
684.28	8.62
684.31	22.62
684.34	16.62
684.37	10.62
684.4	1.62
684.43	11.62
684.46	19.62
684.49	10.62
684.52	3.62
684.55	16.62
684.58	0.62
684.61	14.62
684.64	17.62
684.67	14.62
684.7	2.62
684.73	12.62
684.76	-5.38
684.79	15.62
684.82	-13.38
684.85	-7.38
684.88	7.62
684.91	9.62
684.94	17.62
684.97	-13.38
685	8.62
685.03	-5.38
685.06	-8.38
685.09	-4.38
685.12	30.62
685.15	-18.38
685.18	4.62
685.21	1.62
685.24	20.62
685.27	0.62
685.3	-5.38
685.33	8.62
685.36	-1.38
685.39	11.62
685.42	2.62
685.45	-7.38
685.48	9.62
685.51	8.62
685.54	8.62
685.569	9.62
685.599	15.62
685.629	18.62
685.659	-4.38
685.689	3.62
685.719	0.62
685.749	-6.38
685.779	9.62
685.809	14.62
685.839	5.62
685.869	-2.38
685.898	5.62
685.928	-8.38
685.958	4.62
685.988	14.62
686.018	2.62
686.048	-2.38
686.078	13.62
686.108	11.62
686.137	5.62
686.167	7.62
686.197	-21.38
686.227	-4.38
686.257	28.62
686.287	25.62
686.317	-3.38
686.346	6.62
686.376	-7.38
686.406	0.62
686.436	-2.38
686.466	-5.38
686.496	8.62
686.525	11.62
686.555	-7.38
686.585	5.62
686.615	22.62
686.645	2.62
686.675	5.62
686.704	29.62
686.734	11.62
686.764	-6.38
686.794	2.62
686.824	-25.38
686.853	5.62
686.883	5.62
686.913	11.62
686.943	11.62
686.973	-7.38
687.002	-8.38
687.032	21.62
687.062	1.62
687.092	7.62
687.121	-4.38
687.151	9.62
687.181	6.62
687.211	9.62
687.24	-11.38
687.27	-0.38
687.3	6.62
687.33	4.62
687.359	-8.38
687.389	15.62
687.419	2.62
687.449	14.62
687.478	8.62
687.508	-9.38
687.538	21.62
687.568	3.62
687.597	-18.38
687.627	5.62
687.657	7.62
687.686	10.62
687.716	24.62
687.746	0.62
687.776	4.62
687.805	5.62
687.835	-4.38
687.865	6.62
687.894	13.62
687.924	4.62
687.954	-9.38
687.983	2.62
688.013	26.62
688.043	16.62
688.072	2.62
688.102	7.62
688.132	2.62
688.161	-8.38
688.191	6.62
688.221	21.62
688.25	15.62
688.28	-3.38
688.31	-3.38
688.339	-2.38
688.369	-5.38
688.399	9.62
688.428	-18.38
688.458	9.62
688.488	-0.38
688.517	18.62
688.547	8.62
688.576	20.62
688.606	23.62
688.636	-8.38
688.665	21.62
688.695	12.62
688.725	21.62
688.754	21.62
688.784	15.62
688.813	9.62
688.843	-6.38
688.873	-5.38
688.902	-1.38
688.932	-6.38
688.961	-2.38
688.991	18.62
689.02	8.62
689.05	2.62
689.08	17.62
689.109	7.62
689.139	2.62
689.168	-3.38
689.198	-0.38
689.227	-10.38
689.257	4.62
689.287	1.62
689.316	-3.38
689.346	9.62
689.375	-17.38
689.405	13.62
689.434	2.62
689.464	5.62
689.493	6.62
689.523	-0.38
689.552	-0.38
689.582	2.62
689.611	3.62
689.641	7.62
689.67	-1.38
689.7	16.62
689.73	4.62
689.759	7.62
689.789	31.62
689.818	1.62
689.848	11.62
689.877	22.62
689.906	-1.38
689.936	-14.38
689.965	0.62
689.995	14.62
690.024	-4.38
690.054	2.62
690.083	6.62
690.113	12.62
690.142	-1.38
690.172	-5.38
690.201	5.62
690.231	9.62
690.26	4.62
690.29	-13.38
690.319	2.62
690.348	2.62
690.378	-0.38
690.407	9.62
690.437	-4.38
690.466	4.62
690.496	-4.38
690.525	5.62
690.555	5.62
690.584	9.62
690.613	12.62
690.643	5.62
690.672	12.62
690.702	5.62
690.731	-5.38
690.76	-1.38
690.79	-7.38
690.819	-6.38
690.849	-13.38
690.878	3.62
690.907	8.62
690.937	3.62
690.966	13.62
690.996	10.62
691.025	4.62
691.054	3.62
691.084	-1.38
691.113	2.62
691.142	10.62
691.172	-3.38
691.201	10.62
691.23	5.62
691.26	14.62
691.289	19.62
691.319	26.62
691.348	6.62
691.377	1.62
691.407	0.62
691.436	11.62
691.465	33.62
691.495	-8.38
691.524	-11.38
691.553	-1.38
691.583	6.62
691.612	30.62
691.641	13.62
691.67	-2.38
691.7	10.62
691.729	-4.38
691.758	7.62
691.788	1.62
691.817	4.62
691.846	0.62
691.876	9.62
691.905	20.62
691.934	-11.38
691.963	10.62
691.993	9.62
692.022	-13.38
692.051	-12.38
692.081	30.62
692.11	22.62
692.139	13.62
692.168	9.62
692.198	11.62
692.227	14.62
692.256	0.62
692.285	2.62
692.315	17.62
692.344	7.62
692.373	26.62
692.402	-14.38
692.432	-0.38
692.461	3.62
692.49	-1.38
692.519	-3.38
692.548	14.62
692.578	-0.38
692.607	-6.38
692.636	2.62
692.665	16.62
692.694	10.62
692.724	10.62
692.753	2.62
692.782	17.62
692.811	-11.38
692.84	-7.38
692.87	4.62
692.899	15.62
692.928	13.62
692.957	8.62
692.986	3.62
693.016	12.62
693.045	9.62
693.074	17.62
693.103	-0.38
693.132	3.62
693.161	8.62
693.191	-7.38
693.22	-12.38
693.249	-6.38
693.278	-11.38
693.307	14.62
693.336	-2.38
693.365	-14.38
693.395	4.62
693.424	7.62
693.453	8.62
693.482	3.62
693.511	11.62
693.54	11.62
693.569	19.62
693.598	1.62
693.628	-1.38
693.657	0.62
693.686	13.62
693.715	12.62
693.744	12.62
693.773	25.62
693.802	5.62
693.831	-1.38
693.86	23.62
693.889	-4.38
693.919	0.62
693.948	-6.38
693.977	0.62
694.006	-19.38
694.035	-16.38
694.064	-3.38
694.093	-10.38
694.122	13.62
694.151	5.62
694.18	17.62
694.209	26.62
694.238	9.62
694.267	11.62
694.296	24.62
694.325	5.62
694.354	10.62
694.383	-1.38
694.412	4.62
694.441	19.62
694.471	1.62
694.5	-15.38
694.529	7.62
694.558	20.62
694.587	13.62
694.616	21.62
694.645	9.62
694.674	10.62
694.703	7.62
694.732	-2.38
694.761	4.62
694.79	1.62
694.819	-7.38
694.848	4.62
694.877	31.62
694.906	15.62
694.935	0.62
694.963	20.62
694.992	12.62
695.021	-6.38
695.05	6.62
695.079	12.62
695.108	9.62
695.137	23.62
695.166	12.62
695.195	-0.38
695.224	17.62
695.253	7.62
695.282	10.62
695.311	2.62
695.34	5.62
695.369	12.62
695.398	-1.38
695.427	28.62
695.456	9.62
695.485	9.62
695.513	-9.38
695.542	7.62
695.571	11.62
695.6	20.62
695.629	8.62
695.658	13.62
695.687	-7.38
695.716	20.62
695.745	17.62
695.774	-11.38
695.802	-1.38
695.831	1.62
695.86	4.62
695.889	13.62
695.918	7.62
695.947	5.62
695.976	0.62
696.005	4.62
696.033	-7.38
696.062	12.62
696.091	3.62
696.12	5.62
696.149	23.62
696.178	-0.38
696.207	6.62
696.235	-11.38
696.264	25.62
696.293	20.62
696.322	8.62
696.351	3.62
696.38	5.62
696.408	6.62
696.437	-0.38
696.466	12.62
696.495	20.62
696.524	19.62
696.553	8.62
696.581	19.62
696.61	2.62
696.639	-5.38
696.668	5.62
696.697	-1.38
696.725	10.62
696.754	8.62
696.783	6.62
696.812	7.62
696.84	14.62
696.869	9.62
696.898	13.62
696.927	8.62
696.956	12.62
696.984	1.62
697.013	17.62
697.042	1.62
697.071	21.62
697.099	23.62
697.128	10.62
697.157	13.62
697.186	1.62
697.214	-3.38
697.243	-11.38
697.272	1.62
697.301	19.62
697.329	6.62
697.358	5.62
697.387	15.62
697.415	14.62
697.444	9.62
697.473	-4.38
697.502	0.62
697.53	20.62
697.559	8.62
697.588	27.62
697.616	5.62
697.645	-2.38
697.674	18.62
697.703	15.62
697.731	15.62
697.76	7.62
697.789	-16.38
697.817	11.62
697.846	13.62
697.875	5.62
697.903	24.62
697.932	10.62
697.961	14.62
697.989	18.62
698.018	10.62
698.047	5.62
698.075	17.62
698.104	2.62
698.133	-1.38
698.161	-1.38
698.19	7.62
698.218	-15.38
698.247	11.62
698.276	7.62
698.304	14.62
698.333	-10.38
698.362	4.62
698.39	9.62
698.419	10.62
698.447	-7.38
698.476	-8.38
698.505	-0.38
698.533	9.62
698.562	0.62
698.591	-2.38
698.619	-10.38
698.648	3.62
698.676	6.62
698.705	1.62
698.733	-2.38
698.762	-1.38
698.791	16.62
698.819	10.62
698.848	19.62
698.876	9.62
698.905	10.62
698.933	10.62
698.962	-1.38
698.991	1.62
699.019	12.62
699.048	2.62
699.076	7.62
699.105	12.62
699.133	4.62
699.162	8.62
699.19	18.62
699.219	-2.38
699.248	-3.38
699.276	-11.38
699.305	-6.38
699.333	8.62
699.362	-5.38
699.39	13.62
699.419	4.62
699.447	-7.38
699.476	1.62
699.504	-1.38
699.533	1.62
699.561	2.62
699.59	15.62
699.618	7.62
699.647	-8.38
699.675	1.62
699.704	7.62
699.732	6.62
699.761	12.62
699.789	2.62
699.818	6.62
699.846	8.62
699.874	8.62
699.903	19.62
699.931	9.62
699.96	6.62
699.988	2.62
700.017	7.62
700.045	9.62
700.074	9.62
700.102	1.62
700.13	-9.38
700.159	4.62
700.187	-0.38
700.216	5.62
700.244	-10.38
700.273	-8.38
700.301	-5.38
700.329	18.62
700.358	13.62
700.386	1.62
700.415	13.62
700.443	18.62
700.472	5.62
700.5	9.62
700.528	10.62
700.557	5.62
700.585	-5.38
700.614	2.62
700.642	11.62
700.67	11.62
700.699	3.62
700.727	5.62
700.755	4.62
700.784	3.62
700.812	-8.38
700.841	2.62
700.869	6.62
700.897	1.62
700.926	11.62
700.954	13.62
700.982	5.62
701.011	7.62
701.039	8.62
701.067	14.62
701.096	10.62
701.124	0.62
701.152	5.62
701.181	-4.38
701.209	-4.38
701.237	-3.38
701.266	-3.38
701.294	-8.38
701.322	3.62
701.351	-3.38
701.379	17.62
701.407	5.62
701.435	-1.38
701.464	8.62
701.492	32.62
701.52	7.62
701.549	-1.38
701.577	-5.38
701.605	-11.38
701.634	-10.38
701.662	0.62
701.69	-13.38
701.718	-9.38
701.747	2.62
701.775	-2.38
701.803	-6.38
701.831	6.62
701.86	-5.38
701.888	8.62
701.916	3.62
701.944	9.62
701.973	-18.38
702.001	3.62
702.029	-1.38
702.057	2.62
702.086	-14.38
702.114	-6.38
702.142	-5.38
702.17	-4.38
702.199	-2.38
702.227	3.62
702.255	5.62
702.283	1.62
702.311	24.62
702.34	-3.38
702.368	3.62
702.396	-7.38
702.424	3.62
702.452	-9.38
702.481	6.62
702.509	14.62
702.537	11.62
702.565	4.62
702.593	-2.38
702.621	6.62
702.65	11.62
702.678	13.62
702.706	22.62
702.734	3.62
702.762	4.62
702.79	1.62
702.819	5.62
702.847	-4.38
702.875	12.62
702.903	11.62
702.931	-24.38
702.959	7.62
702.988	21.62
703.016	-11.38
703.044	4.62
703.072	6.62
703.1	-1.38
703.128	-10.38
703.156	-0.38
703.184	-2.38
703.212	10.62
703.241	-14.38
703.269	2.62
703.297	10.62
703.325	12.62
703.353	-10.38
703.381	1.62
703.409	2.62
703.437	-14.38
703.465	5.62
703.493	-2.38
703.522	17.62
703.55	6.62
703.578	-0.38
703.606	4.62
703.634	-0.38
703.662	0.62
703.69	-11.38
703.718	1.62
703.746	24.62
703.774	9.62
703.802	22.62
703.83	1.62
703.858	1.62
703.886	-20.38
703.914	0.62
703.942	3.62
703.97	-16.38
703.998	-6.38
704.027	13.62
704.055	15.62
704.083	0.62
704.111	3.62
704.139	7.62
704.167	5.62
704.195	2.62
704.223	-1.38
704.251	-5.38
704.279	4.62
704.307	5.62
704.335	-12.38
704.363	-6.38
704.391	-6.38
704.419	2.62
704.447	2.62
704.475	-6.38
704.503	-15.38
704.531	5.62
704.558	5.62
704.586	0.62
704.614	-2.38
704.642	1.62
704.67	-5.38
704.698	-0.38
704.726	1.62
704.754	2.62
704.782	-14.38
704.81	-11.38
704.838	4.62
704.866	18.62
704.894	-23.38
704.922	-3.38
704.95	-3.38
704.978	6.62
705.006	5.62
705.034	17.62
705.061	-5.38
705.089	20.62
705.117	-4.38
705.145	1.62
705.173	-2.38
705.201	-9.38
705.229	5.62
705.257	0.62
705.285	11.62
705.313	1.62
705.34	-3.38
705.368	0.62
705.396	4.62
705.424	9.62
705.452	10.62
705.48	3.62
705.508	-0.38
705.536	23.62
705.563	5.62
705.591	12.62
705.619	20.62
705.647	4.62
705.675	1.62
705.703	10.62
705.731	3.62
705.758	10.62
705.786	5.62
705.814	18.62
705.842	8.62
705.87	9.62
705.898	11.62
705.925	-16.38
705.953	-6.38
705.981	-2.38
706.009	0.62
706.037	4.62
706.065	-1.38
706.092	23.62
706.12	15.62
706.148	-5.38
706.176	4.62
706.204	11.62
706.231	9.62
706.259	13.62
706.287	2.62
706.315	0.62
706.342	-2.38
706.37	14.62
706.398	9.62
706.426	4.62
706.454	-5.38
706.481	7.62
706.509	-0.38
706.537	4.62
706.565	-0.38
706.592	7.62
706.62	-2.38
706.648	15.62
706.676	-1.38
706.703	-1.38
706.731	-15.38
706.759	-10.38
706.787	-21.38
706.814	-0.38
706.842	4.62
706.87	1.62
706.897	5.62
706.925	-2.38
706.953	14.62
706.981	16.62
707.008	16.62
707.036	2.62
707.064	9.62
707.091	-0.38
707.119	17.62
707.147	15.62
707.174	-2.38
707.202	23.62
707.23	-11.38
707.258	-0.38
707.285	-5.38
707.313	-4.38
707.341	2.62
707.368	-4.38
707.396	8.62
707.424	23.62
707.451	-3.38
707.479	12.62
707.507	3.62
707.534	-3.38
707.562	9.62
707.59	-2.38
707.617	-2.38
707.645	0.62
707.672	-1.38
707.7	-3.38
707.728	8.62
707.755	-7.38
707.783	7.62
707.811	15.62
707.838	-11.38
707.866	6.62
707.893	-7.38
707.921	5.62
707.949	18.62
707.976	-0.38
708.004	7.62
708.031	-10.38
708.059	1.62
708.087	10.62
708.114	-1.38
708.142	-16.38
708.169	-8.38
708.197	-5.38
708.225	1.62
708.252	-10.38
708.28	11.62
708.307	1.62
708.335	-5.38
708.362	0.62
708.39	-17.38
708.418	-10.38
708.445	-7.38
708.473	-2.38
708.5	8.62
708.528	13.62
708.555	-15.38
708.583	16.62
708.61	-7.38
708.638	10.62
708.665	-9.38
708.693	-3.38
708.72	-4.38
708.748	-3.38
708.776	-5.38
708.803	12.62
708.831	-2.38
708.858	10.62
708.886	-8.38
708.913	4.62
708.941	7.62
708.968	19.62
708.996	-6.38
709.023	20.62
709.051	-0.38
709.078	-1.38
709.105	2.62
709.133	7.62
709.16	7.62
709.188	11.62
709.215	7.62
709.243	14.62
709.27	-6.38
709.298	-15.38
709.325	7.62
709.353	5.62
709.38	5.62
709.408	11.62
709.435	-7.38
709.462	-2.38
709.49	5.62
709.517	-5.38
709.545	-11.38
709.572	-3.38
709.6	11.62
709.627	-5.38
709.655	-15.38
709.682	-3.38
709.709	0.62
709.737	5.62
709.764	5.62
709.792	24.62
709.819	-0.38
709.846	7.62
709.874	6.62
709.901	2.62
709.929	24.62
709.956	4.62
709.983	-2.38
710.011	4.62
710.038	1.62
710.066	6.62
710.093	-1.38
710.12	5.62
710.148	0.62
710.175	0.62
710.202	-20.38
710.23	7.62
710.257	-6.38
710.284	19.62
710.312	-4.38
710.339	9.62
710.366	21.62
710.394	-1.38
710.421	4.62
710.448	-6.38
710.476	-11.38
710.503	-9.38
710.53	7.62
710.558	12.62
710.585	7.62
710.612	-6.38
710.64	14.62
710.667	0.62
710.694	-7.38
710.722	14.62
710.749	-1.38
710.776	-3.38
710.804	7.62
710.831	5.62
710.858	9.62
710.885	14.62
710.913	2.62
710.94	25.62
710.967	4.62
710.995	7.62
711.022	16.62
711.049	13.62
711.076	-0.38
711.104	2.62
711.131	-22.38
711.158	-2.38
711.185	-3.38
711.213	2.62
711.24	-4.38
711.267	5.62
711.294	8.62
711.322	17.62
711.349	6.62
711.376	5.62
711.403	4.62
711.431	2.62
711.458	-10.38
711.485	6.62
711.512	0.62
711.54	10.62
711.567	-7.38
711.594	0.62
711.621	12.62
711.648	4.62
711.676	2.62
711.703	-3.38
711.73	-10.38
711.757	9.62
711.784	12.62
711.812	-0.38
711.839	5.62
711.866	9.62
711.893	-11.38
711.92	10.62
711.947	-1.38
711.975	8.62
712.002	-13.38
712.029	5.62
712.056	8.62
712.083	8.62
712.11	-7.38
712.138	4.62
712.165	16.62
712.192	7.62
712.219	-6.38
712.246	-17.38
712.273	0.62
712.3	-8.38
712.328	6.62
712.355	18.62
712.382	-0.38
712.409	11.62
712.436	-0.38
712.463	1.62
712.49	9.62
712.517	9.62
712.544	-2.38
712.572	1.62
712.599	-7.38
712.626	12.62
712.653	7.62
712.68	-6.38
712.707	2.62
712.734	-13.38
712.761	-1.38
712.788	10.62
712.815	-5.38
712.842	30.62
712.87	-0.38
712.897	-8.38
712.924	-7.38
712.951	16.62
712.978	21.62
713.005	10.62
713.032	14.62
713.059	4.62
713.086	-5.38
713.113	-15.38
713.14	2.62
713.167	16.62
713.194	23.62
713.221	-2.38
713.248	17.62
713.275	-3.38
713.302	-3.38
713.329	11.62
713.356	-1.38
713.383	12.62
713.41	0.62
713.437	-16.38
713.464	1.62
713.491	4.62
713.518	5.62
713.545	-3.38
713.572	-3.38
713.599	12.62
713.626	0.62
713.653	5.62
713.68	-0.38
713.707	8.62
713.734	8.62
713.761	-0.38
713.788	4.62
713.815	10.62
713.842	0.62
713.869	2.62
713.896	1.62
713.923	-5.38
713.95	1.62
713.977	-3.38
714.004	4.62
714.031	-7.38
714.058	1.62
714.085	-8.38
714.112	14.62
714.139	4.62
714.165	17.62
714.192	12.62
714.219	8.62
714.246	-0.38
714.273	4.62
714.3	10.62
714.327	17.62
714.354	17.62
714.381	0.62
714.408	4.62
714.435	0.62
714.461	0.62
714.488	3.62
714.515	-7.38
714.542	-6.38
714.569	-7.38
714.596	-11.38
714.623	-7.38
714.65	-8.38
714.677	1.62
714.703	5.62
714.73	10.62
714.757	13.62
714.784	12.62
714.811	-10.38
714.838	11.62
714.865	-5.38
714.891	0.62
714.918	4.62
714.945	-1.38
714.972	3.62
714.999	15.62
715.026	-0.38
715.052	13.62
715.079	5.62
715.106	5.62
715.133	8.62
715.16	-5.38
715.187	6.62
715.213	9.62
715.24	5.62
715.267	4.62
715.294	2.62
715.321	-11.38
715.347	-7.38
715.374	-3.38
715.401	-11.38
715.428	6.62
715.455	0.62
715.481	-4.38
715.508	2.62
715.535	9.62
715.562	28.62
715.588	13.62
715.615	6.62
715.642	9.62
715.669	12.62
715.695	0.62
715.722	12.62
715.749	-3.38
715.776	17.62
715.802	-10.38
715.829	8.62
715.856	-6.38
715.883	9.62
715.909	-8.38
715.936	-0.38
715.963	13.62
715.99	-5.38
716.016	4.62
716.043	7.62
716.07	8.62
716.096	-3.38
716.123	-4.38
716.15	9.62
716.177	12.62
716.203	10.62
716.23	10.62
716.257	2.62
716.283	9.62
716.31	-0.38
716.337	4.62
716.363	8.62
716.39	6.62
716.417	10.62
716.443	5.62
716.47	5.62
716.497	11.62
716.523	2.62
716.55	1.62
716.577	12.62
716.603	1.62
716.63	10.62
716.657	7.62
716.683	9.62
716.71	13.62
716.737	1.62
716.763	10.62
716.79	-3.38
716.817	5.62
716.843	7.62
716.87	-3.38
716.897	6.62
716.923	11.62
716.95	8.62
716.976	1.62
717.003	-0.38
717.03	-11.38
717.056	-1.38
717.083	2.62
717.109	2.62
717.136	9.62
717.163	-1.38
717.189	-3.38
717.216	8.62
717.242	12.62
717.269	11.62
717.296	5.62
717.322	2.62
717.349	9.62
717.375	18.62
717.402	-1.38
717.428	-7.38
717.455	1.62
717.481	2.62
717.508	7.62
717.535	5.62
717.561	-4.38
717.588	5.62
717.614	-4.38
717.641	-4.38
717.667	6.62
717.694	-1.38
717.72	3.62
717.747	2.62
717.773	7.62
717.8	9.62
717.826	-1.38
717.853	1.62
717.88	18.62
717.906	2.62
717.933	8.62
717.959	17.62
717.986	15.62
718.012	2.62
718.039	13.62
718.065	5.62
718.092	3.62
718.118	-4.38
718.144	3.62
718.171	8.62
718.197	22.62
718.224	15.62
718.25	5.62
718.277	3.62
718.303	4.62
718.33	-5.38
718.356	-0.38
718.383	-11.38
718.409	5.62
718.436	1.62
718.462	2.62
718.489	4.62
718.515	23.62
718.541	12.62
718.568	12.62
718.594	19.62
718.621	5.62
718.647	8.62
718.674	15.62
718.7	12.62
718.726	-1.38
718.753	8.62
718.779	1.62
718.806	18.62
718.832	9.62
718.858	0.62
718.885	-1.38
718.911	-1.38
718.938	8.62
718.964	-11.38
718.99	4.62
719.017	8.62
719.043	18.62
719.07	23.62
719.096	-4.38
719.122	17.62
719.149	2.62
719.175	-6.38
719.201	1.62
719.228	-9.38
719.254	5.62
719.281	-1.38
719.307	-1.38
719.333	-3.38
719.36	8.62
719.386	-7.38
719.412	10.62
719.439	-0.38
719.465	10.62
719.491	8.62
719.518	7.62
719.544	10.62
719.57	-7.38
719.597	9.62
719.623	-5.38
719.649	6.62
719.675	5.62
719.702	7.62
719.728	-0.38
719.754	-26.38
719.781	-5.38
719.807	1.62
719.833	-0.38
719.86	1.62
719.886	-7.38
719.912	2.62
719.938	-2.38
719.965	-4.38
719.991	5.62
720.017	-0.38
720.044	-1.38
720.07	13.62
720.096	6.62
720.122	1.62
720.149	9.62
720.175	18.62
720.201	10.62
720.227	-4.38
720.254	10.62
720.28	10.62
720.306	4.62
720.332	-6.38
720.359	18.62
720.385	4.62
720.411	-2.38
720.437	8.62
720.463	-3.38
720.49	12.62
720.516	4.62
720.542	2.62
720.568	10.62
720.595	10.62
720.621	-9.38
720.647	10.62
720.673	13.62
720.699	4.62
720.725	0.62
720.752	1.62
720.778	-3.38
720.804	7.62
720.83	18.62
720.856	9.62
720.883	0.62
720.909	4.62
720.935	9.62
720.961	13.62
720.987	5.62
721.013	10.62
721.04	2.62
721.066	4.62
721.092	-2.38
721.118	21.62
721.144	-0.38
721.17	-0.38
721.196	1.62
721.223	-10.38
721.249	1.62
721.275	18.62
721.301	-3.38
721.327	14.62
721.353	-4.38
721.379	-3.38
721.405	-3.38
721.432	8.62
721.458	-8.38
721.484	11.62
721.51	-0.38
721.536	3.62
721.562	-8.38
721.588	-0.38
721.614	1.62
721.64	0.62
721.666	6.62
721.693	-0.38
721.719	1.62
721.745	-12.38
721.771	-3.38
721.797	6.62
721.823	1.62
721.849	17.62
721.875	10.62
721.901	15.62
721.927	6.62
721.953	6.62
721.979	10.62
722.005	22.62
722.031	0.62
722.057	6.62
722.083	1.62
722.109	7.62
722.135	13.62
722.161	20.62
722.187	-7.38
722.214	-15.38
722.24	-1.38
722.266	0.62
722.292	10.62
722.318	15.62
722.344	12.62
722.37	5.62
722.396	10.62
722.422	11.62
722.448	7.62
722.474	3.62
722.5	2.62
722.526	5.62
722.552	6.62
722.578	6.62
722.603	12.62
722.629	0.62
722.655	-3.38
722.681	-6.38
722.707	2.62
722.733	-6.38
722.759	-2.38
722.785	4.62
722.811	10.62
722.837	24.62
722.863	15.62
722.889	-4.38
722.915	10.62
722.941	-7.38
722.967	6.62
722.993	7.62
723.019	10.62
723.045	-1.38
723.071	16.62
723.097	5.62
723.122	8.62
723.148	-5.38
723.174	-3.38
723.2	-2.38
723.226	6.62
723.252	4.62
723.278	-11.38
723.304	-8.38
723.33	8.62
723.356	1.62
723.381	-5.38
723.407	-8.38
723.433	-0.38
723.459	-17.38
723.485	-5.38
723.511	-0.38
723.537	9.62
723.563	-6.38
723.588	7.62
723.614	1.62
723.64	-14.38
723.666	-3.38
723.692	7.62
723.718	3.62
723.744	-3.38
723.769	-6.38
723.795	-8.38
723.821	6.62
723.847	6.62
723.873	10.62
723.899	9.62
723.924	2.62
723.95	12.62
723.976	-2.38
724.002	-0.38
724.028	1.62
724.053	-2.38
724.079	-9.38
724.105	1.62
724.131	7.62
724.157	10.62
724.182	8.62
724.208	11.62
724.234	-1.38
724.26	0.62
724.286	8.62
724.311	-3.38
724.337	-8.38
724.363	-10.38
724.389	9.62
724.415	-11.38
724.44	8.62
724.466	0.62
724.492	0.62
724.518	-1.38
724.543	5.62
724.569	9.62
724.595	6.62
724.621	1.62
724.646	7.62
724.672	3.62
724.698	-9.38
724.723	0.62
724.749	-7.38
724.775	5.62
724.801	0.62
724.826	3.62
724.852	1.62
724.878	-0.38
724.904	-11.38
724.929	-5.38
724.955	-5.38
724.981	5.62
725.006	0.62
725.032	-20.38
725.058	16.62
725.083	1.62
725.109	1.62
725.135	-0.38
725.161	5.62
725.186	-5.38
725.212	6.62
725.238	4.62
725.263	-4.38
725.289	-14.38
725.315	-15.38
725.34	1.62
725.366	19.62
725.392	-9.38
725.417	8.62
725.443	6.62
725.468	25.62
725.494	15.62
725.52	-3.38
725.545	-6.38
725.571	-1.38
725.597	6.62
725.622	-1.38
725.648	-26.38
725.674	2.62
725.699	-0.38
725.725	-3.38
725.75	30.62
725.776	0.62
725.802	10.62
725.827	-0.38
725.853	6.62
725.878	-3.38
725.904	1.62
725.93	1.62
725.955	-16.38
725.981	1.62
726.006	-5.38
726.032	15.62
726.057	-6.38
726.083	-0.38
726.109	6.62
726.134	13.62
726.16	-4.38
726.185	-4.38
726.211	-9.38
726.236	14.62
726.262	4.62
726.288	2.62
726.313	19.62
726.339	25.62
726.364	7.62
726.39	33.62
726.415	-3.38
726.441	4.62
726.466	-13.38
726.492	1.62
726.517	13.62
726.543	-1.38
726.568	-11.38
726.594	-3.38
726.619	13.62
726.645	11.62
726.67	9.62
726.696	4.62
726.721	-0.38
726.747	1.62
726.772	7.62
726.798	9.62
726.823	11.62
726.849	-6.38
726.874	10.62
726.9	27.62
726.925	15.62
726.951	-7.38
726.976	7.62
727.002	0.62
727.027	0.62
727.053	29.62
727.078	5.62
727.104	17.62
727.129	8.62
727.155	-0.38
727.18	4.62
727.205	-3.38
727.231	13.62
727.256	1.62
727.282	-7.38
727.307	2.62
727.333	-10.38
727.358	-7.38
727.383	-14.38
727.409	-11.38
727.434	10.62
727.46	15.62
727.485	5.62
727.511	7.62
727.536	-26.38
727.561	-4.38
727.587	-3.38
727.612	-1.38
727.637	0.62
727.663	-6.38
727.688	30.62
727.714	0.62
727.739	-8.38
727.764	4.62
727.79	17.62
727.815	18.62
727.841	27.62
727.866	0.62
727.891	11.62
727.917	-4.38
727.942	-14.38
727.967	-1.38
727.993	-23.38
728.018	-9.38
728.043	6.62
728.069	10.62
728.094	16.62
728.119	-3.38
728.145	5.62
728.17	-9.38
728.195	5.62
728.221	10.62
728.246	4.62
728.271	-3.38
728.297	4.62
728.322	4.62
728.347	5.62
728.373	1.62
728.398	10.62
728.423	9.62
728.448	5.62
728.474	1.62
728.499	4.62
728.524	10.62
728.55	0.62
728.575	4.62
728.6	5.62
728.625	5.62
728.651	5.62
728.676	7.62
728.701	-8.38
728.727	11.62
728.752	-1.38
728.777	2.62
728.802	5.62
728.828	4.62
728.853	5.62
728.878	-4.38
728.903	1.62
728.929	2.62
728.954	8.62
728.979	15.62
729.004	5.62
729.03	1.62
729.055	4.62
729.08	3.62
729.105	4.62
729.13	7.62
729.156	8.62
729.181	-0.38
729.206	-18.38
729.231	-20.38
729.256	12.62
729.282	5.62
729.307	-17.38
729.332	5.62
729.357	9.62
729.382	10.62
729.408	-4.38
729.433	0.62
729.458	8.62
729.483	6.62
729.508	21.62
729.533	7.62
729.559	6.62
729.584	-10.38
729.609	-3.38
729.634	9.62
729.659	-7.38
729.684	-9.38
729.71	28.62
729.735	14.62
729.76	0.62
729.785	-4.38
729.81	3.62
729.835	9.62
729.86	9.62
729.886	29.62
729.911	15.62
729.936	2.62
729.961	3.62
729.986	-17.38
730.011	-2.38
730.036	-0.38
730.061	-1.38
730.086	-1.38
730.112	5.62
730.137	17.62
730.162	2.62
730.187	-6.38
730.212	2.62
730.237	-1.38
730.262	13.62
730.287	-3.38
730.312	12.62
730.337	-10.38
730.362	22.62
730.387	6.62
730.413	-5.38
730.438	2.62
730.463	-11.38
730.488	-8.38
730.513	-5.38
730.538	-8.38
730.563	18.62
730.588	19.62
730.613	16.62
730.638	10.62
730.663	7.62
730.688	15.62
730.713	13.62
730.738	3.62
730.763	-1.38
730.788	6.62
730.813	23.62
730.838	-1.38
730.863	24.62
730.888	-4.38
730.913	1.62
730.938	-0.38
730.963	0.62
730.988	-9.38
731.013	13.62
731.038	2.62
731.063	-3.38
731.088	0.62
731.113	10.62
731.138	-6.38
731.163	-1.38
731.188	-0.38
731.213	10.62
731.238	5.62
731.263	-8.38
731.288	-0.38
731.313	16.62
731.338	5.62
731.363	5.62
731.388	2.62
731.413	-8.38
731.438	6.62
731.463	9.62
731.487	1.62
731.512	-2.38
731.537	-14.38
731.562	3.62
731.587	7.62
731.612	-0.38
731.637	-1.38
731.662	9.62
731.687	-7.38
731.712	-18.38
731.737	10.62
731.762	4.62
731.786	5.62
731.811	3.62
731.836	17.62
731.861	-1.38
731.886	3.62
731.911	7.62
731.936	15.62
731.961	7.62
731.986	4.62
732.01	9.62
732.035	2.62
732.06	17.62
732.085	3.62
732.11	4.62
732.135	-10.38
732.16	12.62
732.184	2.62
732.209	-0.38
732.234	3.62
732.259	3.62
732.284	24.62
732.309	1.62
732.334	-6.38
732.358	0.62
732.383	-11.38
732.408	-8.38
732.433	7.62
732.458	2.62
732.482	7.62
732.507	-0.38
732.532	0.62
732.557	-1.38
732.582	10.62
732.607	-10.38
732.631	-6.38
732.656	-16.38
732.681	-0.38
732.706	5.62
732.73	7.62
732.755	7.62
732.78	3.62
732.805	14.62
732.83	-0.38
732.854	11.62
732.879	12.62
732.904	0.62
732.929	-3.38
732.953	18.62
732.978	13.62
733.003	-0.38
733.028	4.62
733.052	16.62
733.077	1.62
733.102	16.62
733.127	6.62
733.151	4.62
733.176	-2.38
733.201	-3.38
733.226	-7.38
733.25	16.62
733.275	2.62
733.3	3.62
733.324	9.62
733.349	4.62
733.374	10.62
733.399	4.62
733.423	0.62
733.448	5.62
733.473	-0.38
733.497	0.62
733.522	7.62
733.547	24.62
733.571	2.62
733.596	-1.38
733.621	12.62
733.646	-2.38
733.67	7.62
733.695	2.62
733.72	17.62
733.744	17.62
733.769	6.62
733.794	21.62
733.818	8.62
733.843	-7.38
733.867	-4.38
733.892	-1.38
733.917	-2.38
733.941	-1.38
733.966	-0.38
733.991	2.62
734.015	21.62
734.04	16.62
734.065	14.62
734.089	10.62
734.114	2.62
734.138	-1.38
734.163	3.62
734.188	10.62
734.212	13.62
734.237	16.62
734.261	-0.38
734.286	-1.38
734.311	9.62
734.335	9.62
734.36	-1.38
734.384	21.62
734.409	26.62
734.434	2.62
734.458	6.62
734.483	4.62
734.507	-1.38
734.532	-10.38
734.556	8.62
734.581	-7.38
734.606	10.62
734.63	5.62
734.655	1.62
734.679	4.62
734.704	-8.38
734.728	-2.38
734.753	-9.38
734.777	-0.38
734.802	11.62
734.826	5.62
734.851	-4.38
734.876	7.62
734.9	0.62
734.925	6.62
734.949	9.62
734.974	-5.38
734.998	24.62
735.023	-8.38
735.047	-15.38
735.072	18.62
735.096	-10.38
735.121	-2.38
735.145	3.62
735.17	8.62
735.194	17.62
735.219	5.62
735.243	7.62
735.268	9.62
735.292	-0.38
735.317	4.62
735.341	10.62
735.365	-12.38
735.39	4.62
735.414	33.62
735.439	8.62
735.463	4.62
735.488	-3.38
735.512	10.62
735.537	3.62
735.561	7.62
735.586	-4.38
735.61	12.62
735.634	-8.38
735.659	1.62
735.683	18.62
735.708	-6.38
735.732	-11.38
735.757	-7.38
735.781	2.62
735.805	10.62
735.83	-2.38
735.854	1.62
735.879	0.62
735.903	7.62
735.927	1.62
735.952	9.62
735.976	-1.38
736.001	1.62
736.025	1.62
736.049	1.62
736.074	-1.38
736.098	-1.38
736.123	12.62
736.147	-7.38
736.171	2.62
736.196	-2.38
736.22	7.62
736.244	16.62
736.269	16.62
736.293	16.62
736.317	1.62
736.342	2.62
736.366	9.62
736.39	4.62
736.415	-4.38
736.439	1.62
736.463	19.62
736.488	0.62
736.512	8.62
736.536	-0.38
736.561	14.62
736.585	2.62
736.609	9.62
736.634	-16.38
736.658	1.62
736.682	-2.38
736.707	-10.38
736.731	8.62
736.755	9.62
736.78	1.62
736.804	20.62
736.828	1.62
736.852	-4.38
736.877	6.62
736.901	23.62
736.925	10.62
736.949	13.62
736.974	5.62
736.998	-2.38
737.022	0.62
737.047	-15.38
737.071	-9.38
737.095	10.62
737.119	23.62
737.144	8.62
737.168	10.62
737.192	-0.38
737.216	13.62
737.241	7.62
737.265	-0.38
737.289	-5.38
737.313	5.62
737.337	9.62
737.362	13.62
737.386	3.62
737.41	-11.38
737.434	-6.38
737.459	3.62
737.483	11.62
737.507	14.62
737.531	6.62
737.555	1.62
737.58	11.62
737.604	6.62
737.628	-13.38
737.652	-3.38
737.676	0.62
737.701	-14.38
737.725	5.62
737.749	6.62
737.773	4.62
737.797	5.62
737.821	11.62
737.846	7.62
737.87	28.62
737.894	0.62
737.918	1.62
737.942	0.62
737.966	8.62
737.99	4.62
738.015	13.62
738.039	15.62
738.063	14.62
738.087	17.62
738.111	2.62
738.135	14.62
738.159	-5.38
738.184	4.62
738.208	9.62
738.232	23.62
738.256	21.62
738.28	7.62
738.304	26.62
738.328	-5.38
738.352	6.62
738.376	-2.38
738.4	2.62
738.425	11.62
738.449	-0.38
738.473	16.62
738.497	15.62
738.521	8.62
738.545	0.62
738.569	17.62
738.593	11.62
738.617	2.62
738.641	8.62
738.665	-3.38
738.689	13.62
738.713	15.62
738.737	15.62
738.762	18.62
738.786	7.62
738.81	-0.38
738.834	2.62
738.858	7.62
738.882	10.62
738.906	-0.38
738.93	0.62
738.954	6.62
738.978	9.62
739.002	-5.38
739.026	17.62
739.05	24.62
739.074	6.62
739.098	24.62
739.122	10.62
739.146	6.62
739.17	9.62
739.194	12.62
739.218	-8.38
739.242	-3.38
739.266	-2.38
739.29	12.62
739.314	5.62
739.338	-1.38
739.362	4.62
739.386	1.62
739.41	2.62
739.434	-9.38
739.458	5.62
739.482	7.62
739.506	17.62
739.53	0.62
739.554	-0.38
739.577	2.62
739.601	-0.38
739.625	0.62
739.649	-2.38
739.673	-1.38
739.697	20.62
739.721	4.62
739.745	17.62
739.769	7.62
739.793	9.62
739.817	-6.38
739.841	-11.38
739.865	8.62
739.889	2.62
739.912	7.62
739.936	-8.38
739.96	13.62
739.984	-1.38
740.008	-9.38
740.032	-0.38
740.056	9.62
740.08	2.62
740.104	-0.38
740.127	0.62
740.151	20.62
740.175	16.62
740.199	13.62
740.223	50.62
740.247	-1.38
740.271	9.62
740.295	-0.38
740.318	-7.38
740.342	1.62
740.366	11.62
740.39	-0.38
740.414	10.62
740.438	-0.38
740.461	11.62
740.485	-10.38
740.509	0.62
740.533	21.62
740.557	-0.38
740.581	-2.38
740.604	-10.38
740.628	-10.38
740.652	-2.38
740.676	0.62
740.7	13.62
740.723	7.62
740.747	2.62
740.771	-6.38
740.795	-2.38
740.819	12.62
740.842	21.62
740.866	5.62
740.89	4.62
740.914	-1.38
740.938	-9.38
740.961	16.62
740.985	16.62
741.009	-0.38
741.033	7.62
741.056	18.62
741.08	4.62
741.104	0.62
741.128	3.62
741.151	10.62
741.175	1.62
741.199	8.62
741.223	13.62
741.246	-6.38
741.27	-2.38
741.294	-5.38
741.318	-13.38
741.341	1.62
741.365	5.62
741.389	4.62
741.413	16.62
741.436	14.62
741.46	9.62
741.484	14.62
741.507	2.62
741.531	32.62
741.555	15.62
741.579	2.62
741.602	-4.38
741.626	10.62
741.65	13.62
741.673	17.62
741.697	17.62
741.721	5.62
741.744	-9.38
741.768	1.62
741.792	-0.38
741.815	-4.38
741.839	2.62
741.863	13.62
741.886	5.62
741.91	23.62
741.934	5.62
741.957	-19.38
741.981	11.62
742.005	14.62
742.028	7.62
742.052	5.62
742.075	25.62
742.099	5.62
742.123	6.62
742.146	-6.38
742.17	-5.38
742.194	-6.38
742.217	-7.38
742.241	-9.38
742.264	-6.38
742.288	22.62
742.312	15.62
742.335	1.62
742.359	13.62
742.382	30.62
742.406	5.62
742.43	-2.38
742.453	5.62
742.477	-15.38
742.5	-0.38
742.524	-19.38
742.548	-10.38
742.571	-4.38
742.595	-2.38
742.618	-7.38
742.642	0.62
742.665	13.62
742.689	-3.38
742.712	6.62
742.736	-10.38
742.76	-10.38
742.783	3.62
742.807	4.62
742.83	-8.38
742.854	4.62
742.877	11.62
742.901	-5.38
742.924	1.62
742.948	5.62
742.971	4.62
742.995	10.62
743.018	-9.38
743.042	-4.38
743.065	-10.38
743.089	-2.38
743.112	4.62
743.136	-3.38
743.159	-7.38
743.183	-8.38
743.206	13.62
743.23	7.62
743.253	4.62
743.277	8.62
743.3	-8.38
743.324	1.62
743.347	-2.38
743.371	10.62
743.394	4.62
743.418	8.62
743.441	4.62
743.465	0.62
743.488	-4.38
743.512	-5.38
743.535	-1.38
743.558	3.62
743.582	3.62
743.605	-2.38
743.629	4.62
743.652	8.62
743.676	8.62
743.699	21.62
743.723	-5.38
743.746	4.62
743.769	-3.38
743.793	11.62
743.816	-6.38
743.84	12.62
743.863	-3.38
743.886	4.62
743.91	18.62
743.933	-1.38
743.957	8.62
743.98	1.62
744.003	2.62
744.027	1.62
744.05	-8.38
744.074	4.62
744.097	-0.38
744.12	0.62
744.144	-1.38
744.167	-10.38
744.19	1.62
744.214	-4.38
744.237	-17.38
744.26	17.62
744.284	-3.38
744.307	-8.38
744.331	20.62
744.354	-1.38
744.377	-2.38
744.401	13.62
744.424	-7.38
744.447	-18.38
744.471	-20.38
