Data from HighRes_H2D2_15_04_11_07_2024_HR4C61891__54__15-05-39-843.txt Node

Date: Thu Nov 07 15:05:39 EST 2024
User: crc00042
Spectrometer: HR4C6189
Trigger mode: 4
Integration Time (sec): 1.000000E-1
Scans to average: 1
Electric dark correction enabled: true
Nonlinearity correction enabled: false
Boxcar width: 0
XAxis mode: Wavelengths
Number of Pixels in Spectrum: 3648
>>>>>Begin Spectral Data<<<<<
639.567	-0.46
639.602	-0.46
639.636	-0.46
639.67	-48.46
639.704	-26.46
639.738	6.54
639.773	6.54
639.807	-16.46
639.841	-5.46
639.875	-11.46
639.909	-1.46
639.943	-18.46
639.978	5.54
640.012	2.54
640.046	1.54
640.08	21.54
640.114	5.54
640.148	3.54
640.182	-2.46
640.217	-10.46
640.251	10.54
640.285	-3.46
640.319	-11.46
640.353	3.54
640.387	8.54
640.421	-12.46
640.455	-11.46
640.49	-15.46
640.524	6.54
640.558	12.54
640.592	9.54
640.626	-12.46
640.66	-2.46
640.694	-8.46
640.728	7.54
640.762	-6.46
640.796	27.54
640.83	13.54
640.865	-12.46
640.899	5.54
640.933	13.54
640.967	8.54
641.001	2.54
641.035	7.54
641.069	1.54
641.103	-8.46
641.137	-20.46
641.171	-12.46
641.205	1.54
641.239	0.54
641.273	8.54
641.307	-16.46
641.341	-8.46
641.375	-5.46
641.409	-8.46
641.443	9.54
641.477	15.54
641.511	0.54
641.545	10.54
641.579	-24.46
641.614	-3.46
641.648	-3.46
641.682	-17.46
641.716	-2.46
641.75	12.54
641.784	-3.46
641.818	-5.46
641.852	7.54
641.886	-1.46
641.919	15.54
641.953	-1.46
641.987	-13.46
642.021	-15.46
642.055	-5.46
642.089	-8.46
642.123	5.54
642.157	-1.46
642.191	-22.46
642.225	6.54
642.259	-11.46
642.293	-3.46
642.327	0.54
642.361	-5.46
642.395	21.54
642.429	-5.46
642.463	11.54
642.497	18.54
642.531	-2.46
642.565	-18.46
642.599	10.54
642.633	-5.46
642.666	22.54
642.7	17.54
642.734	8.54
642.768	-12.46
642.802	3.54
642.836	-6.46
642.87	-6.46
642.904	16.54
642.938	26.54
642.972	2.54
643.005	6.54
643.039	7.54
643.073	-17.46
643.107	1.54
643.141	0.54
643.175	7.54
643.209	-11.46
643.243	-12.46
643.276	-9.46
643.31	8.54
643.344	4.54
643.378	-3.46
643.412	7.54
643.446	-1.46
643.48	-1.46
643.513	-4.46
643.547	-7.46
643.581	-11.46
643.615	0.54
643.649	-9.46
643.683	-1.46
643.716	-8.46
643.75	0.54
643.784	-22.46
643.818	-5.46
643.852	-9.46
643.886	8.54
643.919	-2.46
643.953	-8.46
643.987	-6.46
644.021	-4.46
644.055	0.54
644.088	2.54
644.122	-9.46
644.156	-0.46
644.19	5.54
644.224	-5.46
644.257	-9.46
644.291	2.54
644.325	-6.46
644.359	-6.46
644.392	22.54
644.426	9.54
644.46	-6.46
644.494	8.54
644.527	-19.46
644.561	-1.46
644.595	-6.46
644.629	-11.46
644.662	-2.46
644.696	18.54
644.73	-3.46
644.764	10.54
644.797	2.54
644.831	0.54
644.865	15.54
644.899	2.54
644.932	35.54
644.966	-4.46
645	5.54
645.033	7.54
645.067	-5.46
645.101	7.54
645.135	8.54
645.168	3.54
645.202	-6.46
645.236	-4.46
645.269	12.54
645.303	3.54
645.337	-0.46
645.37	-13.46
645.404	-2.46
645.438	8.54
645.471	11.54
645.505	19.54
645.539	2.54
645.572	4.54
645.606	-9.46
645.64	-4.46
645.673	-8.46
645.707	30.54
645.741	12.54
645.774	-9.46
645.808	-4.46
645.842	-9.46
645.875	6.54
645.909	-19.46
645.943	-4.46
645.976	-2.46
646.01	14.54
646.043	10.54
646.077	-0.46
646.111	-1.46
646.144	14.54
646.178	12.54
646.212	-31.46
646.245	-6.46
646.279	8.54
646.312	3.54
646.346	3.54
646.38	-9.46
646.413	3.54
646.447	5.54
646.48	-9.46
646.514	10.54
646.547	-10.46
646.581	-2.46
646.615	-4.46
646.648	-9.46
646.682	6.54
646.715	-2.46
646.749	6.54
646.782	-4.46
646.816	-9.46
646.85	0.54
646.883	-5.46
646.917	4.54
646.95	2.54
646.984	6.54
647.017	2.54
647.051	-2.46
647.084	-2.46
647.118	-1.46
647.151	-16.46
647.185	3.54
647.218	-5.46
647.252	2.54
647.285	-29.46
647.319	-20.46
647.353	9.54
647.386	20.54
647.42	0.54
647.453	-12.46
647.487	-25.46
647.52	-3.46
647.553	-2.46
647.587	-12.46
647.62	0.54
647.654	6.54
647.687	-1.46
647.721	13.54
647.754	-3.46
647.788	-11.46
647.821	-18.46
647.855	6.54
647.888	13.54
647.922	21.54
647.955	13.54
647.989	5.54
648.022	0.54
648.055	7.54
648.089	-1.46
648.122	11.54
648.156	-7.46
648.189	-5.46
648.223	4.54
648.256	3.54
648.29	8.54
648.323	-6.46
648.356	12.54
648.39	5.54
648.423	3.54
648.457	-3.46
648.49	14.54
648.523	5.54
648.557	4.54
648.59	-11.46
648.624	-18.46
648.657	-4.46
648.69	15.54
648.724	12.54
648.757	5.54
648.791	7.54
648.824	2.54
648.857	24.54
648.891	11.54
648.924	-0.46
648.957	20.54
648.991	-11.46
649.024	15.54
649.057	4.54
649.091	-8.46
649.124	16.54
649.158	2.54
649.191	19.54
649.224	1.54
649.258	3.54
649.291	19.54
649.324	-2.46
649.358	4.54
649.391	-3.46
649.424	-0.46
649.458	-3.46
649.491	11.54
649.524	-3.46
649.557	-3.46
649.591	-23.46
649.624	8.54
649.657	-16.46
649.691	3.54
649.724	-10.46
649.757	-13.46
649.791	-10.46
649.824	21.54
649.857	12.54
649.89	-6.46
649.924	-18.46
649.957	-7.46
649.99	-12.46
650.023	17.54
650.057	4.54
650.09	11.54
650.123	-6.46
650.157	20.54
650.19	19.54
650.223	2.54
650.256	-17.46
650.29	1.54
650.323	-2.46
650.356	9.54
650.389	-3.46
650.423	-6.46
650.456	16.54
650.489	10.54
650.522	11.54
650.555	16.54
650.589	10.54
650.622	6.54
650.655	21.54
650.688	-8.46
650.721	-8.46
650.755	-10.46
650.788	18.54
650.821	11.54
650.854	-5.46
650.887	-11.46
650.921	3.54
650.954	0.54
650.987	8.54
651.02	9.54
651.053	-5.46
651.087	-15.46
651.12	25.54
651.153	-7.46
651.186	-3.46
651.219	1.54
651.252	3.54
651.286	12.54
651.319	3.54
651.352	8.54
651.385	10.54
651.418	0.54
651.451	5.54
651.484	14.54
651.518	-4.46
651.551	15.54
651.584	-5.46
651.617	25.54
651.65	6.54
651.683	27.54
651.716	13.54
651.749	4.54
651.783	-8.46
651.816	2.54
651.849	5.54
651.882	2.54
651.915	8.54
651.948	12.54
651.981	4.54
652.014	-19.46
652.047	-14.46
652.08	-26.46
652.114	-3.46
652.147	-2.46
652.18	3.54
652.213	17.54
652.246	-1.46
652.279	-10.46
652.312	19.54
652.345	17.54
652.378	1.54
652.411	8.54
652.444	12.54
652.477	-4.46
652.51	-4.46
652.543	-20.46
652.576	1.54
652.609	3.54
652.642	1.54
652.675	-0.46
652.709	-0.46
652.742	20.54
652.775	7.54
652.808	18.54
652.841	-2.46
652.874	0.54
652.907	0.54
652.94	5.54
652.973	-0.46
653.006	-9.46
653.039	15.54
653.072	9.54
653.105	-4.46
653.138	-2.46
653.171	-5.46
653.204	6.54
653.237	7.54
653.27	8.54
653.303	8.54
653.336	19.54
653.368	1.54
653.401	3.54
653.434	-8.46
653.467	0.54
653.5	-7.46
653.533	-12.46
653.566	2.54
653.599	5.54
653.632	2.54
653.665	-7.46
653.698	-12.46
653.731	-17.46
653.764	-2.46
653.797	-12.46
653.83	-12.46
653.863	-13.46
653.896	-25.46
653.929	-10.46
653.961	8.54
653.994	-1.46
654.027	-11.46
654.06	0.54
654.093	-0.46
654.126	-0.46
654.159	4.54
654.192	2.54
654.225	-3.46
654.258	3.54
654.29	1.54
654.323	-13.46
654.356	-5.46
654.389	3.54
654.422	6.54
654.455	-4.46
654.488	-6.46
654.521	-16.46
654.553	2.54
654.586	18.54
654.619	-0.46
654.652	-1.46
654.685	30.54
654.718	19.54
654.751	19.54
654.783	5.54
654.816	20.54
654.849	9.54
654.882	-1.46
654.915	-16.46
654.948	1.54
654.98	-2.46
655.013	8.54
655.046	-3.46
655.079	-8.46
655.112	17.54
655.144	-4.46
655.177	12.54
655.21	13.54
655.243	10.54
655.276	-2.46
655.308	-11.46
655.341	-7.46
655.374	2.54
655.407	3.54
655.44	5.54
655.472	-1.46
655.505	1.54
655.538	0.54
655.571	14.54
655.603	-0.46
655.636	0.54
655.669	4.54
655.702	-16.46
655.734	-9.46
655.767	-0.46
655.8	7.54
655.833	1.54
655.865	15.54
655.898	18.54
655.931	-4.46
655.964	19.54
655.996	28.54
656.029	45.54
656.062	27.54
656.095	42.54
656.127	83.54
656.16	220.54
656.193	615.54
656.225	963.54
656.258	589.54
656.291	217.54
656.324	178.54
656.356	378.54
656.389	794.54
656.422	694.54
656.454	215.54
656.487	77.54
656.52	21.54
656.552	7.54
656.585	10.54
656.618	17.54
656.65	12.54
656.683	10.54
656.716	1.54
656.748	-11.46
656.781	-4.46
656.814	-8.46
656.846	13.54
656.879	3.54
656.912	3.54
656.944	-10.46
656.977	-3.46
657.01	-11.46
657.042	12.54
657.075	21.54
657.108	-3.46
657.14	5.54
657.173	9.54
657.205	38.54
657.238	12.54
657.271	18.54
657.303	-4.46
657.336	6.54
657.369	8.54
657.401	6.54
657.434	-3.46
657.466	11.54
657.499	-11.46
657.532	-24.46
657.564	9.54
657.597	-5.46
657.629	1.54
657.662	-1.46
657.694	-3.46
657.727	3.54
657.76	14.54
657.792	-9.46
657.825	-10.46
657.857	-3.46
657.89	6.54
657.922	13.54
657.955	6.54
657.987	3.54
658.02	0.54
658.053	15.54
658.085	-2.46
658.118	-3.46
658.15	19.54
658.183	21.54
658.215	-3.46
658.248	-5.46
658.28	-2.46
658.313	5.54
658.345	21.54
658.378	-0.46
658.41	1.54
658.443	2.54
658.475	-1.46
658.508	11.54
658.54	9.54
658.573	-6.46
658.605	-4.46
658.638	-17.46
658.67	-1.46
658.703	0.54
658.735	-12.46
658.768	4.54
658.8	2.54
658.833	15.54
658.865	2.54
658.898	-3.46
658.93	-1.46
658.963	4.54
658.995	-8.46
659.028	12.54
659.06	0.54
659.092	-19.46
659.125	17.54
659.157	12.54
659.19	-25.46
659.222	-14.46
659.255	3.54
659.287	-3.46
659.32	8.54
659.352	-5.46
659.384	10.54
659.417	-2.46
659.449	3.54
659.482	16.54
659.514	1.54
659.546	6.54
659.579	-13.46
659.611	-0.46
659.644	-5.46
659.676	-13.46
659.708	-17.46
659.741	-13.46
659.773	9.54
659.806	2.54
659.838	-3.46
659.87	8.54
659.903	-3.46
659.935	15.54
659.967	10.54
660	4.54
660.032	-10.46
660.065	-4.46
660.097	-0.46
660.129	4.54
660.162	-26.46
660.194	-4.46
660.226	6.54
660.259	10.54
660.291	-6.46
660.323	-2.46
660.356	5.54
660.388	-14.46
660.42	5.54
660.453	-13.46
660.485	10.54
660.517	6.54
660.55	7.54
660.582	0.54
660.614	15.54
660.647	2.54
660.679	-13.46
660.711	18.54
660.743	-13.46
660.776	-2.46
660.808	5.54
660.84	10.54
660.873	11.54
660.905	8.54
660.937	-1.46
660.969	16.54
661.002	4.54
661.034	-2.46
661.066	0.54
661.099	14.54
661.131	9.54
661.163	11.54
661.195	14.54
661.228	16.54
661.26	6.54
661.292	2.54
661.324	9.54
661.357	21.54
661.389	12.54
661.421	7.54
661.453	-6.46
661.485	9.54
661.518	-8.46
661.55	-14.46
661.582	-10.46
661.614	-7.46
661.647	15.54
661.679	-0.46
661.711	2.54
661.743	-7.46
661.775	5.54
661.808	15.54
661.84	-5.46
661.872	9.54
661.904	0.54
661.936	-2.46
661.969	-15.46
662.001	6.54
662.033	-0.46
662.065	-1.46
662.097	12.54
662.129	6.54
662.162	-1.46
662.194	-6.46
662.226	11.54
662.258	6.54
662.29	-3.46
662.322	-11.46
662.355	-17.46
662.387	22.54
662.419	6.54
662.451	-0.46
662.483	11.54
662.515	-2.46
662.547	-3.46
662.58	4.54
662.612	2.54
662.644	-11.46
662.676	1.54
662.708	15.54
662.74	-1.46
662.772	6.54
662.804	7.54
662.836	10.54
662.869	-2.46
662.901	4.54
662.933	4.54
662.965	11.54
662.997	3.54
663.029	-0.46
663.061	-13.46
663.093	-5.46
663.125	7.54
663.157	-2.46
663.189	3.54
663.221	7.54
663.254	-2.46
663.286	8.54
663.318	7.54
663.35	-11.46
663.382	-10.46
663.414	-6.46
663.446	0.54
663.478	9.54
663.51	18.54
663.542	-13.46
663.574	-2.46
663.606	10.54
663.638	-11.46
663.67	-9.46
663.702	-1.46
663.734	-13.46
663.766	15.54
663.798	-4.46
663.83	7.54
663.862	15.54
663.894	2.54
663.926	-5.46
663.958	8.54
663.99	-8.46
664.022	1.54
664.054	5.54
664.086	-7.46
664.118	-14.46
664.15	-8.46
664.182	-0.46
664.214	-0.46
664.246	20.54
664.278	3.54
664.31	2.54
664.342	6.54
664.374	-17.46
664.406	11.54
664.438	-12.46
664.47	14.54
664.502	-7.46
664.534	-22.46
664.566	-4.46
664.598	8.54
664.63	-12.46
664.662	5.54
664.693	8.54
664.725	-3.46
664.757	4.54
664.789	-12.46
664.821	-8.46
664.853	8.54
664.885	13.54
664.917	-9.46
664.949	3.54
664.981	15.54
665.013	2.54
665.045	-25.46
665.076	-2.46
665.108	6.54
665.14	14.54
665.172	6.54
665.204	-13.46
665.236	3.54
665.268	10.54
665.3	-3.46
665.331	11.54
665.363	7.54
665.395	-7.46
665.427	-12.46
665.459	-5.46
665.491	-4.46
665.523	-4.46
665.555	-7.46
665.586	-0.46
665.618	-6.46
665.65	-25.46
665.682	0.54
665.714	9.54
665.746	-2.46
665.777	-12.46
665.809	-3.46
665.841	-0.46
665.873	-12.46
665.905	-13.46
665.937	12.54
665.968	-2.46
666	-1.46
666.032	0.54
666.064	3.54
666.096	-0.46
666.127	5.54
666.159	7.54
666.191	-1.46
666.223	4.54
666.255	10.54
666.286	-5.46
666.318	-0.46
666.35	14.54
666.382	10.54
666.413	-8.46
666.445	-22.46
666.477	-10.46
666.509	2.54
666.54	4.54
666.572	-3.46
666.604	-16.46
666.636	-7.46
666.667	13.54
666.699	16.54
666.731	16.54
666.763	4.54
666.794	2.54
666.826	-2.46
666.858	-12.46
666.89	10.54
666.921	-6.46
666.953	-5.46
666.985	9.54
667.017	11.54
667.048	6.54
667.08	-8.46
667.112	-2.46
667.143	-18.46
667.175	-2.46
667.207	-2.46
667.238	-2.46
667.27	-5.46
667.302	-7.46
667.334	-4.46
667.365	16.54
667.397	-7.46
667.429	4.54
667.46	22.54
667.492	4.54
667.524	-10.46
667.555	-6.46
667.587	6.54
667.619	-16.46
667.65	-10.46
667.682	4.54
667.714	16.54
667.745	-12.46
667.777	0.54
667.808	6.54
667.84	18.54
667.872	-10.46
667.903	25.54
667.935	-10.46
667.967	6.54
667.998	-3.46
668.03	-11.46
668.061	13.54
668.093	-4.46
668.125	5.54
668.156	11.54
668.188	4.54
668.22	-2.46
668.251	15.54
668.283	20.54
668.314	12.54
668.346	2.54
668.377	11.54
668.409	6.54
668.441	18.54
668.472	11.54
668.504	-2.46
668.535	5.54
668.567	-12.46
668.599	-8.46
668.63	-8.46
668.662	-11.46
668.693	-9.46
668.725	-1.46
668.756	4.54
668.788	-0.46
668.819	4.54
668.851	4.54
668.882	7.54
668.914	-8.46
668.946	11.54
668.977	-3.46
669.009	3.54
669.04	-15.46
669.072	9.54
669.103	-4.46
669.135	-4.46
669.166	8.54
669.198	0.54
669.229	8.54
669.261	-0.46
669.292	-7.46
669.324	2.54
669.355	9.54
669.387	8.54
669.418	19.54
669.45	-8.46
669.481	9.54
669.513	1.54
669.544	5.54
669.576	8.54
669.607	9.54
669.639	-0.46
669.67	-7.46
669.701	12.54
669.733	-10.46
669.764	9.54
669.796	-10.46
669.827	-12.46
669.859	2.54
669.89	3.54
669.922	12.54
669.953	4.54
669.985	-9.46
670.016	20.54
670.047	6.54
670.079	3.54
670.11	6.54
670.142	13.54
670.173	-2.46
670.204	15.54
670.236	1.54
670.267	-1.46
670.299	4.54
670.33	7.54
670.362	15.54
670.393	-0.46
670.424	11.54
670.456	-25.46
670.487	-18.46
670.518	-7.46
670.55	-4.46
670.581	9.54
670.613	-1.46
670.644	-13.46
670.675	-13.46
670.707	-7.46
670.738	-0.46
670.769	-6.46
670.801	-10.46
670.832	7.54
670.864	-10.46
670.895	7.54
670.926	-5.46
670.958	-6.46
670.989	-3.46
671.02	-14.46
671.052	-7.46
671.083	-7.46
671.114	-15.46
671.146	12.54
671.177	6.54
671.208	11.54
671.24	-21.46
671.271	-6.46
671.302	3.54
671.333	5.54
671.365	-1.46
671.396	-6.46
671.427	3.54
671.459	-5.46
671.49	7.54
671.521	1.54
671.553	-3.46
671.584	5.54
671.615	-15.46
671.646	14.54
671.678	6.54
671.709	-8.46
671.74	-23.46
671.771	-13.46
671.803	7.54
671.834	6.54
671.865	-14.46
671.896	10.54
671.928	-10.46
671.959	-1.46
671.99	-2.46
672.021	6.54
672.053	-16.46
672.084	16.54
672.115	11.54
672.146	-3.46
672.178	-28.46
672.209	-11.46
672.24	-6.46
672.271	27.54
672.303	5.54
672.334	-10.46
672.365	0.54
672.396	7.54
672.427	-8.46
672.459	-17.46
672.49	16.54
672.521	4.54
672.552	21.54
672.583	10.54
672.615	5.54
672.646	2.54
672.677	-16.46
672.708	3.54
672.739	-5.46
672.77	4.54
672.802	11.54
672.833	0.54
672.864	5.54
672.895	-23.46
672.926	-2.46
672.957	-4.46
672.989	-5.46
673.02	14.54
673.051	-8.46
673.082	16.54
673.113	-9.46
673.144	13.54
673.175	4.54
673.206	-15.46
673.238	-14.46
673.269	3.54
673.3	-19.46
673.331	-8.46
673.362	-19.46
673.393	-2.46
673.424	12.54
673.455	16.54
673.487	-6.46
673.518	2.54
673.549	2.54
673.58	3.54
673.611	6.54
673.642	1.54
673.673	-3.46
673.704	7.54
673.735	6.54
673.766	-9.46
673.797	-5.46
673.828	-0.46
673.86	-9.46
673.891	11.54
673.922	3.54
673.953	-15.46
673.984	1.54
674.015	16.54
674.046	5.54
674.077	0.54
674.108	3.54
674.139	0.54
674.17	-7.46
674.201	-10.46
674.232	-2.46
674.263	-0.46
674.294	8.54
674.325	-16.46
674.356	-4.46
674.387	2.54
674.418	-5.46
674.449	-7.46
674.48	-10.46
674.511	8.54
674.542	8.54
674.573	8.54
674.604	4.54
674.635	-1.46
674.666	6.54
674.697	-7.46
674.728	-15.46
674.759	6.54
674.79	-10.46
674.821	0.54
674.852	4.54
674.883	-6.46
674.914	-1.46
674.945	-2.46
674.976	-7.46
675.007	-16.46
675.038	-7.46
675.069	-6.46
675.1	0.54
675.131	0.54
675.162	-20.46
675.193	3.54
675.224	7.54
675.254	9.54
675.285	4.54
675.316	17.54
675.347	5.54
675.378	-3.46
675.409	-1.46
675.44	-1.46
675.471	3.54
675.502	-12.46
675.533	5.54
675.564	16.54
675.595	7.54
675.625	16.54
675.656	10.54
675.687	11.54
675.718	-21.46
675.749	-7.46
675.78	-10.46
675.811	-15.46
675.842	-2.46
675.873	0.54
675.903	-6.46
675.934	-1.46
675.965	-10.46
675.996	-0.46
676.027	6.54
676.058	-10.46
676.089	-12.46
676.119	-15.46
676.15	7.54
676.181	5.54
676.212	2.54
676.243	3.54
676.274	-3.46
676.304	4.54
676.335	-8.46
676.366	6.54
676.397	3.54
676.428	-6.46
676.459	0.54
676.489	1.54
676.52	3.54
676.551	-2.46
676.582	9.54
676.613	1.54
676.643	-9.46
676.674	13.54
676.705	-0.46
676.736	-4.46
676.767	17.54
676.797	24.54
676.828	-6.46
676.859	12.54
676.89	-18.46
676.92	-3.46
676.951	6.54
676.982	2.54
677.013	5.54
677.044	15.54
677.074	4.54
677.105	-4.46
677.136	4.54
677.167	-8.46
677.197	8.54
677.228	-6.46
677.259	-3.46
677.289	-3.46
677.32	-4.46
677.351	-6.46
677.382	-7.46
677.412	-10.46
677.443	16.54
677.474	-8.46
677.505	-0.46
677.535	-2.46
677.566	-17.46
677.597	-24.46
677.627	-13.46
677.658	-5.46
677.689	3.54
677.72	4.54
677.75	-7.46
677.781	-2.46
677.812	2.54
677.842	8.54
677.873	15.54
677.904	-7.46
677.934	15.54
677.965	-4.46
677.996	-29.46
678.026	-17.46
678.057	-1.46
678.088	-3.46
678.118	4.54
678.149	-5.46
678.18	-6.46
678.21	-8.46
678.241	-1.46
678.272	6.54
678.302	9.54
678.333	4.54
678.363	2.54
678.394	3.54
678.425	1.54
678.455	-10.46
678.486	16.54
678.517	0.54
678.547	12.54
678.578	0.54
678.608	-11.46
678.639	5.54
678.67	-4.46
678.7	-13.46
678.731	3.54
678.761	-0.46
678.792	7.54
678.823	10.54
678.853	-7.46
678.884	-18.46
678.914	-0.46
678.945	7.54
678.975	-12.46
679.006	8.54
679.037	2.54
679.067	15.54
679.098	4.54
679.128	-12.46
679.159	-2.46
679.189	11.54
679.22	-10.46
679.25	7.54
679.281	-13.46
679.312	0.54
679.342	4.54
679.373	25.54
679.403	-1.46
679.434	0.54
679.464	-13.46
679.495	6.54
679.525	4.54
679.556	-6.46
679.586	15.54
679.617	21.54
679.647	14.54
679.678	-5.46
679.708	10.54
679.739	0.54
679.769	0.54
679.8	-4.46
679.83	14.54
679.861	3.54
679.891	-12.46
679.922	-20.46
679.952	4.54
679.983	18.54
680.013	2.54
680.044	-10.46
680.074	7.54
680.105	4.54
680.135	19.54
680.165	4.54
680.196	8.54
680.226	0.54
680.257	2.54
680.287	-7.46
680.318	-0.46
680.348	-14.46
680.379	3.54
680.409	12.54
680.439	-3.46
680.47	-10.46
680.5	-6.46
680.531	-0.46
680.561	12.54
680.592	8.54
680.622	8.54
680.652	-3.46
680.683	8.54
680.713	7.54
680.744	4.54
680.774	-16.46
680.804	20.54
680.835	-4.46
680.865	-7.46
680.896	16.54
680.926	26.54
680.956	7.54
680.987	0.54
681.017	3.54
681.047	-5.46
681.078	3.54
681.108	-1.46
681.139	-9.46
681.169	-3.46
681.199	0.54
681.23	3.54
681.26	-2.46
681.29	7.54
681.321	-12.46
681.351	6.54
681.381	-20.46
681.412	2.54
681.442	4.54
681.472	21.54
681.503	16.54
681.533	8.54
681.563	7.54
681.594	-13.46
681.624	11.54
681.654	4.54
681.685	0.54
681.715	17.54
681.745	-3.46
681.775	-0.46
681.806	-0.46
681.836	-3.46
681.866	-11.46
681.897	9.54
681.927	5.54
681.957	-19.46
681.987	-5.46
682.018	0.54
682.048	10.54
682.078	-15.46
682.109	12.54
682.139	10.54
682.169	3.54
682.199	-17.46
682.23	0.54
682.26	3.54
682.29	-5.46
682.32	-6.46
682.351	-4.46
682.381	6.54
682.411	-0.46
682.441	4.54
682.472	-4.46
682.502	-11.46
682.532	-15.46
682.562	1.54
682.592	-2.46
682.623	9.54
682.653	6.54
682.683	0.54
682.713	8.54
682.743	-3.46
682.774	5.54
682.804	12.54
682.834	20.54
682.864	0.54
682.894	9.54
682.925	15.54
682.955	2.54
682.985	-9.46
683.015	-6.46
683.045	14.54
683.076	-8.46
683.106	0.54
683.136	0.54
683.166	-24.46
683.196	-14.46
683.226	-9.46
683.257	5.54
683.287	-3.46
683.317	-3.46
683.347	-1.46
683.377	-3.46
683.407	-5.46
683.437	7.54
683.468	4.54
683.498	-6.46
683.528	-11.46
683.558	1.54
683.588	-1.46
683.618	-20.46
683.648	3.54
683.678	0.54
683.708	7.54
683.739	-6.46
683.769	-8.46
683.799	6.54
683.829	5.54
683.859	5.54
683.889	15.54
683.919	8.54
683.949	2.54
683.979	0.54
684.009	-5.46
684.039	-2.46
684.07	-13.46
684.1	11.54
684.13	3.54
684.16	16.54
684.19	7.54
684.22	-15.46
684.25	4.54
684.28	-15.46
684.31	16.54
684.34	6.54
684.37	-1.46
684.4	1.54
684.43	-4.46
684.46	-1.46
684.49	3.54
684.52	12.54
684.55	19.54
684.58	-8.46
684.61	1.54
684.64	-10.46
684.67	13.54
684.7	7.54
684.73	7.54
684.76	-5.46
684.79	23.54
684.82	9.54
684.85	-4.46
684.88	9.54
684.91	19.54
684.94	0.54
684.97	-2.46
685	-4.46
685.03	-10.46
685.06	-2.46
685.09	5.54
685.12	15.54
685.15	5.54
685.18	-1.46
685.21	6.54
685.24	17.54
685.27	26.54
685.3	6.54
685.33	10.54
685.36	2.54
685.39	5.54
685.42	-6.46
685.45	8.54
685.48	10.54
685.51	15.54
685.54	2.54
685.569	-1.46
685.599	10.54
685.629	2.54
685.659	4.54
685.689	3.54
685.719	-6.46
685.749	12.54
685.779	21.54
685.809	11.54
685.839	-7.46
685.869	8.54
685.898	3.54
685.928	9.54
685.958	-13.46
685.988	13.54
686.018	-11.46
686.048	8.54
686.078	10.54
686.108	27.54
686.137	13.54
686.167	2.54
686.197	-8.46
686.227	1.54
686.257	18.54
686.287	23.54
686.317	7.54
686.346	4.54
686.376	-5.46
686.406	3.54
686.436	-4.46
686.466	2.54
686.496	7.54
686.525	13.54
686.555	7.54
686.585	20.54
686.615	32.54
686.645	5.54
686.675	-4.46
686.704	-5.46
686.734	15.54
686.764	15.54
686.794	-1.46
686.824	6.54
686.853	27.54
686.883	10.54
686.913	14.54
686.943	2.54
686.973	-10.46
687.002	-1.46
687.032	17.54
687.062	-2.46
687.092	13.54
687.121	-5.46
687.151	-18.46
687.181	9.54
687.211	18.54
687.24	5.54
687.27	10.54
687.3	-5.46
687.33	-4.46
687.359	-21.46
687.389	-0.46
687.419	-8.46
687.449	-11.46
687.478	14.54
687.508	17.54
687.538	28.54
687.568	10.54
687.597	-11.46
687.627	5.54
687.657	-2.46
687.686	10.54
687.716	-4.46
687.746	-2.46
687.776	6.54
687.805	6.54
687.835	-5.46
687.865	0.54
687.894	-10.46
687.924	-0.46
687.954	-7.46
687.983	4.54
688.013	5.54
688.043	5.54
688.072	6.54
688.102	-3.46
688.132	2.54
688.161	12.54
688.191	-1.46
688.221	6.54
688.25	-2.46
688.28	13.54
688.31	-2.46
688.339	7.54
688.369	-3.46
688.399	-6.46
688.428	-4.46
688.458	7.54
688.488	2.54
688.517	4.54
688.547	-1.46
688.576	32.54
688.606	22.54
688.636	4.54
688.665	17.54
688.695	-1.46
688.725	7.54
688.754	12.54
688.784	-11.46
688.813	11.54
688.843	15.54
688.873	2.54
688.902	-15.46
688.932	-2.46
688.961	-1.46
688.991	12.54
689.02	5.54
689.05	-7.46
689.08	7.54
689.109	7.54
689.139	-2.46
689.168	4.54
689.198	5.54
689.227	-3.46
689.257	8.54
689.287	22.54
689.316	-3.46
689.346	-4.46
689.375	-11.46
689.405	7.54
689.434	-7.46
689.464	-1.46
689.493	-6.46
689.523	-2.46
689.552	4.54
689.582	-20.46
689.611	-5.46
689.641	1.54
689.67	1.54
689.7	-4.46
689.73	11.54
689.759	8.54
689.789	7.54
689.818	-0.46
689.848	-1.46
689.877	8.54
689.906	-1.46
689.936	2.54
689.965	6.54
689.995	12.54
690.024	6.54
690.054	7.54
690.083	10.54
690.113	4.54
690.142	4.54
690.172	-5.46
690.201	2.54
690.231	8.54
690.26	22.54
690.29	14.54
690.319	13.54
690.348	-8.46
690.378	8.54
690.407	1.54
690.437	13.54
690.466	4.54
690.496	-4.46
690.525	-1.46
690.555	-6.46
690.584	2.54
690.613	-18.46
690.643	-0.46
690.672	5.54
690.702	-3.46
690.731	11.54
690.76	6.54
690.79	-6.46
690.819	-11.46
690.849	4.54
690.878	4.54
690.907	6.54
690.937	15.54
690.966	14.54
690.996	8.54
691.025	8.54
691.054	-4.46
691.084	-10.46
691.113	0.54
691.142	14.54
691.172	6.54
691.201	15.54
691.23	0.54
691.26	20.54
691.289	7.54
691.319	6.54
691.348	7.54
691.377	10.54
691.407	-5.46
691.436	4.54
691.465	-3.46
691.495	17.54
691.524	-0.46
691.553	0.54
691.583	-2.46
691.612	12.54
691.641	14.54
691.67	8.54
691.7	18.54
691.729	-12.46
691.758	-3.46
691.788	-8.46
691.817	0.54
691.846	-8.46
691.876	11.54
691.905	10.54
691.934	13.54
691.963	8.54
691.993	4.54
692.022	4.54
692.051	-16.46
692.081	-2.46
692.11	24.54
692.139	10.54
692.168	7.54
692.198	10.54
692.227	16.54
692.256	-3.46
692.285	-3.46
692.315	16.54
692.344	7.54
692.373	-2.46
692.402	-9.46
692.432	-9.46
692.461	-8.46
692.49	-6.46
692.519	-21.46
692.548	5.54
692.578	0.54
692.607	-14.46
692.636	-4.46
692.665	11.54
692.694	4.54
692.724	0.54
692.753	10.54
692.782	8.54
692.811	-7.46
692.84	0.54
692.87	14.54
692.899	1.54
692.928	3.54
692.957	7.54
692.986	-3.46
693.016	23.54
693.045	9.54
693.074	3.54
693.103	-11.46
693.132	29.54
693.161	25.54
693.191	5.54
693.22	-13.46
693.249	-8.46
693.278	-13.46
693.307	2.54
693.336	-12.46
693.365	-17.46
693.395	3.54
693.424	2.54
693.453	18.54
693.482	8.54
693.511	7.54
693.54	8.54
693.569	5.54
693.598	11.54
693.628	8.54
693.657	21.54
693.686	31.54
693.715	12.54
693.744	13.54
693.773	20.54
693.802	6.54
693.831	-3.46
693.86	22.54
693.889	3.54
693.919	-4.46
693.948	-8.46
693.977	5.54
694.006	-4.46
694.035	5.54
694.064	-2.46
694.093	4.54
694.122	3.54
694.151	13.54
694.18	9.54
694.209	20.54
694.238	15.54
694.267	23.54
694.296	12.54
694.325	17.54
694.354	13.54
694.383	2.54
694.412	-6.46
694.441	10.54
694.471	-3.46
694.5	-12.46
694.529	-2.46
694.558	15.54
694.587	6.54
694.616	-0.46
694.645	-5.46
694.674	14.54
694.703	2.54
694.732	8.54
694.761	27.54
694.79	20.54
694.819	1.54
694.848	15.54
694.877	10.54
694.906	21.54
694.935	-3.46
694.963	7.54
694.992	4.54
695.021	1.54
695.05	11.54
695.079	2.54
695.108	-0.46
695.137	28.54
695.166	5.54
695.195	-11.46
695.224	6.54
695.253	9.54
695.282	4.54
695.311	0.54
695.34	3.54
695.369	7.54
695.398	7.54
695.427	29.54
695.456	7.54
695.485	9.54
695.513	-0.46
695.542	-4.46
695.571	-3.46
695.6	19.54
695.629	4.54
695.658	10.54
695.687	6.54
695.716	7.54
695.745	11.54
695.774	-2.46
695.802	-5.46
695.831	-5.46
695.86	5.54
695.889	18.54
695.918	8.54
695.947	-9.46
695.976	8.54
696.005	6.54
696.033	6.54
696.062	8.54
696.091	-2.46
696.12	23.54
696.149	15.54
696.178	4.54
696.207	12.54
696.235	-11.46
696.264	7.54
696.293	6.54
696.322	9.54
696.351	13.54
696.38	-3.46
696.408	10.54
696.437	12.54
696.466	-9.46
696.495	15.54
696.524	15.54
696.553	0.54
696.581	13.54
696.61	-0.46
696.639	-6.46
696.668	15.54
696.697	5.54
696.725	14.54
696.754	4.54
696.783	7.54
696.812	-17.46
696.84	0.54
696.869	10.54
696.898	13.54
696.927	1.54
696.956	6.54
696.984	-7.46
697.013	7.54
697.042	-3.46
697.071	-0.46
697.099	9.54
697.128	21.54
697.157	-5.46
697.186	-7.46
697.214	-4.46
697.243	7.54
697.272	1.54
697.301	16.54
697.329	3.54
697.358	17.54
697.387	21.54
697.415	12.54
697.444	-0.46
697.473	5.54
697.502	1.54
697.53	-0.46
697.559	2.54
697.588	14.54
697.616	4.54
697.645	-4.46
697.674	12.54
697.703	0.54
697.731	4.54
697.76	20.54
697.789	11.54
697.817	9.54
697.846	2.54
697.875	0.54
697.903	8.54
697.932	5.54
697.961	1.54
697.989	7.54
698.018	2.54
698.047	1.54
698.075	12.54
698.104	4.54
698.133	-0.46
698.161	-7.46
698.19	0.54
698.218	0.54
698.247	2.54
698.276	-0.46
698.304	6.54
698.333	-1.46
698.362	7.54
698.39	14.54
698.419	-1.46
698.447	4.54
698.476	3.54
698.505	13.54
698.533	11.54
698.562	7.54
698.591	-7.46
698.619	6.54
698.648	6.54
698.676	4.54
698.705	-0.46
698.733	-8.46
698.762	0.54
698.791	-2.46
698.819	4.54
698.848	-4.46
698.876	12.54
698.905	16.54
698.933	3.54
698.962	1.54
698.991	-4.46
699.019	6.54
699.048	4.54
699.076	10.54
699.105	10.54
699.133	-5.46
699.162	4.54
699.19	4.54
699.219	0.54
699.248	-2.46
699.276	4.54
699.305	3.54
699.333	14.54
699.362	-12.46
699.39	2.54
699.419	1.54
699.447	3.54
699.476	14.54
699.504	2.54
699.533	7.54
699.561	-5.46
699.59	9.54
699.618	-4.46
699.647	12.54
699.675	3.54
699.704	21.54
699.732	1.54
699.761	3.54
699.789	-4.46
699.818	21.54
699.846	16.54
699.874	-2.46
699.903	0.54
699.931	2.54
699.96	-7.46
699.988	-1.46
700.017	7.54
700.045	4.54
700.074	5.54
700.102	-1.46
700.13	-5.46
700.159	-7.46
700.187	-12.46
700.216	-20.46
700.244	-16.46
700.273	-6.46
700.301	-0.46
700.329	4.54
700.358	7.54
700.386	-3.46
700.415	9.54
700.443	-13.46
700.472	-2.46
700.5	-2.46
700.528	7.54
700.557	22.54
700.585	3.54
700.614	-5.46
700.642	17.54
700.67	15.54
700.699	14.54
700.727	-3.46
700.755	-3.46
700.784	-3.46
700.812	-3.46
700.841	-3.46
700.869	-5.46
700.897	-9.46
700.926	1.54
700.954	-11.46
700.982	4.54
701.011	4.54
701.039	-1.46
701.067	-4.46
701.096	9.54
701.124	-8.46
701.152	-11.46
701.181	16.54
701.209	6.54
701.237	-7.46
701.266	-1.46
701.294	-12.46
701.322	-1.46
701.351	0.54
701.379	11.54
701.407	-5.46
701.435	-3.46
701.464	13.54
701.492	17.54
701.52	4.54
701.549	-7.46
701.577	-13.46
701.605	0.54
701.634	3.54
701.662	15.54
701.69	2.54
701.718	-1.46
701.747	5.54
701.775	-0.46
701.803	0.54
701.831	-0.46
701.86	-6.46
701.888	5.54
701.916	16.54
701.944	8.54
701.973	-8.46
702.001	-0.46
702.029	-4.46
702.057	-3.46
702.086	-1.46
702.114	1.54
702.142	-13.46
702.17	-6.46
702.199	-4.46
702.227	-2.46
702.255	12.54
702.283	3.54
702.311	17.54
702.34	-2.46
702.368	5.54
702.396	7.54
702.424	2.54
702.452	3.54
702.481	0.54
702.509	9.54
702.537	-3.46
702.565	7.54
702.593	-20.46
702.621	-10.46
702.65	17.54
702.678	-5.46
702.706	-1.46
702.734	3.54
702.762	-1.46
702.79	2.54
702.819	9.54
702.847	4.54
702.875	17.54
702.903	33.54
702.931	0.54
702.959	-7.46
702.988	-1.46
703.016	-6.46
703.044	16.54
703.072	7.54
703.1	-6.46
703.128	-0.46
703.156	-0.46
703.184	2.54
703.212	22.54
703.241	10.54
703.269	3.54
703.297	2.54
703.325	-4.46
703.353	-11.46
703.381	-10.46
703.409	2.54
703.437	-3.46
703.465	-1.46
703.493	-7.46
703.522	-5.46
703.55	-4.46
703.578	6.54
703.606	-1.46
703.634	-4.46
703.662	-6.46
703.69	0.54
703.718	3.54
703.746	13.54
703.774	-5.46
703.802	16.54
703.83	8.54
703.858	10.54
703.886	-20.46
703.914	-5.46
703.942	-5.46
703.97	-12.46
703.998	-7.46
704.027	10.54
704.055	13.54
704.083	12.54
704.111	-9.46
704.139	0.54
704.167	-4.46
704.195	-4.46
704.223	-8.46
704.251	-12.46
704.279	-11.46
704.307	2.54
704.335	-2.46
704.363	0.54
704.391	-4.46
704.419	7.54
704.447	-13.46
704.475	-11.46
704.503	-1.46
704.531	12.54
704.558	0.54
704.586	-0.46
704.614	4.54
704.642	2.54
704.67	-7.46
704.698	-16.46
704.726	-5.46
704.754	-0.46
704.782	0.54
704.81	-8.46
704.838	4.54
704.866	0.54
704.894	-11.46
704.922	0.54
704.95	-4.46
704.978	8.54
705.006	12.54
705.034	2.54
705.061	-24.46
705.089	-10.46
705.117	-7.46
705.145	-2.46
705.173	2.54
705.201	14.54
705.229	-2.46
705.257	-7.46
705.285	-0.46
705.313	20.54
705.34	3.54
705.368	-4.46
705.396	8.54
705.424	15.54
705.452	-7.46
705.48	6.54
705.508	-7.46
705.536	7.54
705.563	-10.46
705.591	4.54
705.619	-18.46
705.647	-8.46
705.675	10.54
705.703	7.54
705.731	2.54
705.758	2.54
705.786	-10.46
705.814	2.54
705.842	4.54
705.87	1.54
705.898	9.54
705.925	-4.46
705.953	8.54
705.981	-8.46
706.009	3.54
706.037	-3.46
706.065	-3.46
706.092	-22.46
706.12	-1.46
706.148	-11.46
706.176	-2.46
706.204	3.54
706.231	-12.46
706.259	-3.46
706.287	-1.46
706.315	-20.46
706.342	-12.46
706.37	2.54
706.398	-9.46
706.426	-9.46
706.454	-2.46
706.481	3.54
706.509	7.54
706.537	17.54
706.565	-6.46
706.592	15.54
706.62	-7.46
706.648	18.54
706.676	-8.46
706.703	-5.46
706.731	-4.46
706.759	0.54
706.787	10.54
706.814	-11.46
706.842	-4.46
706.87	4.54
706.897	-9.46
706.925	-12.46
706.953	6.54
706.981	14.54
707.008	0.54
707.036	-1.46
707.064	0.54
707.091	-9.46
707.119	17.54
707.147	11.54
707.174	4.54
707.202	26.54
707.23	-5.46
707.258	-3.46
707.285	2.54
707.313	4.54
707.341	-4.46
707.368	-9.46
707.396	16.54
707.424	9.54
707.451	-6.46
707.479	6.54
707.507	-2.46
707.534	-7.46
707.562	-4.46
707.59	-14.46
707.617	-11.46
707.645	9.54
707.672	-11.46
707.7	3.54
707.728	8.54
707.755	3.54
707.783	6.54
707.811	4.54
707.838	-7.46
707.866	-3.46
707.893	1.54
707.921	0.54
707.949	-1.46
707.976	6.54
708.004	-3.46
708.031	-7.46
708.059	-19.46
708.087	-6.46
708.114	-15.46
708.142	6.54
708.169	-4.46
708.197	5.54
708.225	-2.46
708.252	-10.46
708.28	5.54
708.307	-11.46
708.335	-5.46
708.362	-1.46
708.39	-20.46
708.418	2.54
708.445	-3.46
708.473	-1.46
708.5	-1.46
708.528	7.54
708.555	-7.46
708.583	-3.46
708.61	-3.46
708.638	6.54
708.665	-5.46
708.693	-9.46
708.72	-8.46
708.748	-12.46
708.776	4.54
708.803	14.54
708.831	9.54
708.858	7.54
708.886	-3.46
708.913	0.54
708.941	1.54
708.968	14.54
708.996	11.54
709.023	10.54
709.051	-4.46
709.078	-7.46
709.105	-12.46
709.133	4.54
709.16	-2.46
709.188	2.54
709.215	10.54
709.243	3.54
709.27	-5.46
709.298	-7.46
709.325	-2.46
709.353	5.54
709.38	4.54
709.408	3.54
709.435	-4.46
709.462	-7.46
709.49	6.54
709.517	-11.46
709.545	-7.46
709.572	4.54
709.6	-2.46
709.627	15.54
709.655	7.54
709.682	1.54
709.709	5.54
709.737	4.54
709.764	-5.46
709.792	7.54
709.819	7.54
709.846	-9.46
709.874	21.54
709.901	15.54
709.929	-0.46
709.956	-0.46
709.983	-7.46
710.011	-8.46
710.038	-0.46
710.066	7.54
710.093	11.54
710.12	4.54
710.148	-8.46
710.175	-3.46
710.202	-15.46
710.23	12.54
710.257	12.54
710.284	6.54
710.312	9.54
710.339	2.54
710.366	7.54
710.394	-17.46
710.421	2.54
710.448	17.54
710.476	-10.46
710.503	-0.46
710.53	26.54
710.558	15.54
710.585	11.54
710.612	3.54
710.64	2.54
710.667	0.54
710.694	-20.46
710.722	6.54
710.749	-3.46
710.776	5.54
710.804	6.54
710.831	8.54
710.858	2.54
710.885	-5.46
710.913	-1.46
710.94	15.54
710.967	8.54
710.995	6.54
711.022	-4.46
711.049	-1.46
711.076	0.54
711.104	0.54
711.131	-6.46
711.158	-4.46
711.185	2.54
711.213	0.54
711.24	-0.46
711.267	-3.46
711.294	-7.46
711.322	0.54
711.349	-4.46
711.376	9.54
711.403	23.54
711.431	-0.46
711.458	6.54
711.485	-8.46
711.512	-7.46
711.54	-4.46
711.567	8.54
711.594	7.54
711.621	4.54
711.648	-4.46
711.676	-0.46
711.703	-1.46
711.73	-11.46
711.757	8.54
711.784	3.54
711.812	-4.46
711.839	9.54
711.866	-9.46
711.893	1.54
711.92	18.54
711.947	7.54
711.975	8.54
712.002	6.54
712.029	19.54
712.056	2.54
712.083	3.54
712.11	-8.46
712.138	11.54
712.165	16.54
712.192	-4.46
712.219	-3.46
712.246	-16.46
712.273	-3.46
712.3	-5.46
712.328	-1.46
712.355	12.54
712.382	-0.46
712.409	26.54
712.436	-3.46
712.463	3.54
712.49	-1.46
712.517	-1.46
712.544	-6.46
712.572	7.54
712.599	-4.46
712.626	0.54
712.653	-4.46
712.68	-0.46
712.707	9.54
712.734	4.54
712.761	1.54
712.788	-6.46
712.815	-2.46
712.842	18.54
712.87	0.54
712.897	-0.46
712.924	-13.46
712.951	12.54
712.978	6.54
713.005	24.54
713.032	28.54
713.059	0.54
713.086	-0.46
713.113	-3.46
713.14	-20.46
713.167	14.54
713.194	5.54
713.221	3.54
713.248	11.54
713.275	6.54
713.302	2.54
713.329	-4.46
713.356	3.54
713.383	1.54
713.41	4.54
713.437	-4.46
713.464	-14.46
713.491	8.54
713.518	1.54
713.545	2.54
713.572	-4.46
713.599	16.54
713.626	-3.46
713.653	4.54
713.68	4.54
713.707	-2.46
713.734	6.54
713.761	-8.46
713.788	-8.46
713.815	6.54
713.842	-13.46
713.869	4.54
713.896	2.54
713.923	3.54
713.95	-7.46
713.977	-2.46
714.004	-2.46
714.031	-12.46
714.058	-8.46
714.085	-3.46
714.112	15.54
714.139	3.54
714.165	2.54
714.192	-15.46
714.219	0.54
714.246	-10.46
714.273	-1.46
714.3	-0.46
714.327	-2.46
714.354	10.54
714.381	3.54
714.408	5.54
714.435	-3.46
714.461	-2.46
714.488	3.54
714.515	-6.46
714.542	-12.46
714.569	2.54
714.596	-5.46
714.623	0.54
714.65	-13.46
714.677	2.54
714.703	-2.46
714.73	25.54
714.757	21.54
714.784	-4.46
714.811	-12.46
714.838	6.54
714.865	-0.46
714.891	2.54
714.918	8.54
714.945	-18.46
714.972	2.54
714.999	16.54
715.026	-2.46
715.052	20.54
715.079	0.54
715.106	-3.46
715.133	-2.46
715.16	-4.46
715.187	0.54
715.213	-1.46
715.24	-19.46
715.267	2.54
715.294	-3.46
715.321	-1.46
715.347	-2.46
715.374	-9.46
715.401	-6.46
715.428	2.54
715.455	5.54
715.481	-4.46
715.508	20.54
715.535	-4.46
715.562	14.54
715.588	4.54
715.615	4.54
715.642	2.54
715.669	13.54
715.695	4.54
715.722	2.54
715.749	15.54
715.776	22.54
715.802	-8.46
715.829	10.54
715.856	-0.46
715.883	16.54
715.909	-15.46
715.936	24.54
715.963	3.54
715.99	-2.46
716.016	0.54
716.043	-7.46
716.07	-15.46
716.096	-10.46
716.123	2.54
716.15	12.54
716.177	-2.46
716.203	3.54
716.23	9.54
716.257	11.54
716.283	2.54
716.31	-4.46
716.337	-13.46
716.363	-7.46
716.39	7.54
716.417	6.54
716.443	-1.46
716.47	3.54
716.497	3.54
716.523	6.54
716.55	20.54
716.577	34.54
716.603	-1.46
716.63	19.54
716.657	15.54
716.683	3.54
716.71	2.54
716.737	-1.46
716.763	5.54
716.79	15.54
716.817	4.54
716.843	16.54
716.87	-17.46
716.897	2.54
716.923	12.54
716.95	-7.46
716.976	-4.46
717.003	-5.46
717.03	11.54
717.056	-2.46
717.083	-3.46
717.109	11.54
717.136	6.54
717.163	-13.46
717.189	-3.46
717.216	-4.46
717.242	-1.46
717.269	0.54
717.296	5.54
717.322	29.54
717.349	11.54
717.375	11.54
717.402	2.54
717.428	-19.46
717.455	3.54
717.481	12.54
717.508	13.54
717.535	8.54
717.561	-6.46
717.588	8.54
717.614	1.54
717.641	13.54
717.667	8.54
717.694	5.54
717.72	6.54
717.747	7.54
717.773	0.54
717.8	-0.46
717.826	-0.46
717.853	-0.46
717.88	11.54
717.906	2.54
717.933	14.54
717.959	11.54
717.986	-0.46
718.012	8.54
718.039	17.54
718.065	3.54
718.092	5.54
718.118	-2.46
718.144	-6.46
718.171	2.54
718.197	-0.46
718.224	0.54
718.25	6.54
718.277	2.54
718.303	3.54
718.33	11.54
718.356	8.54
718.383	-5.46
718.409	0.54
718.436	-8.46
718.462	3.54
718.489	7.54
718.515	17.54
718.541	12.54
718.568	2.54
718.594	19.54
718.621	9.54
718.647	9.54
718.674	8.54
718.7	19.54
718.726	9.54
718.753	9.54
718.779	8.54
718.806	-11.46
718.832	3.54
718.858	3.54
718.885	-0.46
718.911	1.54
718.938	9.54
718.964	-4.46
718.99	9.54
719.017	10.54
719.043	-0.46
719.07	-7.46
719.096	-18.46
719.122	3.54
719.149	-4.46
719.175	9.54
719.201	12.54
719.228	3.54
719.254	5.54
719.281	0.54
719.307	13.54
719.333	8.54
719.36	12.54
719.386	11.54
719.412	2.54
719.439	-7.46
719.465	-12.46
719.491	-12.46
719.518	7.54
719.544	17.54
719.57	15.54
719.597	7.54
719.623	14.54
719.649	12.54
719.675	-9.46
719.702	-0.46
719.728	6.54
719.754	-2.46
719.781	9.54
719.807	1.54
719.833	-9.46
719.86	-4.46
719.886	3.54
719.912	3.54
719.938	-3.46
719.965	4.54
719.991	21.54
720.017	11.54
720.044	-12.46
720.07	21.54
720.096	12.54
720.122	9.54
720.149	6.54
720.175	15.54
720.201	-0.46
720.227	-22.46
720.254	-4.46
720.28	3.54
720.306	-5.46
720.332	-4.46
720.359	-1.46
720.385	8.54
720.411	-0.46
720.437	7.54
720.463	-9.46
720.49	16.54
720.516	-6.46
720.542	-1.46
720.568	6.54
720.595	3.54
720.621	1.54
720.647	-12.46
720.673	2.54
720.699	9.54
720.725	2.54
720.752	-3.46
720.778	8.54
720.804	29.54
720.83	26.54
720.856	-1.46
720.883	-12.46
720.909	0.54
720.935	0.54
720.961	16.54
720.987	-1.46
721.013	16.54
721.04	-2.46
721.066	7.54
721.092	-4.46
721.118	7.54
721.144	6.54
721.17	16.54
721.196	-7.46
721.223	-0.46
721.249	-1.46
721.275	12.54
721.301	-0.46
721.327	14.54
721.353	-8.46
721.379	-4.46
721.405	-1.46
721.432	8.54
721.458	6.54
721.484	18.54
721.51	-36.46
721.536	-5.46
721.562	4.54
721.588	3.54
721.614	-15.46
721.64	-1.46
721.666	-4.46
721.693	-11.46
721.719	4.54
721.745	-4.46
721.771	5.54
721.797	8.54
721.823	1.54
721.849	8.54
721.875	27.54
721.901	10.54
721.927	-3.46
721.953	-12.46
721.979	1.54
722.005	11.54
722.031	-7.46
722.057	6.54
722.083	6.54
722.109	7.54
722.135	11.54
722.161	5.54
722.187	-0.46
722.214	-8.46
722.24	-4.46
722.266	-13.46
722.292	-11.46
722.318	-1.46
722.344	0.54
722.37	24.54
722.396	0.54
722.422	7.54
722.448	-0.46
722.474	-6.46
722.5	4.54
722.526	4.54
722.552	-9.46
722.578	-2.46
722.603	0.54
722.629	-0.46
722.655	4.54
722.681	3.54
722.707	11.54
722.733	-1.46
722.759	-15.46
722.785	-4.46
722.811	-2.46
722.837	-26.46
722.863	-1.46
722.889	4.54
722.915	3.54
722.941	6.54
722.967	1.54
722.993	6.54
723.019	-3.46
723.045	8.54
723.071	9.54
723.097	6.54
723.122	-0.46
723.148	-6.46
723.174	-0.46
723.2	15.54
723.226	-3.46
723.252	-1.46
723.278	-13.46
723.304	4.54
723.33	16.54
723.356	1.54
723.381	-4.46
723.407	-17.46
723.433	8.54
723.459	-6.46
723.485	-3.46
723.511	0.54
723.537	0.54
723.563	4.54
723.588	-8.46
723.614	12.54
723.64	-17.46
723.666	-11.46
723.692	-0.46
723.718	21.54
723.744	11.54
723.769	3.54
723.795	-1.46
723.821	11.54
723.847	-8.46
723.873	7.54
723.899	8.54
723.924	-10.46
723.95	-2.46
723.976	-3.46
724.002	15.54
724.028	6.54
724.053	-10.46
724.079	-2.46
724.105	-2.46
724.131	0.54
724.157	10.54
724.182	15.54
724.208	16.54
724.234	12.54
724.26	1.54
724.286	17.54
724.311	4.54
724.337	-3.46
724.363	-10.46
724.389	21.54
724.415	1.54
724.44	21.54
724.466	-7.46
724.492	-6.46
724.518	2.54
724.543	-10.46
724.569	-0.46
724.595	7.54
724.621	-5.46
724.646	-16.46
724.672	2.54
724.698	-1.46
724.723	-10.46
724.749	-1.46
724.775	7.54
724.801	13.54
724.826	-8.46
724.852	-9.46
724.878	-2.46
724.904	-2.46
724.929	7.54
724.955	-15.46
724.981	-6.46
725.006	-0.46
725.032	10.54
725.058	15.54
725.083	2.54
725.109	6.54
725.135	-9.46
725.161	2.54
725.186	11.54
725.212	11.54
725.238	24.54
725.263	-8.46
725.289	-5.46
725.315	-5.46
725.34	-8.46
725.366	7.54
725.392	8.54
725.417	-0.46
725.443	18.54
725.468	13.54
725.494	9.54
725.52	18.54
725.545	11.54
725.571	-9.46
725.597	-9.46
725.622	0.54
725.648	-2.46
725.674	13.54
725.699	5.54
725.725	5.54
725.75	28.54
725.776	-13.46
725.802	-0.46
725.827	2.54
725.853	3.54
725.878	-3.46
725.904	-2.46
725.93	-9.46
725.955	-8.46
725.981	-2.46
726.006	-15.46
726.032	10.54
726.057	4.54
726.083	-7.46
726.109	7.54
726.134	-2.46
726.16	10.54
726.185	1.54
726.211	-0.46
726.236	5.54
726.262	7.54
726.288	6.54
726.313	3.54
726.339	-4.46
726.364	-0.46
726.39	7.54
726.415	-5.46
726.441	-2.46
726.466	-4.46
726.492	-10.46
726.517	2.54
726.543	2.54
726.568	-1.46
726.594	-1.46
726.619	5.54
726.645	-0.46
726.67	7.54
726.696	0.54
726.721	-0.46
726.747	-7.46
726.772	12.54
726.798	2.54
726.823	-2.46
726.849	-1.46
726.874	-3.46
726.9	13.54
726.925	5.54
726.951	9.54
726.976	6.54
727.002	-3.46
727.027	4.54
727.053	7.54
727.078	2.54
727.104	4.54
727.129	-0.46
727.155	6.54
727.18	3.54
727.205	7.54
727.231	-16.46
727.256	-9.46
727.282	15.54
727.307	4.54
727.333	-1.46
727.358	4.54
727.383	-4.46
727.409	0.54
727.434	19.54
727.46	-3.46
727.485	7.54
727.511	4.54
727.536	-4.46
727.561	0.54
727.587	-6.46
727.612	-12.46
727.637	0.54
727.663	3.54
727.688	14.54
727.714	-0.46
727.739	-10.46
727.764	-4.46
727.79	4.54
727.815	-5.46
727.841	-3.46
727.866	0.54
727.891	-0.46
727.917	-12.46
727.942	-13.46
727.967	-9.46
727.993	-15.46
728.018	5.54
728.043	-0.46
728.069	11.54
728.094	7.54
728.119	-9.46
728.145	8.54
728.17	2.54
728.195	-0.46
728.221	6.54
728.246	14.54
728.271	-3.46
728.297	0.54
728.322	1.54
728.347	7.54
728.373	5.54
728.398	4.54
728.423	-2.46
728.448	4.54
728.474	7.54
728.499	20.54
728.524	-7.46
728.55	-5.46
728.575	4.54
728.6	-7.46
728.625	-22.46
728.651	13.54
728.676	-1.46
728.701	-14.46
728.727	14.54
728.752	-10.46
728.777	-8.46
728.802	-7.46
728.828	17.54
728.853	7.54
728.878	-11.46
728.903	-18.46
728.929	-12.46
728.954	-2.46
728.979	12.54
729.004	-1.46
729.03	-3.46
729.055	7.54
729.08	4.54
729.105	-1.46
729.13	1.54
729.156	13.54
729.181	12.54
729.206	-4.46
729.231	-3.46
729.256	2.54
729.282	-2.46
729.307	5.54
729.332	-3.46
729.357	-1.46
729.382	1.54
729.408	-11.46
729.433	3.54
729.458	-4.46
729.483	-9.46
729.508	22.54
729.533	-9.46
729.559	20.54
729.584	-6.46
729.609	2.54
729.634	2.54
729.659	-5.46
729.684	-12.46
729.71	15.54
729.735	-1.46
729.76	-6.46
729.785	-6.46
729.81	21.54
729.835	1.54
729.86	9.54
729.886	4.54
729.911	5.54
729.936	-17.46
729.961	11.54
729.986	-7.46
730.011	1.54
730.036	-4.46
730.061	-2.46
730.086	17.54
730.112	4.54
730.137	23.54
730.162	-1.46
730.187	-9.46
730.212	3.54
730.237	-10.46
730.262	0.54
730.287	-0.46
730.312	6.54
730.337	-9.46
730.362	6.54
730.387	-16.46
730.413	-2.46
730.438	-10.46
730.463	-8.46
730.488	-17.46
730.513	21.54
730.538	3.54
730.563	6.54
730.588	2.54
730.613	3.54
730.638	-4.46
730.663	-1.46
730.688	16.54
730.713	13.54
730.738	-8.46
730.763	5.54
730.788	-12.46
730.813	11.54
730.838	6.54
730.863	-3.46
730.888	-5.46
730.913	-15.46
730.938	-9.46
730.963	-0.46
730.988	0.54
731.013	36.54
731.038	-3.46
731.063	15.54
731.088	7.54
731.113	7.54
731.138	7.54
731.163	9.54
731.188	-3.46
731.213	7.54
731.238	0.54
731.263	-6.46
731.288	-18.46
731.313	0.54
731.338	13.54
731.363	16.54
731.388	5.54
731.413	11.54
731.438	6.54
731.463	10.54
731.487	11.54
731.512	-2.46
731.537	-6.46
731.562	-14.46
731.587	2.54
731.612	0.54
731.637	-5.46
731.662	-9.46
731.687	3.54
731.712	-8.46
731.737	9.54
731.762	24.54
731.786	8.54
731.811	-1.46
731.836	-6.46
731.861	-3.46
731.886	-0.46
731.911	10.54
731.936	21.54
731.961	-2.46
731.986	0.54
732.01	0.54
732.035	14.54
732.06	14.54
732.085	5.54
732.11	-3.46
732.135	-6.46
732.16	2.54
732.184	-12.46
732.209	-3.46
732.234	3.54
732.259	-4.46
732.284	8.54
732.309	-6.46
732.334	-6.46
732.358	-23.46
732.383	-25.46
732.408	-9.46
732.433	-11.46
732.458	-1.46
732.482	-9.46
732.507	-12.46
732.532	-0.46
732.557	7.54
732.582	11.54
732.607	-19.46
732.631	-12.46
732.656	-1.46
732.681	4.54
732.706	-3.46
732.73	8.54
732.755	4.54
732.78	4.54
732.805	-3.46
732.83	-11.46
732.854	-3.46
732.879	13.54
732.904	2.54
732.929	-2.46
732.953	2.54
732.978	9.54
733.003	10.54
733.028	6.54
733.052	11.54
733.077	-1.46
733.102	0.54
733.127	0.54
733.151	-7.46
733.176	5.54
733.201	-9.46
733.226	-7.46
733.25	-0.46
733.275	2.54
733.3	2.54
733.324	10.54
733.349	9.54
733.374	11.54
733.399	12.54
733.423	2.54
733.448	-7.46
733.473	-5.46
733.497	-1.46
733.522	-13.46
733.547	18.54
733.571	27.54
733.596	2.54
733.621	4.54
733.646	12.54
733.67	12.54
733.695	-2.46
733.72	-3.46
733.744	2.54
733.769	5.54
733.794	21.54
733.818	7.54
733.843	-1.46
733.867	-24.46
733.892	-13.46
733.917	3.54
733.941	7.54
733.966	-5.46
733.991	1.54
734.015	25.54
734.04	6.54
734.065	26.54
734.089	24.54
734.114	-0.46
734.138	12.54
734.163	2.54
734.188	3.54
734.212	17.54
734.237	8.54
734.261	2.54
734.286	9.54
734.311	4.54
734.335	2.54
734.36	14.54
734.384	-5.46
734.409	-4.46
734.434	0.54
734.458	7.54
734.483	12.54
734.507	-1.46
734.532	-0.46
734.556	11.54
734.581	2.54
734.606	-1.46
734.63	-15.46
734.655	10.54
734.679	-9.46
734.704	-1.46
734.728	-9.46
734.753	-15.46
734.777	8.54
734.802	-7.46
734.826	2.54
734.851	3.54
734.876	4.54
734.9	7.54
734.925	10.54
734.949	5.54
734.974	-0.46
734.998	10.54
735.023	-10.46
735.047	-12.46
735.072	21.54
735.096	0.54
735.121	7.54
735.145	12.54
735.17	0.54
735.194	15.54
735.219	-4.46
735.243	-1.46
735.268	16.54
735.292	8.54
735.317	-3.46
735.341	5.54
735.365	-14.46
735.39	5.54
735.414	-3.46
735.439	14.54
735.463	5.54
735.488	-7.46
735.512	3.54
735.537	-5.46
735.561	15.54
735.586	10.54
735.61	13.54
735.634	-1.46
735.659	15.54
735.683	28.54
735.708	-4.46
735.732	-4.46
735.757	-6.46
735.781	10.54
735.805	14.54
735.83	-4.46
735.854	5.54
735.879	2.54
735.903	13.54
735.927	-3.46
735.952	3.54
735.976	5.54
736.001	-3.46
736.025	-25.46
736.049	-2.46
736.074	-0.46
736.098	-0.46
736.123	8.54
736.147	18.54
736.171	-6.46
736.196	30.54
736.22	12.54
736.244	-0.46
736.269	1.54
736.293	10.54
736.317	14.54
736.342	8.54
736.366	8.54
736.39	7.54
736.415	7.54
736.439	0.54
736.463	5.54
736.488	2.54
736.512	7.54
736.536	-1.46
736.561	22.54
736.585	12.54
736.609	11.54
736.634	-4.46
736.658	2.54
736.682	-13.46
736.707	-13.46
736.731	0.54
736.755	-7.46
736.78	3.54
736.804	10.54
736.828	19.54
736.852	4.54
736.877	6.54
736.901	4.54
736.925	-13.46
736.949	2.54
736.974	-7.46
736.998	-7.46
737.022	3.54
737.047	-1.46
737.071	10.54
737.095	-1.46
737.119	22.54
737.144	6.54
737.168	16.54
737.192	-0.46
737.216	8.54
737.241	-4.46
737.265	17.54
737.289	2.54
737.313	0.54
737.337	-2.46
737.362	-5.46
737.386	7.54
737.41	-0.46
737.434	3.54
737.459	12.54
737.483	20.54
737.507	6.54
737.531	17.54
737.555	7.54
737.58	14.54
737.604	11.54
737.628	-16.46
737.652	-0.46
737.676	-3.46
737.701	12.54
737.725	6.54
737.749	14.54
737.773	-4.46
737.797	5.54
737.821	-6.46
737.846	11.54
737.87	8.54
737.894	-10.46
737.918	-9.46
737.942	-8.46
737.966	4.54
737.99	6.54
738.015	-4.46
738.039	5.54
738.063	2.54
738.087	3.54
738.111	4.54
738.135	30.54
738.159	-10.46
738.184	-2.46
738.208	5.54
738.232	3.54
738.256	23.54
738.28	10.54
738.304	14.54
738.328	-5.46
738.352	14.54
738.376	6.54
738.4	6.54
738.425	7.54
738.449	-15.46
738.473	13.54
738.497	10.54
738.521	14.54
738.545	11.54
738.569	12.54
738.593	13.54
738.617	3.54
738.641	-10.46
738.665	-0.46
738.689	4.54
738.713	-1.46
738.737	12.54
738.762	5.54
738.786	4.54
738.81	-2.46
738.834	-5.46
738.858	-3.46
738.882	4.54
738.906	-5.46
738.93	-8.46
738.954	4.54
738.978	-2.46
739.002	-8.46
739.026	-1.46
739.05	14.54
739.074	-16.46
739.098	3.54
739.122	10.54
739.146	12.54
739.17	6.54
739.194	8.54
739.218	1.54
739.242	4.54
739.266	-3.46
739.29	5.54
739.314	7.54
739.338	-8.46
739.362	-4.46
739.386	-0.46
739.41	-3.46
739.434	-19.46
739.458	13.54
739.482	19.54
739.506	7.54
739.53	-2.46
739.554	10.54
739.577	7.54
739.601	26.54
739.625	-1.46
739.649	-6.46
739.673	1.54
739.697	9.54
739.721	5.54
739.745	9.54
739.769	10.54
739.793	12.54
739.817	6.54
739.841	3.54
739.865	-8.46
739.889	-12.46
739.912	22.54
739.936	1.54
739.96	2.54
739.984	8.54
740.008	15.54
740.032	-10.46
740.056	5.54
740.08	3.54
740.104	-8.46
740.127	6.54
740.151	-0.46
740.175	-4.46
740.199	14.54
740.223	24.54
740.247	22.54
740.271	3.54
740.295	-1.46
740.318	0.54
740.342	12.54
740.366	26.54
740.39	10.54
740.414	5.54
740.438	5.54
740.461	16.54
740.485	6.54
740.509	-1.46
740.533	20.54
740.557	-4.46
740.581	-4.46
740.604	-5.46
740.628	16.54
740.652	3.54
740.676	-4.46
740.7	-1.46
740.723	-14.46
740.747	-17.46
740.771	14.54
740.795	-2.46
740.819	20.54
740.842	7.54
740.866	11.54
740.89	0.54
740.914	-3.46
740.938	-3.46
740.961	2.54
740.985	-3.46
741.009	0.54
741.033	4.54
741.056	2.54
741.08	10.54
741.104	-2.46
741.128	6.54
741.151	9.54
741.175	19.54
741.199	10.54
741.223	12.54
741.246	-1.46
741.27	-6.46
741.294	1.54
741.318	-3.46
741.341	-10.46
741.365	0.54
741.389	14.54
741.413	23.54
741.436	14.54
741.46	9.54
741.484	4.54
741.507	2.54
741.531	27.54
741.555	13.54
741.579	0.54
741.602	-7.46
741.626	10.54
741.65	10.54
741.673	4.54
741.697	0.54
741.721	4.54
741.744	-4.46
741.768	-6.46
741.792	3.54
741.815	-3.46
741.839	9.54
741.863	18.54
741.886	27.54
741.91	5.54
741.934	6.54
741.957	-9.46
741.981	0.54
742.005	7.54
742.028	-5.46
742.052	-5.46
742.075	4.54
742.099	10.54
742.123	-1.46
742.146	3.54
742.17	-1.46
742.194	-4.46
742.217	-2.46
742.241	-0.46
742.264	-2.46
742.288	25.54
742.312	13.54
742.335	-5.46
742.359	-3.46
742.382	8.54
742.406	6.54
742.43	-3.46
742.453	20.54
742.477	0.54
742.5	-3.46
742.524	-10.46
742.548	-12.46
742.571	-4.46
742.595	-9.46
742.618	-5.46
742.642	1.54
742.665	7.54
742.689	-3.46
742.712	6.54
742.736	-1.46
742.76	4.54
742.783	3.54
742.807	5.54
742.83	15.54
742.854	2.54
742.877	-2.46
742.901	-0.46
742.924	-1.46
742.948	4.54
742.971	-2.46
742.995	11.54
743.018	-9.46
743.042	-4.46
743.065	1.54
743.089	-11.46
743.112	2.54
743.136	-7.46
743.159	-21.46
743.183	-2.46
743.206	6.54
743.23	4.54
743.253	11.54
743.277	-2.46
743.3	-9.46
743.324	-5.46
743.347	2.54
743.371	5.54
743.394	2.54
743.418	9.54
743.441	4.54
743.465	18.54
743.488	4.54
743.512	4.54
743.535	15.54
743.558	-3.46
743.582	-0.46
743.605	2.54
743.629	9.54
743.652	18.54
743.676	8.54
743.699	2.54
743.723	-8.46
743.746	22.54
743.769	-1.46
743.793	6.54
743.816	0.54
743.84	17.54
743.863	3.54
743.886	-1.46
743.91	12.54
743.933	7.54
743.957	13.54
743.98	8.54
744.003	14.54
744.027	-9.46
744.05	9.54
744.074	-9.46
744.097	-23.46
744.12	5.54
744.144	-9.46
744.167	16.54
744.19	7.54
744.214	0.54
744.237	-8.46
744.26	-8.46
744.284	8.54
744.307	-12.46
744.331	-0.46
744.354	-2.46
744.377	-2.46
744.401	-13.46
744.424	-12.46
744.447	-6.46
744.471	-6.46
