Data from HighRes_H2D2_15_04_11_07_2024_HR4C61891__80__15-05-42-444.txt Node

Date: Thu Nov 07 15:05:42 EST 2024
User: crc00042
Spectrometer: HR4C6189
Trigger mode: 4
Integration Time (sec): 1.000000E-1
Scans to average: 1
Electric dark correction enabled: true
Nonlinearity correction enabled: false
Boxcar width: 0
XAxis mode: Wavelengths
Number of Pixels in Spectrum: 3648
>>>>>Begin Spectral Data<<<<<
639.567	-90.15
639.602	-90.15
639.636	-90.15
639.67	-40.15
639.704	-18.15
639.738	-7.15
639.773	4.85
639.807	-21.15
639.841	2.85
639.875	23.85
639.909	6.85
639.943	-9.15
639.978	-18.15
640.012	2.85
640.046	3.85
640.08	8.85
640.114	3.85
640.148	-2.15
640.182	-0.15
640.217	15.85
640.251	30.85
640.285	9.85
640.319	3.85
640.353	-0.15
640.387	17.85
640.421	3.85
640.455	-4.15
640.49	-9.15
640.524	7.85
640.558	12.85
640.592	6.85
640.626	11.85
640.66	15.85
640.694	9.85
640.728	7.85
640.762	-5.15
640.796	7.85
640.83	8.85
640.865	-4.15
640.899	-3.15
640.933	-7.15
640.967	10.85
641.001	15.85
641.035	4.85
641.069	6.85
641.103	-1.15
641.137	5.85
641.171	0.85
641.205	5.85
641.239	-3.15
641.273	27.85
641.307	25.85
641.341	-3.15
641.375	9.85
641.409	-4.15
641.443	-8.15
641.477	7.85
641.511	11.85
641.545	17.85
641.579	-3.15
641.614	12.85
641.648	6.85
641.682	-11.15
641.716	-1.15
641.75	22.85
641.784	2.85
641.818	-17.15
641.852	14.85
641.886	3.85
641.919	40.85
641.953	9.85
641.987	-0.15
642.021	4.85
642.055	18.85
642.089	5.85
642.123	4.85
642.157	-1.15
642.191	-7.15
642.225	17.85
642.259	6.85
642.293	15.85
642.327	11.85
642.361	17.85
642.395	10.85
642.429	10.85
642.463	12.85
642.497	30.85
642.531	2.85
642.565	16.85
642.599	1.85
642.633	-14.15
642.666	7.85
642.7	14.85
642.734	19.85
642.768	9.85
642.802	1.85
642.836	33.85
642.87	4.85
642.904	16.85
642.938	10.85
642.972	7.85
643.005	19.85
643.039	10.85
643.073	7.85
643.107	4.85
643.141	14.85
643.175	23.85
643.209	11.85
643.243	7.85
643.276	16.85
643.31	-7.15
643.344	17.85
643.378	-1.15
643.412	21.85
643.446	11.85
643.48	0.85
643.513	9.85
643.547	11.85
643.581	-0.15
643.615	25.85
643.649	8.85
643.683	7.85
643.716	8.85
643.75	10.85
643.784	-4.15
643.818	8.85
643.852	1.85
643.886	15.85
643.919	5.85
643.953	4.85
643.987	-6.15
644.021	30.85
644.055	20.85
644.088	2.85
644.122	6.85
644.156	-12.15
644.19	8.85
644.224	9.85
644.257	20.85
644.291	16.85
644.325	12.85
644.359	8.85
644.392	21.85
644.426	15.85
644.46	7.85
644.494	2.85
644.527	-11.15
644.561	-2.15
644.595	5.85
644.629	-2.15
644.662	9.85
644.696	22.85
644.73	25.85
644.764	14.85
644.797	10.85
644.831	-7.15
644.865	27.85
644.899	21.85
644.932	30.85
644.966	0.85
645	12.85
645.033	17.85
645.067	3.85
645.101	19.85
645.135	1.85
645.168	0.85
645.202	4.85
645.236	14.85
645.269	21.85
645.303	-13.15
645.337	-4.15
645.37	14.85
645.404	23.85
645.438	12.85
645.471	7.85
645.505	10.85
645.539	12.85
645.572	5.85
645.606	14.85
645.64	17.85
645.673	14.85
645.707	23.85
645.741	4.85
645.774	0.85
645.808	11.85
645.842	11.85
645.875	20.85
645.909	-10.15
645.943	2.85
645.976	-4.15
646.01	24.85
646.043	5.85
646.077	15.85
646.111	19.85
646.144	5.85
646.178	14.85
646.212	-2.15
646.245	9.85
646.279	8.85
646.312	13.85
646.346	15.85
646.38	-5.15
646.413	6.85
646.447	10.85
646.48	0.85
646.514	23.85
646.547	16.85
646.581	8.85
646.615	6.85
646.648	0.85
646.682	-8.15
646.715	-4.15
646.749	23.85
646.782	4.85
646.816	0.85
646.85	-1.15
646.883	-0.15
646.917	3.85
646.95	6.85
646.984	12.85
647.017	11.85
647.051	11.85
647.084	4.85
647.118	0.85
647.151	-0.15
647.185	-4.15
647.218	-2.15
647.252	5.85
647.285	-7.15
647.319	-1.15
647.353	14.85
647.386	26.85
647.42	10.85
647.453	4.85
647.487	5.85
647.52	8.85
647.553	4.85
647.587	9.85
647.62	2.85
647.654	11.85
647.687	22.85
647.721	15.85
647.754	22.85
647.788	22.85
647.821	-1.15
647.855	10.85
647.888	3.85
647.922	24.85
647.955	12.85
647.989	13.85
648.022	20.85
648.055	15.85
648.089	0.85
648.122	25.85
648.156	12.85
648.189	15.85
648.223	16.85
648.256	30.85
648.29	13.85
648.323	0.85
648.356	11.85
648.39	6.85
648.423	20.85
648.457	18.85
648.49	16.85
648.523	-1.15
648.557	-0.15
648.59	3.85
648.624	10.85
648.657	14.85
648.69	17.85
648.724	15.85
648.757	40.85
648.791	27.85
648.824	5.85
648.857	35.85
648.891	15.85
648.924	8.85
648.957	25.85
648.991	6.85
649.024	17.85
649.057	-7.15
649.091	23.85
649.124	12.85
649.158	19.85
649.191	29.85
649.224	8.85
649.258	12.85
649.291	14.85
649.324	22.85
649.358	3.85
649.391	12.85
649.424	16.85
649.458	9.85
649.491	9.85
649.524	12.85
649.557	-1.15
649.591	-11.15
649.624	17.85
649.657	12.85
649.691	17.85
649.724	23.85
649.757	10.85
649.791	13.85
649.824	20.85
649.857	25.85
649.89	4.85
649.924	-12.15
649.957	-4.15
649.99	-7.15
650.023	15.85
650.057	7.85
650.09	8.85
650.123	7.85
650.157	9.85
650.19	28.85
650.223	4.85
650.256	13.85
650.29	15.85
650.323	4.85
650.356	14.85
650.389	5.85
650.423	14.85
650.456	4.85
650.489	5.85
650.522	16.85
650.555	14.85
650.589	0.85
650.622	20.85
650.655	3.85
650.688	4.85
650.721	1.85
650.755	20.85
650.788	27.85
650.821	18.85
650.854	11.85
650.887	23.85
650.921	-0.15
650.954	-8.15
650.987	11.85
651.02	-10.15
651.053	-12.15
651.087	4.85
651.12	27.85
651.153	11.85
651.186	7.85
651.219	8.85
651.252	-0.15
651.286	11.85
651.319	14.85
651.352	23.85
651.385	19.85
651.418	6.85
651.451	2.85
651.484	14.85
651.518	1.85
651.551	17.85
651.584	-11.15
651.617	19.85
651.65	22.85
651.683	27.85
651.716	6.85
651.749	2.85
651.783	7.85
651.816	6.85
651.849	8.85
651.882	9.85
651.915	10.85
651.948	19.85
651.981	-5.15
652.014	-10.15
652.047	3.85
652.08	9.85
652.114	11.85
652.147	13.85
652.18	17.85
652.213	35.85
652.246	15.85
652.279	0.85
652.312	15.85
652.345	10.85
652.378	3.85
652.411	23.85
652.444	14.85
652.477	11.85
652.51	13.85
652.543	2.85
652.576	16.85
652.609	-3.15
652.642	1.85
652.675	16.85
652.709	16.85
652.742	-0.15
652.775	20.85
652.808	31.85
652.841	5.85
652.874	8.85
652.907	9.85
652.94	8.85
652.973	4.85
653.006	2.85
653.039	-0.15
653.072	19.85
653.105	10.85
653.138	12.85
653.171	11.85
653.204	21.85
653.237	21.85
653.27	1.85
653.303	12.85
653.336	19.85
653.368	11.85
653.401	6.85
653.434	-4.15
653.467	11.85
653.5	7.85
653.533	8.85
653.566	-2.15
653.599	17.85
653.632	18.85
653.665	11.85
653.698	-6.15
653.731	-12.15
653.764	18.85
653.797	12.85
653.83	12.85
653.863	17.85
653.896	19.85
653.929	24.85
653.961	17.85
653.994	5.85
654.027	-2.15
654.06	6.85
654.093	6.85
654.126	17.85
654.159	18.85
654.192	11.85
654.225	0.85
654.258	-2.15
654.29	-5.15
654.323	9.85
654.356	3.85
654.389	4.85
654.422	10.85
654.455	31.85
654.488	6.85
654.521	7.85
654.553	-0.15
654.586	27.85
654.619	21.85
654.652	5.85
654.685	22.85
654.718	27.85
654.751	10.85
654.783	16.85
654.816	16.85
654.849	12.85
654.882	15.85
654.915	5.85
654.948	14.85
654.98	7.85
655.013	7.85
655.046	2.85
655.079	-0.15
655.112	12.85
655.144	-1.15
655.177	12.85
655.21	37.85
655.243	36.85
655.276	17.85
655.308	23.85
655.341	-3.15
655.374	31.85
655.407	8.85
655.44	9.85
655.472	8.85
655.505	26.85
655.538	23.85
655.571	35.85
655.603	14.85
655.636	1.85
655.669	13.85
655.702	21.85
655.734	2.85
655.767	11.85
655.8	15.85
655.833	20.85
655.865	31.85
655.898	14.85
655.931	16.85
655.964	29.85
655.996	43.85
656.029	49.85
656.062	43.85
656.095	73.85
656.127	99.85
656.16	237.85
656.193	639.85
656.225	942.85
656.258	548.85
656.291	203.85
656.324	173.85
656.356	363.85
656.389	775.85
656.422	665.85
656.454	239.85
656.487	70.85
656.52	31.85
656.552	16.85
656.585	12.85
656.618	33.85
656.65	34.85
656.683	-11.15
656.716	22.85
656.748	22.85
656.781	14.85
656.814	7.85
656.846	12.85
656.879	3.85
656.912	7.85
656.944	7.85
656.977	-8.15
657.01	5.85
657.042	3.85
657.075	18.85
657.108	2.85
657.14	16.85
657.173	22.85
657.205	18.85
657.238	10.85
657.271	20.85
657.303	-7.15
657.336	13.85
657.369	6.85
657.401	6.85
657.434	9.85
657.466	14.85
657.499	17.85
657.532	7.85
657.564	-0.15
657.597	2.85
657.629	5.85
657.662	20.85
657.694	5.85
657.727	-1.15
657.76	9.85
657.792	7.85
657.825	-5.15
657.857	14.85
657.89	5.85
657.922	17.85
657.955	1.85
657.987	7.85
658.02	28.85
658.053	16.85
658.085	21.85
658.118	27.85
658.15	32.85
658.183	31.85
658.215	8.85
658.248	15.85
658.28	7.85
658.313	12.85
658.345	21.85
658.378	-0.15
658.41	8.85
658.443	31.85
658.475	6.85
658.508	2.85
658.54	16.85
658.573	7.85
658.605	3.85
658.638	-4.15
658.67	-2.15
658.703	0.85
658.735	-12.15
658.768	18.85
658.8	-5.15
658.833	9.85
658.865	19.85
658.898	3.85
658.93	-0.15
658.963	-5.15
658.995	9.85
659.028	16.85
659.06	-3.15
659.092	2.85
659.125	6.85
659.157	11.85
659.19	4.85
659.222	-0.15
659.255	-5.15
659.287	12.85
659.32	12.85
659.352	14.85
659.384	21.85
659.417	-3.15
659.449	8.85
659.482	12.85
659.514	-2.15
659.546	11.85
659.579	-1.15
659.611	-3.15
659.644	2.85
659.676	-0.15
659.708	-6.15
659.741	-0.15
659.773	-5.15
659.806	1.85
659.838	3.85
659.87	-1.15
659.903	7.85
659.935	7.85
659.967	21.85
660	9.85
660.032	-16.15
660.065	15.85
660.097	-0.15
660.129	8.85
660.162	-1.15
660.194	21.85
660.226	9.85
660.259	31.85
660.291	19.85
660.323	3.85
660.356	14.85
660.388	-3.15
660.42	3.85
660.453	28.85
660.485	-5.15
660.517	18.85
660.55	18.85
660.582	10.85
660.614	20.85
660.647	9.85
660.679	-18.15
660.711	3.85
660.743	-11.15
660.776	-6.15
660.808	-1.15
660.84	1.85
660.873	1.85
660.905	-4.15
660.937	-5.15
660.969	5.85
661.002	-7.15
661.034	9.85
661.066	4.85
661.099	5.85
661.131	25.85
661.163	6.85
661.195	9.85
661.228	25.85
661.26	3.85
661.292	1.85
661.324	5.85
661.357	14.85
661.389	-0.15
661.421	8.85
661.453	-0.15
661.485	14.85
661.518	13.85
661.55	-3.15
661.582	1.85
661.614	-3.15
661.647	22.85
661.679	26.85
661.711	16.85
661.743	-8.15
661.775	4.85
661.808	20.85
661.84	-10.15
661.872	19.85
661.904	7.85
661.936	1.85
661.969	9.85
662.001	3.85
662.033	10.85
662.065	0.85
662.097	26.85
662.129	1.85
662.162	-4.15
662.194	11.85
662.226	-3.15
662.258	9.85
662.29	10.85
662.322	-0.15
662.355	-1.15
662.387	28.85
662.419	12.85
662.451	5.85
662.483	13.85
662.515	7.85
662.547	3.85
662.58	-2.15
662.612	14.85
662.644	-12.15
662.676	4.85
662.708	21.85
662.74	12.85
662.772	12.85
662.804	5.85
662.836	12.85
662.869	4.85
662.901	14.85
662.933	-4.15
662.965	27.85
662.997	30.85
663.029	-9.15
663.061	-0.15
663.093	12.85
663.125	20.85
663.157	-8.15
663.189	-2.15
663.221	10.85
663.254	-4.15
663.286	19.85
663.318	11.85
663.35	6.85
663.382	-4.15
663.414	13.85
663.446	-1.15
663.478	5.85
663.51	23.85
663.542	1.85
663.574	-4.15
663.606	13.85
663.638	-16.15
663.67	2.85
663.702	5.85
663.734	6.85
663.766	10.85
663.798	6.85
663.83	1.85
663.862	11.85
663.894	30.85
663.926	10.85
663.958	18.85
663.99	-7.15
664.022	11.85
664.054	27.85
664.086	17.85
664.118	1.85
664.15	-7.15
664.182	13.85
664.214	10.85
664.246	5.85
664.278	8.85
664.31	20.85
664.342	6.85
664.374	23.85
664.406	12.85
664.438	-11.15
664.47	20.85
664.502	10.85
664.534	3.85
664.566	-3.15
664.598	12.85
664.63	20.85
664.662	19.85
664.693	1.85
664.725	-12.15
664.757	-7.15
664.789	-9.15
664.821	-10.15
664.853	20.85
664.885	12.85
664.917	-2.15
664.949	8.85
664.981	14.85
665.013	4.85
665.045	-8.15
665.076	3.85
665.108	2.85
665.14	12.85
665.172	13.85
665.204	5.85
665.236	-2.15
665.268	11.85
665.3	8.85
665.331	-4.15
665.363	23.85
665.395	-13.15
665.427	-12.15
665.459	5.85
665.491	8.85
665.523	6.85
665.555	-10.15
665.586	0.85
665.618	5.85
665.65	1.85
665.682	11.85
665.714	14.85
665.746	-0.15
665.777	10.85
665.809	13.85
665.841	11.85
665.873	-0.15
665.905	11.85
665.937	12.85
665.968	18.85
666	17.85
666.032	9.85
666.064	-2.15
666.096	0.85
666.127	11.85
666.159	12.85
666.191	17.85
666.223	5.85
666.255	6.85
666.286	21.85
666.318	5.85
666.35	23.85
666.382	-2.15
666.413	-16.15
666.445	-14.15
666.477	-11.15
666.509	2.85
666.54	3.85
666.572	9.85
666.604	15.85
666.636	14.85
666.667	22.85
666.699	20.85
666.731	10.85
666.763	4.85
666.794	12.85
666.826	12.85
666.858	-4.15
666.89	13.85
666.921	-2.15
666.953	0.85
666.985	23.85
667.017	42.85
667.048	14.85
667.08	-7.15
667.112	2.85
667.143	-2.15
667.175	3.85
667.207	31.85
667.238	18.85
667.27	13.85
667.302	1.85
667.334	4.85
667.365	23.85
667.397	9.85
667.429	1.85
667.46	29.85
667.492	14.85
667.524	8.85
667.555	-9.15
667.587	8.85
667.619	-0.15
667.65	-5.15
667.682	13.85
667.714	3.85
667.745	16.85
667.777	21.85
667.808	17.85
667.84	21.85
667.872	13.85
667.903	37.85
667.935	24.85
667.967	19.85
667.998	8.85
668.03	2.85
668.061	24.85
668.093	21.85
668.125	21.85
668.156	16.85
668.188	11.85
668.22	-2.15
668.251	18.85
668.283	20.85
668.314	0.85
668.346	-11.15
668.377	-2.15
668.409	12.85
668.441	15.85
668.472	17.85
668.504	13.85
668.535	6.85
668.567	14.85
668.599	6.85
668.63	-8.15
668.662	-8.15
668.693	14.85
668.725	12.85
668.756	10.85
668.788	2.85
668.819	-0.15
668.851	17.85
668.882	0.85
668.914	16.85
668.946	12.85
668.977	-1.15
669.009	-3.15
669.04	-5.15
669.072	1.85
669.103	16.85
669.135	14.85
669.166	1.85
669.198	4.85
669.229	16.85
669.261	12.85
669.292	5.85
669.324	-3.15
669.355	-0.15
669.387	2.85
669.418	25.85
669.45	8.85
669.481	9.85
669.513	16.85
669.544	16.85
669.576	6.85
669.607	14.85
669.639	16.85
669.67	-10.15
669.701	21.85
669.733	-15.15
669.764	9.85
669.796	1.85
669.827	6.85
669.859	3.85
669.89	19.85
669.922	12.85
669.953	11.85
669.985	6.85
670.016	24.85
670.047	6.85
670.079	20.85
670.11	19.85
670.142	11.85
670.173	10.85
670.204	-6.15
670.236	8.85
670.267	-2.15
670.299	2.85
670.33	13.85
670.362	15.85
670.393	4.85
670.424	21.85
670.456	-17.15
670.487	-3.15
670.518	13.85
670.55	18.85
670.581	20.85
670.613	16.85
670.644	5.85
670.675	-4.15
670.707	8.85
670.738	2.85
670.769	6.85
670.801	-3.15
670.832	7.85
670.864	3.85
670.895	15.85
670.926	10.85
670.958	-1.15
670.989	7.85
671.02	-7.15
671.052	11.85
671.083	7.85
671.114	-1.15
671.146	6.85
671.177	20.85
671.208	-7.15
671.24	-25.15
671.271	-8.15
671.302	20.85
671.333	-6.15
671.365	13.85
671.396	7.85
671.427	-8.15
671.459	3.85
671.49	8.85
671.521	8.85
671.553	13.85
671.584	12.85
671.615	-1.15
671.646	17.85
671.678	19.85
671.709	6.85
671.74	-3.15
671.771	-8.15
671.803	1.85
671.834	8.85
671.865	16.85
671.896	12.85
671.928	5.85
671.959	-4.15
671.99	9.85
672.021	5.85
672.053	7.85
672.084	21.85
672.115	8.85
672.146	3.85
672.178	4.85
672.209	-5.15
672.24	-11.15
672.271	25.85
672.303	25.85
672.334	16.85
672.365	14.85
672.396	13.85
672.427	14.85
672.459	15.85
672.49	33.85
672.521	11.85
672.552	23.85
672.583	4.85
672.615	2.85
672.646	16.85
672.677	-1.15
672.708	-8.15
672.739	3.85
672.77	18.85
672.802	10.85
672.833	11.85
672.864	6.85
672.895	2.85
672.926	15.85
672.957	7.85
672.989	17.85
673.02	22.85
673.051	-5.15
673.082	19.85
673.113	6.85
673.144	20.85
673.175	7.85
673.206	8.85
673.238	3.85
673.269	2.85
673.3	4.85
673.331	18.85
673.362	15.85
673.393	6.85
673.424	3.85
673.455	25.85
673.487	19.85
673.518	25.85
673.549	1.85
673.58	18.85
673.611	5.85
673.642	17.85
673.673	-8.15
673.704	-4.15
673.735	14.85
673.766	12.85
673.797	4.85
673.828	10.85
673.86	-10.15
673.891	1.85
673.922	-0.15
673.953	-3.15
673.984	30.85
674.015	14.85
674.046	15.85
674.077	7.85
674.108	4.85
674.139	9.85
674.17	1.85
674.201	-9.15
674.232	-0.15
674.263	0.85
674.294	15.85
674.325	-2.15
674.356	15.85
674.387	24.85
674.418	2.85
674.449	6.85
674.48	-3.15
674.511	1.85
674.542	13.85
674.573	-17.15
674.604	17.85
674.635	-0.15
674.666	5.85
674.697	17.85
674.728	19.85
674.759	9.85
674.79	0.85
674.821	8.85
674.852	13.85
674.883	3.85
674.914	13.85
674.945	1.85
674.976	17.85
675.007	11.85
675.038	9.85
675.069	9.85
675.1	0.85
675.131	-4.15
675.162	-1.15
675.193	13.85
675.224	19.85
675.254	15.85
675.285	2.85
675.316	14.85
675.347	18.85
675.378	-1.15
675.409	-1.15
675.44	16.85
675.471	6.85
675.502	7.85
675.533	12.85
675.564	11.85
675.595	3.85
675.625	32.85
675.656	13.85
675.687	15.85
675.718	-14.15
675.749	22.85
675.78	16.85
675.811	14.85
675.842	12.85
675.873	4.85
675.903	-0.15
675.934	8.85
675.965	11.85
675.996	-1.15
676.027	8.85
676.058	9.85
676.089	2.85
676.119	33.85
676.15	2.85
676.181	1.85
676.212	7.85
676.243	20.85
676.274	-11.15
676.304	19.85
676.335	4.85
676.366	10.85
676.397	9.85
676.428	15.85
676.459	20.85
676.489	25.85
676.52	22.85
676.551	24.85
676.582	4.85
676.613	20.85
676.643	7.85
676.674	30.85
676.705	11.85
676.736	5.85
676.767	18.85
676.797	8.85
676.828	19.85
676.859	13.85
676.89	-0.15
676.92	11.85
676.951	13.85
676.982	0.85
677.013	12.85
677.044	5.85
677.074	6.85
677.105	4.85
677.136	18.85
677.167	-5.15
677.197	20.85
677.228	13.85
677.259	-0.15
677.289	8.85
677.32	-3.15
677.351	0.85
677.382	-0.15
677.412	7.85
677.443	20.85
677.474	9.85
677.505	-4.15
677.535	-1.15
677.566	-0.15
677.597	-12.15
677.627	-6.15
677.658	8.85
677.689	10.85
677.72	6.85
677.75	7.85
677.781	-7.15
677.812	3.85
677.842	10.85
677.873	5.85
677.904	-3.15
677.934	20.85
677.965	3.85
677.996	-5.15
678.026	2.85
678.057	11.85
678.088	-2.15
678.118	8.85
678.149	3.85
678.18	13.85
678.21	15.85
678.241	13.85
678.272	-0.15
678.302	14.85
678.333	10.85
678.363	7.85
678.394	12.85
678.425	3.85
678.455	10.85
678.486	28.85
678.517	6.85
678.547	14.85
678.578	0.85
678.608	-28.15
678.639	-5.15
678.67	9.85
678.7	2.85
678.731	0.85
678.761	13.85
678.792	15.85
678.823	15.85
678.853	8.85
678.884	-2.15
678.914	12.85
678.945	11.85
678.975	-7.15
679.006	13.85
679.037	1.85
679.067	23.85
679.098	5.85
679.128	-0.15
679.159	4.85
679.189	17.85
679.22	-2.15
679.25	16.85
679.281	-3.15
679.312	13.85
679.342	11.85
679.373	31.85
679.403	10.85
679.434	16.85
679.464	3.85
679.495	-12.15
679.525	1.85
679.556	-0.15
679.586	37.85
679.617	21.85
679.647	14.85
679.678	0.85
679.708	3.85
679.739	4.85
679.769	-0.15
679.8	2.85
679.83	6.85
679.861	22.85
679.891	6.85
679.922	-6.15
679.952	4.85
679.983	13.85
680.013	5.85
680.044	-2.15
680.074	19.85
680.105	17.85
680.135	23.85
680.165	9.85
680.196	15.85
680.226	14.85
680.257	8.85
680.287	-1.15
680.318	1.85
680.348	-2.15
680.379	16.85
680.409	5.85
680.439	-0.15
680.47	-8.15
680.5	-1.15
680.531	-1.15
680.561	0.85
680.592	9.85
680.622	25.85
680.652	22.85
680.683	14.85
680.713	2.85
680.744	9.85
680.774	8.85
680.804	27.85
680.835	19.85
680.865	-8.15
680.896	30.85
680.926	2.85
680.956	6.85
680.987	11.85
681.017	11.85
681.047	8.85
681.078	-2.15
681.108	12.85
681.139	0.85
681.169	2.85
681.199	9.85
681.23	3.85
681.26	4.85
681.29	7.85
681.321	1.85
681.351	5.85
681.381	-6.15
681.412	11.85
681.442	14.85
681.472	9.85
681.503	14.85
681.533	11.85
681.563	6.85
681.594	5.85
681.624	12.85
681.654	-8.15
681.685	-11.15
681.715	12.85
681.745	10.85
681.775	-12.15
681.806	5.85
681.836	16.85
681.866	10.85
681.897	4.85
681.927	3.85
681.957	0.85
681.987	-8.15
682.018	4.85
682.048	14.85
682.078	9.85
682.109	27.85
682.139	33.85
682.169	22.85
682.199	9.85
682.23	6.85
682.26	12.85
682.29	0.85
682.32	3.85
682.351	2.85
682.381	-5.15
682.411	7.85
682.441	-4.15
682.472	3.85
682.502	16.85
682.532	12.85
682.562	8.85
682.592	24.85
682.623	11.85
682.653	-2.15
682.683	10.85
682.713	19.85
682.743	14.85
682.774	-4.15
682.804	8.85
682.834	24.85
682.864	-5.15
682.894	17.85
682.925	15.85
682.955	2.85
682.985	4.85
683.015	14.85
683.045	7.85
683.076	-0.15
683.106	-7.15
683.136	4.85
683.166	-14.15
683.196	-11.15
683.226	9.85
683.257	6.85
683.287	14.85
683.317	10.85
683.347	-4.15
683.377	10.85
683.407	7.85
683.437	24.85
683.468	25.85
683.498	3.85
683.528	12.85
683.558	10.85
683.588	0.85
683.618	2.85
683.648	1.85
683.678	24.85
683.708	17.85
683.739	14.85
683.769	12.85
683.799	1.85
683.829	-2.15
683.859	12.85
683.889	16.85
683.919	-0.15
683.949	17.85
683.979	1.85
684.009	-2.15
684.039	14.85
684.07	6.85
684.1	36.85
684.13	6.85
684.16	11.85
684.19	0.85
684.22	5.85
684.25	12.85
684.28	-9.15
684.31	25.85
684.34	22.85
684.37	2.85
684.4	-4.15
684.43	2.85
684.46	8.85
684.49	14.85
684.52	30.85
684.55	15.85
684.58	8.85
684.61	18.85
684.64	18.85
684.67	16.85
684.7	13.85
684.73	2.85
684.76	4.85
684.79	14.85
684.82	14.85
684.85	-9.15
684.88	22.85
684.91	16.85
684.94	13.85
684.97	-1.15
685	10.85
685.03	4.85
685.06	9.85
685.09	11.85
685.12	34.85
685.15	6.85
685.18	5.85
685.21	9.85
685.24	31.85
685.27	41.85
685.3	13.85
685.33	16.85
685.36	15.85
685.39	23.85
685.42	1.85
685.45	20.85
685.48	22.85
685.51	7.85
685.54	9.85
685.569	21.85
685.599	19.85
685.629	12.85
685.659	18.85
685.689	1.85
685.719	17.85
685.749	2.85
685.779	13.85
685.809	17.85
685.839	24.85
685.869	11.85
685.898	26.85
685.928	16.85
685.958	14.85
685.988	22.85
686.018	11.85
686.048	16.85
686.078	19.85
686.108	22.85
686.137	20.85
686.167	7.85
686.197	5.85
686.227	15.85
686.257	34.85
686.287	23.85
686.317	11.85
686.346	7.85
686.376	8.85
686.406	3.85
686.436	8.85
686.466	3.85
686.496	16.85
686.525	5.85
686.555	6.85
686.585	19.85
686.615	32.85
686.645	17.85
686.675	4.85
686.704	13.85
686.734	23.85
686.764	4.85
686.794	5.85
686.824	15.85
686.853	15.85
686.883	18.85
686.913	21.85
686.943	7.85
686.973	-11.15
687.002	14.85
687.032	14.85
687.062	5.85
687.092	31.85
687.121	2.85
687.151	-10.15
687.181	0.85
687.211	7.85
687.24	12.85
687.27	-13.15
687.3	-2.15
687.33	16.85
687.359	-4.15
687.389	8.85
687.419	-2.15
687.449	0.85
687.478	33.85
687.508	1.85
687.538	10.85
687.568	21.85
687.597	-4.15
687.627	17.85
687.657	3.85
687.686	13.85
687.716	18.85
687.746	-10.15
687.776	-14.15
687.805	6.85
687.835	-1.15
687.865	10.85
687.894	20.85
687.924	14.85
687.954	10.85
687.983	6.85
688.013	19.85
688.043	15.85
688.072	2.85
688.102	16.85
688.132	9.85
688.161	11.85
688.191	-0.15
688.221	28.85
688.25	-1.15
688.28	17.85
688.31	8.85
688.339	10.85
688.369	12.85
688.399	0.85
688.428	3.85
688.458	13.85
688.488	2.85
688.517	23.85
688.547	3.85
688.576	25.85
688.606	9.85
688.636	7.85
688.665	21.85
688.695	20.85
688.725	14.85
688.754	20.85
688.784	15.85
688.813	22.85
688.843	7.85
688.873	-6.15
688.902	-0.15
688.932	1.85
688.961	5.85
688.991	16.85
689.02	20.85
689.05	-2.15
689.08	12.85
689.109	14.85
689.139	5.85
689.168	6.85
689.198	-3.15
689.227	11.85
689.257	12.85
689.287	13.85
689.316	8.85
689.346	-5.15
689.375	-4.15
689.405	-1.15
689.434	-0.15
689.464	10.85
689.493	-5.15
689.523	11.85
689.552	2.85
689.582	2.85
689.611	0.85
689.641	14.85
689.67	15.85
689.7	7.85
689.73	19.85
689.759	13.85
689.789	27.85
689.818	13.85
689.848	12.85
689.877	19.85
689.906	3.85
689.936	5.85
689.965	20.85
689.995	22.85
690.024	15.85
690.054	3.85
690.083	7.85
690.113	-9.15
690.142	12.85
690.172	14.85
690.201	15.85
690.231	11.85
690.26	-3.15
690.29	16.85
690.319	26.85
690.348	18.85
690.378	20.85
690.407	3.85
690.437	-3.15
690.466	13.85
690.496	2.85
690.525	23.85
690.555	16.85
690.584	1.85
690.613	11.85
690.643	12.85
690.672	29.85
690.702	9.85
690.731	14.85
690.76	15.85
690.79	-1.15
690.819	-7.15
690.849	-0.15
690.878	14.85
690.907	14.85
690.937	25.85
690.966	24.85
690.996	8.85
691.025	6.85
691.054	0.85
691.084	11.85
691.113	8.85
691.142	10.85
691.172	14.85
691.201	20.85
691.23	11.85
691.26	29.85
691.289	17.85
691.319	2.85
691.348	5.85
691.377	53.85
691.407	18.85
691.436	14.85
691.465	13.85
691.495	2.85
691.524	0.85
691.553	4.85
691.583	0.85
691.612	33.85
691.641	16.85
691.67	8.85
691.7	14.85
691.729	3.85
691.758	9.85
691.788	5.85
691.817	-8.15
691.846	-9.15
691.876	10.85
691.905	7.85
691.934	9.85
691.963	32.85
691.993	0.85
692.022	-1.15
692.051	4.85
692.081	-0.15
692.11	21.85
692.139	-0.15
692.168	11.85
692.198	20.85
692.227	24.85
692.256	2.85
692.285	11.85
692.315	5.85
692.344	9.85
692.373	26.85
692.402	-10.15
692.432	16.85
692.461	7.85
692.49	6.85
692.519	-2.15
692.548	13.85
692.578	23.85
692.607	5.85
692.636	0.85
692.665	10.85
692.694	2.85
692.724	15.85
692.753	13.85
692.782	20.85
692.811	-5.15
692.84	11.85
692.87	8.85
692.899	10.85
692.928	5.85
692.957	17.85
692.986	22.85
693.016	17.85
693.045	14.85
693.074	20.85
693.103	9.85
693.132	15.85
693.161	9.85
693.191	-1.15
693.22	-9.15
693.249	6.85
693.278	8.85
693.307	26.85
693.336	-3.15
693.365	-10.15
693.395	-4.15
693.424	18.85
693.453	20.85
693.482	8.85
693.511	20.85
693.54	19.85
693.569	24.85
693.598	17.85
693.628	22.85
693.657	32.85
693.686	30.85
693.715	31.85
693.744	30.85
693.773	37.85
693.802	5.85
693.831	-1.15
693.86	40.85
693.889	7.85
693.919	5.85
693.948	-3.15
693.977	14.85
694.006	8.85
694.035	2.85
694.064	4.85
694.093	9.85
694.122	18.85
694.151	12.85
694.18	11.85
694.209	30.85
694.238	7.85
694.267	31.85
694.296	29.85
694.325	29.85
694.354	24.85
694.383	18.85
694.412	12.85
694.441	-5.15
694.471	-7.15
694.5	-10.15
694.529	18.85
694.558	30.85
694.587	12.85
694.616	2.85
694.645	8.85
694.674	23.85
694.703	18.85
694.732	16.85
694.761	24.85
694.79	17.85
694.819	-5.15
694.848	6.85
694.877	30.85
694.906	38.85
694.935	11.85
694.963	28.85
694.992	17.85
695.021	18.85
695.05	5.85
695.079	11.85
695.108	11.85
695.137	37.85
695.166	11.85
695.195	5.85
695.224	23.85
695.253	12.85
695.282	4.85
695.311	10.85
695.34	2.85
695.369	13.85
695.398	14.85
695.427	16.85
695.456	24.85
695.485	23.85
695.513	3.85
695.542	12.85
695.571	26.85
695.6	35.85
695.629	14.85
695.658	15.85
695.687	7.85
695.716	7.85
695.745	35.85
695.774	1.85
695.802	10.85
695.831	10.85
695.86	10.85
695.889	20.85
695.918	19.85
695.947	19.85
695.976	11.85
696.005	9.85
696.033	15.85
696.062	29.85
696.091	11.85
696.12	14.85
696.149	14.85
696.178	2.85
696.207	6.85
696.235	2.85
696.264	24.85
696.293	21.85
696.322	13.85
696.351	29.85
696.38	-7.15
696.408	3.85
696.437	0.85
696.466	10.85
696.495	23.85
696.524	23.85
696.553	7.85
696.581	18.85
696.61	0.85
696.639	-1.15
696.668	7.85
696.697	10.85
696.725	17.85
696.754	10.85
696.783	-0.15
696.812	0.85
696.84	9.85
696.869	10.85
696.898	0.85
696.927	11.85
696.956	26.85
696.984	1.85
697.013	12.85
697.042	2.85
697.071	21.85
697.099	27.85
697.128	19.85
697.157	9.85
697.186	7.85
697.214	5.85
697.243	14.85
697.272	20.85
697.301	15.85
697.329	15.85
697.358	13.85
697.387	29.85
697.415	6.85
697.444	10.85
697.473	14.85
697.502	-5.15
697.53	22.85
697.559	4.85
697.588	10.85
697.616	12.85
697.645	7.85
697.674	22.85
697.703	18.85
697.731	17.85
697.76	16.85
697.789	2.85
697.817	9.85
697.846	28.85
697.875	12.85
697.903	42.85
697.932	9.85
697.961	-1.15
697.989	10.85
698.018	11.85
698.047	3.85
698.075	22.85
698.104	3.85
698.133	5.85
698.161	3.85
698.19	1.85
698.218	9.85
698.247	8.85
698.276	8.85
698.304	13.85
698.333	11.85
698.362	6.85
698.39	3.85
698.419	2.85
698.447	-3.15
698.476	3.85
698.505	15.85
698.533	9.85
698.562	21.85
698.591	7.85
698.619	-5.15
698.648	23.85
698.676	24.85
698.705	5.85
698.733	-2.15
698.762	12.85
698.791	3.85
698.819	12.85
698.848	1.85
698.876	36.85
698.905	13.85
698.933	19.85
698.962	18.85
698.991	8.85
699.019	30.85
699.048	9.85
699.076	-3.15
699.105	-5.15
699.133	17.85
699.162	28.85
699.19	19.85
699.219	25.85
699.248	-0.15
699.276	-1.15
699.305	-5.15
699.333	24.85
699.362	10.85
699.39	19.85
699.419	-9.15
699.447	22.85
699.476	23.85
699.504	12.85
699.533	20.85
699.561	14.85
699.59	20.85
699.618	16.85
699.647	23.85
699.675	20.85
699.704	24.85
699.732	15.85
699.761	33.85
699.789	19.85
699.818	19.85
699.846	3.85
699.874	17.85
699.903	28.85
699.931	12.85
699.96	5.85
699.988	26.85
700.017	9.85
700.045	14.85
700.074	2.85
700.102	0.85
700.13	8.85
700.159	18.85
700.187	17.85
700.216	9.85
700.244	-1.15
700.273	5.85
700.301	10.85
700.329	23.85
700.358	22.85
700.386	5.85
700.415	24.85
700.443	22.85
700.472	-0.15
700.5	10.85
700.528	17.85
700.557	10.85
700.585	9.85
700.614	4.85
700.642	22.85
700.67	23.85
700.699	26.85
700.727	18.85
700.755	9.85
700.784	0.85
700.812	6.85
700.841	12.85
700.869	7.85
700.897	-0.15
700.926	10.85
700.954	8.85
700.982	12.85
701.011	3.85
701.039	12.85
701.067	22.85
701.096	14.85
701.124	3.85
701.152	9.85
701.181	0.85
701.209	-2.15
701.237	27.85
701.266	0.85
701.294	-9.15
701.322	11.85
701.351	14.85
701.379	13.85
701.407	15.85
701.435	18.85
701.464	25.85
701.492	27.85
701.52	7.85
701.549	0.85
701.577	-12.15
701.605	2.85
701.634	11.85
701.662	22.85
701.69	6.85
701.718	-10.15
701.747	30.85
701.775	13.85
701.803	6.85
701.831	26.85
701.86	8.85
701.888	11.85
701.916	8.85
701.944	16.85
701.973	5.85
702.001	-10.15
702.029	10.85
702.057	2.85
702.086	2.85
702.114	8.85
702.142	12.85
702.17	7.85
702.199	16.85
702.227	3.85
702.255	5.85
702.283	15.85
702.311	19.85
702.34	-0.15
702.368	-0.15
702.396	8.85
702.424	4.85
702.452	10.85
702.481	6.85
702.509	8.85
702.537	23.85
702.565	20.85
702.593	-1.15
702.621	2.85
702.65	32.85
702.678	29.85
702.706	31.85
702.734	5.85
702.762	29.85
702.79	5.85
702.819	24.85
702.847	22.85
702.875	26.85
702.903	27.85
702.931	-2.15
702.959	15.85
702.988	27.85
703.016	10.85
703.044	8.85
703.072	7.85
703.1	-2.15
703.128	14.85
703.156	12.85
703.184	16.85
703.212	10.85
703.241	8.85
703.269	15.85
703.297	16.85
703.325	7.85
703.353	-3.15
703.381	11.85
703.409	21.85
703.437	4.85
703.465	10.85
703.493	8.85
703.522	11.85
703.55	6.85
703.578	8.85
703.606	4.85
703.634	7.85
703.662	10.85
703.69	15.85
703.718	-4.15
703.746	21.85
703.774	6.85
703.802	21.85
703.83	12.85
703.858	14.85
703.886	6.85
703.914	0.85
703.942	18.85
703.97	4.85
703.998	0.85
704.027	30.85
704.055	25.85
704.083	7.85
704.111	9.85
704.139	12.85
704.167	12.85
704.195	22.85
704.223	5.85
704.251	7.85
704.279	31.85
704.307	29.85
704.335	-11.15
704.363	12.85
704.391	16.85
704.419	-2.15
704.447	16.85
704.475	6.85
704.503	8.85
704.531	16.85
704.558	11.85
704.586	5.85
704.614	0.85
704.642	8.85
704.67	-10.15
704.698	-2.15
704.726	3.85
704.754	17.85
704.782	-4.15
704.81	8.85
704.838	20.85
704.866	8.85
704.894	6.85
704.922	-0.15
704.95	10.85
704.978	12.85
705.006	11.85
705.034	26.85
705.061	14.85
705.089	-2.15
705.117	16.85
705.145	19.85
705.173	2.85
705.201	10.85
705.229	15.85
705.257	13.85
705.285	9.85
705.313	13.85
705.34	6.85
705.368	3.85
705.396	17.85
705.424	6.85
705.452	5.85
705.48	16.85
705.508	11.85
705.536	4.85
705.563	10.85
705.591	24.85
705.619	8.85
705.647	11.85
705.675	19.85
705.703	14.85
705.731	8.85
705.758	16.85
705.786	13.85
705.814	27.85
705.842	19.85
705.87	6.85
705.898	21.85
705.925	0.85
705.953	6.85
705.981	4.85
706.009	16.85
706.037	5.85
706.065	-6.15
706.092	-7.15
706.12	15.85
706.148	17.85
706.176	5.85
706.204	12.85
706.231	0.85
706.259	-0.15
706.287	13.85
706.315	20.85
706.342	33.85
706.37	14.85
706.398	18.85
706.426	8.85
706.454	8.85
706.481	18.85
706.509	5.85
706.537	5.85
706.565	1.85
706.592	13.85
706.62	19.85
706.648	19.85
706.676	-5.15
706.703	17.85
706.731	18.85
706.759	-0.15
706.787	18.85
706.814	9.85
706.842	6.85
706.87	16.85
706.897	6.85
706.925	-1.15
706.953	11.85
706.981	34.85
707.008	27.85
707.036	9.85
707.064	-6.15
707.091	3.85
707.119	21.85
707.147	26.85
707.174	8.85
707.202	42.85
707.23	21.85
707.258	18.85
707.285	-12.15
707.313	8.85
707.341	3.85
707.368	6.85
707.396	16.85
707.424	30.85
707.451	22.85
707.479	11.85
707.507	7.85
707.534	16.85
707.562	16.85
707.59	1.85
707.617	15.85
707.645	15.85
707.672	5.85
707.7	-3.15
707.728	10.85
707.755	11.85
707.783	-2.15
707.811	18.85
707.838	1.85
707.866	7.85
707.893	1.85
707.921	10.85
707.949	-4.15
707.976	16.85
708.004	3.85
708.031	-11.15
708.059	7.85
708.087	15.85
708.114	11.85
708.142	-0.15
708.169	7.85
708.197	9.85
708.225	2.85
708.252	4.85
708.28	16.85
708.307	11.85
708.335	7.85
708.362	19.85
708.39	8.85
708.418	6.85
708.445	-9.15
708.473	8.85
708.5	3.85
708.528	22.85
708.555	12.85
708.583	15.85
708.61	2.85
708.638	9.85
708.665	-6.15
708.693	13.85
708.72	10.85
708.748	12.85
708.776	2.85
708.803	4.85
708.831	19.85
708.858	26.85
708.886	7.85
708.913	19.85
708.941	6.85
708.968	11.85
708.996	9.85
709.023	33.85
709.051	19.85
709.078	3.85
709.105	3.85
709.133	-4.15
709.16	7.85
709.188	15.85
709.215	16.85
709.243	6.85
709.27	4.85
709.298	10.85
709.325	11.85
709.353	11.85
709.38	0.85
709.408	6.85
709.435	14.85
709.462	9.85
709.49	5.85
709.517	13.85
709.545	7.85
709.572	10.85
709.6	13.85
709.627	3.85
709.655	-10.15
709.682	-6.15
709.709	0.85
709.737	-0.15
709.764	4.85
709.792	12.85
709.819	-5.15
709.846	9.85
709.874	6.85
709.901	29.85
709.929	13.85
709.956	12.85
709.983	5.85
710.011	12.85
710.038	11.85
710.066	4.85
710.093	15.85
710.12	12.85
710.148	3.85
710.175	-12.15
710.202	-12.15
710.23	-1.15
710.257	11.85
710.284	17.85
710.312	7.85
710.339	12.85
710.366	3.85
710.394	8.85
710.421	0.85
710.448	2.85
710.476	-10.15
710.503	7.85
710.53	13.85
710.558	13.85
710.585	12.85
710.612	20.85
710.64	5.85
710.667	-13.15
710.694	17.85
710.722	11.85
710.749	8.85
710.776	6.85
710.804	31.85
710.831	13.85
710.858	6.85
710.885	10.85
710.913	9.85
710.94	30.85
710.967	14.85
710.995	14.85
711.022	6.85
711.049	8.85
711.076	7.85
711.104	-0.15
711.131	2.85
711.158	-3.15
711.185	22.85
711.213	-0.15
711.24	-4.15
711.267	0.85
711.294	11.85
711.322	7.85
711.349	-13.15
711.376	3.85
711.403	7.85
711.431	-1.15
711.458	12.85
711.485	14.85
711.512	4.85
711.54	-0.15
711.567	25.85
711.594	12.85
711.621	17.85
711.648	12.85
711.676	18.85
711.703	12.85
711.73	-2.15
711.757	-1.15
711.784	0.85
711.812	3.85
711.839	2.85
711.866	-14.15
711.893	2.85
711.92	23.85
711.947	11.85
711.975	5.85
712.002	10.85
712.029	15.85
712.056	18.85
712.083	14.85
712.11	-5.15
712.138	11.85
712.165	13.85
712.192	-0.15
712.219	8.85
712.246	19.85
712.273	15.85
712.3	-15.15
712.328	12.85
712.355	11.85
712.382	-0.15
712.409	18.85
712.436	-8.15
712.463	8.85
712.49	34.85
712.517	18.85
712.544	8.85
712.572	12.85
712.599	8.85
712.626	4.85
712.653	1.85
712.68	7.85
712.707	7.85
712.734	20.85
712.761	7.85
712.788	0.85
712.815	16.85
712.842	17.85
712.87	4.85
712.897	-1.15
712.924	3.85
712.951	17.85
712.978	33.85
713.005	8.85
713.032	16.85
713.059	13.85
713.086	7.85
713.113	11.85
713.14	4.85
713.167	10.85
713.194	13.85
713.221	12.85
713.248	19.85
713.275	12.85
713.302	16.85
713.329	24.85
713.356	27.85
713.383	13.85
713.41	20.85
713.437	-8.15
713.464	6.85
713.491	18.85
713.518	6.85
713.545	-7.15
713.572	7.85
713.599	35.85
713.626	17.85
713.653	18.85
713.68	3.85
713.707	7.85
713.734	21.85
713.761	2.85
713.788	13.85
713.815	15.85
713.842	0.85
713.869	-6.15
713.896	11.85
713.923	8.85
713.95	-1.15
713.977	1.85
714.004	5.85
714.031	2.85
714.058	2.85
714.085	11.85
714.112	15.85
714.139	16.85
714.165	20.85
714.192	0.85
714.219	10.85
714.246	10.85
714.273	2.85
714.3	8.85
714.327	18.85
714.354	12.85
714.381	8.85
714.408	0.85
714.435	12.85
714.461	26.85
714.488	21.85
714.515	17.85
714.542	3.85
714.569	-0.15
714.596	3.85
714.623	4.85
714.65	16.85
714.677	4.85
714.703	19.85
714.73	16.85
714.757	3.85
714.784	2.85
714.811	7.85
714.838	26.85
714.865	-3.15
714.891	12.85
714.918	1.85
714.945	6.85
714.972	-7.15
714.999	26.85
715.026	-2.15
715.052	18.85
715.079	18.85
715.106	12.85
715.133	4.85
715.16	6.85
715.187	17.85
715.213	24.85
715.24	8.85
715.267	4.85
715.294	7.85
715.321	6.85
715.347	7.85
715.374	4.85
715.401	8.85
715.428	6.85
715.455	0.85
715.481	1.85
715.508	15.85
715.535	18.85
715.562	33.85
715.588	6.85
715.615	1.85
715.642	3.85
715.669	22.85
715.695	-2.15
715.722	10.85
715.749	14.85
715.776	29.85
715.802	12.85
715.829	-4.15
715.856	-3.15
715.883	21.85
715.909	7.85
715.936	24.85
715.963	10.85
715.99	-4.15
716.016	11.85
716.043	5.85
716.07	-4.15
716.096	-2.15
716.123	6.85
716.15	21.85
716.177	12.85
716.203	19.85
716.23	9.85
716.257	17.85
716.283	33.85
716.31	4.85
716.337	10.85
716.363	0.85
716.39	-0.15
716.417	19.85
716.443	0.85
716.47	10.85
716.497	6.85
716.523	24.85
716.55	20.85
716.577	31.85
716.603	22.85
716.63	24.85
716.657	13.85
716.683	3.85
716.71	-0.15
716.737	19.85
716.763	6.85
716.79	9.85
716.817	18.85
716.843	8.85
716.87	2.85
716.897	14.85
716.923	24.85
716.95	2.85
716.976	7.85
717.003	-4.15
717.03	19.85
717.056	10.85
717.083	11.85
717.109	17.85
717.136	-1.15
717.163	-16.15
717.189	6.85
717.216	-7.15
717.242	2.85
717.269	15.85
717.296	26.85
717.322	11.85
717.349	23.85
717.375	31.85
717.402	2.85
717.428	10.85
717.455	25.85
717.481	12.85
717.508	24.85
717.535	7.85
717.561	7.85
717.588	2.85
717.614	-0.15
717.641	19.85
717.667	10.85
717.694	13.85
717.72	0.85
717.747	3.85
717.773	-0.15
717.8	10.85
717.826	14.85
717.853	20.85
717.88	20.85
717.906	8.85
717.933	15.85
717.959	16.85
717.986	8.85
718.012	-1.15
718.039	21.85
718.065	23.85
718.092	14.85
718.118	20.85
718.144	10.85
718.171	15.85
718.197	20.85
718.224	8.85
718.25	6.85
718.277	19.85
718.303	10.85
718.33	5.85
718.356	-1.15
718.383	-7.15
718.409	20.85
718.436	4.85
718.462	5.85
718.489	3.85
718.515	37.85
718.541	30.85
718.568	15.85
718.594	3.85
718.621	10.85
718.647	7.85
718.674	15.85
718.7	17.85
718.726	0.85
718.753	0.85
718.779	27.85
718.806	-9.15
718.832	13.85
718.858	10.85
718.885	-9.15
718.911	15.85
718.938	10.85
718.964	2.85
718.99	20.85
719.017	11.85
719.043	20.85
719.07	20.85
719.096	12.85
719.122	24.85
719.149	15.85
719.175	8.85
719.201	13.85
719.228	16.85
719.254	1.85
719.281	7.85
719.307	7.85
719.333	1.85
719.36	27.85
719.386	6.85
719.412	16.85
719.439	11.85
719.465	5.85
719.491	-13.15
719.518	3.85
719.544	4.85
719.57	23.85
719.597	21.85
719.623	-3.15
719.649	15.85
719.675	2.85
719.702	10.85
719.728	10.85
719.754	-1.15
719.781	5.85
719.807	-2.15
719.833	5.85
719.86	11.85
719.886	4.85
719.912	10.85
719.938	4.85
719.965	15.85
719.991	2.85
720.017	1.85
720.044	-3.15
720.07	14.85
720.096	14.85
720.122	20.85
720.149	32.85
720.175	30.85
720.201	5.85
720.227	5.85
720.254	-14.15
720.28	-0.15
720.306	22.85
720.332	4.85
720.359	11.85
720.385	7.85
720.411	8.85
720.437	16.85
720.463	-4.15
720.49	11.85
720.516	1.85
720.542	-13.15
720.568	9.85
720.595	21.85
720.621	17.85
720.647	11.85
720.673	3.85
720.699	10.85
720.725	26.85
720.752	14.85
720.778	12.85
720.804	6.85
720.83	9.85
720.856	4.85
720.883	-5.15
720.909	16.85
720.935	20.85
720.961	24.85
720.987	26.85
721.013	21.85
721.04	0.85
721.066	10.85
721.092	20.85
721.118	17.85
721.144	8.85
721.17	14.85
721.196	10.85
721.223	7.85
721.249	3.85
721.275	24.85
721.301	14.85
721.327	15.85
721.353	7.85
721.379	0.85
721.405	23.85
721.432	24.85
721.458	14.85
721.484	30.85
721.51	16.85
721.536	28.85
721.562	24.85
721.588	13.85
721.614	9.85
721.64	-1.15
721.666	15.85
721.693	17.85
721.719	-3.15
721.745	6.85
721.771	5.85
721.797	1.85
721.823	2.85
721.849	16.85
721.875	11.85
721.901	23.85
721.927	17.85
721.953	14.85
721.979	15.85
722.005	7.85
722.031	0.85
722.057	19.85
722.083	23.85
722.109	2.85
722.135	18.85
722.161	13.85
722.187	-1.15
722.214	0.85
722.24	-3.15
722.266	-5.15
722.292	20.85
722.318	10.85
722.344	15.85
722.37	8.85
722.396	10.85
722.422	7.85
722.448	21.85
722.474	12.85
722.5	14.85
722.526	-3.15
722.552	5.85
722.578	-2.15
722.603	12.85
722.629	10.85
722.655	16.85
722.681	22.85
722.707	13.85
722.733	7.85
722.759	0.85
722.785	11.85
722.811	17.85
722.837	7.85
722.863	7.85
722.889	6.85
722.915	-5.15
722.941	7.85
722.967	10.85
722.993	10.85
723.019	13.85
723.045	7.85
723.071	12.85
723.097	14.85
723.122	7.85
723.148	5.85
723.174	14.85
723.2	15.85
723.226	13.85
723.252	14.85
723.278	12.85
723.304	2.85
723.33	7.85
723.356	11.85
723.381	7.85
723.407	7.85
723.433	9.85
723.459	-1.15
723.485	4.85
723.511	20.85
723.537	0.85
723.563	7.85
723.588	2.85
723.614	5.85
723.64	18.85
723.666	7.85
723.692	7.85
723.718	9.85
723.744	-1.15
723.769	6.85
723.795	5.85
723.821	19.85
723.847	10.85
723.873	5.85
723.899	27.85
723.924	14.85
723.95	14.85
723.976	-9.15
724.002	21.85
724.028	27.85
724.053	6.85
724.079	-1.15
724.105	17.85
724.131	13.85
724.157	10.85
724.182	0.85
724.208	8.85
724.234	20.85
724.26	19.85
724.286	17.85
724.311	14.85
724.337	13.85
724.363	11.85
724.389	2.85
724.415	5.85
724.44	15.85
724.466	16.85
724.492	3.85
724.518	7.85
724.543	12.85
724.569	14.85
724.595	11.85
724.621	1.85
724.646	6.85
724.672	3.85
724.698	-8.15
724.723	-14.15
724.749	10.85
724.775	20.85
724.801	22.85
724.826	2.85
724.852	-2.15
724.878	3.85
724.904	-5.15
724.929	5.85
724.955	3.85
724.981	10.85
725.006	22.85
725.032	15.85
725.058	22.85
725.083	18.85
725.109	11.85
725.135	23.85
725.161	16.85
725.186	17.85
725.212	14.85
725.238	13.85
725.263	-1.15
725.289	2.85
725.315	-4.15
725.34	12.85
725.366	4.85
725.392	0.85
725.417	14.85
725.443	15.85
725.468	23.85
725.494	11.85
725.52	15.85
725.545	10.85
725.571	-5.15
725.597	7.85
725.622	13.85
725.648	4.85
725.674	22.85
725.699	20.85
725.725	10.85
725.75	39.85
725.776	10.85
725.802	15.85
725.827	8.85
725.853	-0.15
725.878	4.85
725.904	-3.15
725.93	3.85
725.955	-1.15
725.981	-2.15
726.006	-4.15
726.032	12.85
726.057	9.85
726.083	4.85
726.109	12.85
726.134	12.85
726.16	5.85
726.185	2.85
726.211	2.85
726.236	18.85
726.262	22.85
726.288	15.85
726.313	26.85
726.339	22.85
726.364	14.85
726.39	30.85
726.415	6.85
726.441	-1.15
726.466	5.85
726.492	16.85
726.517	22.85
726.543	6.85
726.568	-3.15
726.594	-13.15
726.619	7.85
726.645	16.85
726.67	17.85
726.696	6.85
726.721	10.85
726.747	-0.15
726.772	20.85
726.798	5.85
726.823	22.85
726.849	16.85
726.874	14.85
726.9	22.85
726.925	1.85
726.951	11.85
726.976	16.85
727.002	-2.15
727.027	-1.15
727.053	19.85
727.078	4.85
727.104	14.85
727.129	6.85
727.155	15.85
727.18	23.85
727.205	7.85
727.231	-2.15
727.256	10.85
727.282	11.85
727.307	13.85
727.333	-2.15
727.358	-12.15
727.383	2.85
727.409	5.85
727.434	29.85
727.46	6.85
727.485	4.85
727.511	16.85
727.536	-1.15
727.561	3.85
727.587	10.85
727.612	16.85
727.637	17.85
727.663	7.85
727.688	7.85
727.714	0.85
727.739	5.85
727.764	2.85
727.79	-1.15
727.815	19.85
727.841	8.85
727.866	10.85
727.891	9.85
727.917	11.85
727.942	1.85
727.967	6.85
727.993	-5.15
728.018	8.85
728.043	25.85
728.069	12.85
728.094	17.85
728.119	17.85
728.145	25.85
728.17	4.85
728.195	19.85
728.221	8.85
728.246	6.85
728.271	-1.15
728.297	24.85
728.322	8.85
728.347	19.85
728.373	16.85
728.398	25.85
728.423	16.85
728.448	5.85
728.474	6.85
728.499	11.85
728.524	-7.15
728.55	1.85
728.575	9.85
728.6	6.85
728.625	2.85
728.651	8.85
728.676	10.85
728.701	6.85
728.727	-0.15
728.752	2.85
728.777	2.85
728.802	10.85
728.828	18.85
728.853	6.85
728.878	4.85
728.903	4.85
728.929	7.85
728.954	14.85
728.979	10.85
729.004	2.85
729.03	1.85
729.055	15.85
729.08	-5.15
729.105	1.85
729.13	20.85
729.156	16.85
729.181	-6.15
729.206	-3.15
729.231	-4.15
729.256	2.85
729.282	17.85
729.307	-0.15
729.332	7.85
729.357	5.85
729.382	2.85
729.408	11.85
729.433	11.85
729.458	7.85
729.483	19.85
729.508	38.85
729.533	13.85
729.559	10.85
729.584	2.85
729.609	15.85
729.634	10.85
729.659	-1.15
729.684	4.85
729.71	14.85
729.735	6.85
729.76	10.85
729.785	1.85
729.81	10.85
729.835	-5.15
729.86	7.85
729.886	21.85
729.911	3.85
729.936	11.85
729.961	1.85
729.986	-3.15
730.011	10.85
730.036	9.85
730.061	22.85
730.086	2.85
730.112	10.85
730.137	23.85
730.162	8.85
730.187	-0.15
730.212	10.85
730.237	4.85
730.262	7.85
730.287	8.85
730.312	36.85
730.337	6.85
730.362	29.85
730.387	7.85
730.413	4.85
730.438	-3.15
730.463	0.85
730.488	-2.15
730.513	-4.15
730.538	13.85
730.563	16.85
730.588	20.85
730.613	12.85
730.638	-7.15
730.663	6.85
730.688	17.85
730.713	5.85
730.738	6.85
730.763	5.85
730.788	-0.15
730.813	4.85
730.838	3.85
730.863	0.85
730.888	15.85
730.913	0.85
730.938	9.85
730.963	4.85
730.988	11.85
731.013	22.85
731.038	3.85
731.063	1.85
731.088	18.85
731.113	1.85
731.138	-1.15
731.163	10.85
731.188	11.85
731.213	17.85
731.238	20.85
731.263	15.85
731.288	12.85
731.313	10.85
731.338	18.85
731.363	7.85
731.388	5.85
731.413	19.85
731.438	23.85
731.463	7.85
731.487	15.85
731.512	10.85
731.537	16.85
731.562	5.85
731.587	10.85
731.612	6.85
731.637	3.85
731.662	14.85
731.687	5.85
731.712	2.85
731.737	13.85
731.762	2.85
731.786	10.85
731.811	17.85
731.836	27.85
731.861	7.85
731.886	-10.15
731.911	16.85
731.936	13.85
731.961	6.85
731.986	8.85
732.01	31.85
732.035	9.85
732.06	27.85
732.085	6.85
732.11	7.85
732.135	-0.15
732.16	11.85
732.184	20.85
732.209	13.85
732.234	15.85
732.259	5.85
732.284	27.85
732.309	-1.15
732.334	11.85
732.358	10.85
732.383	6.85
732.408	2.85
732.433	5.85
732.458	-2.15
732.482	7.85
732.507	2.85
732.532	23.85
732.557	18.85
732.582	2.85
732.607	-0.15
732.631	-9.15
732.656	-1.15
732.681	-8.15
732.706	4.85
732.73	1.85
732.755	-4.15
732.78	7.85
732.805	23.85
732.83	-3.15
732.854	14.85
732.879	22.85
732.904	2.85
732.929	-1.15
732.953	12.85
732.978	5.85
733.003	8.85
733.028	10.85
733.052	11.85
733.077	3.85
733.102	19.85
733.127	4.85
733.151	7.85
733.176	18.85
733.201	-6.15
733.226	14.85
733.25	17.85
733.275	12.85
733.3	8.85
733.324	22.85
733.349	8.85
733.374	17.85
733.399	-1.15
733.423	-5.15
733.448	1.85
733.473	4.85
733.497	22.85
733.522	8.85
733.547	10.85
733.571	6.85
733.596	18.85
733.621	20.85
733.646	5.85
733.67	11.85
733.695	-4.15
733.72	18.85
733.744	24.85
733.769	14.85
733.794	11.85
733.818	8.85
733.843	-14.15
733.867	4.85
733.892	17.85
733.917	15.85
733.941	13.85
733.966	1.85
733.991	4.85
734.015	17.85
734.04	14.85
734.065	14.85
734.089	17.85
734.114	6.85
734.138	14.85
734.163	10.85
734.188	20.85
734.212	42.85
734.237	25.85
734.261	1.85
734.286	-7.15
734.311	11.85
734.335	11.85
734.36	5.85
734.384	9.85
734.409	12.85
734.434	7.85
734.458	24.85
734.483	1.85
734.507	-4.15
734.532	6.85
734.556	1.85
734.581	0.85
734.606	-3.15
734.63	-7.15
734.655	2.85
734.679	11.85
734.704	5.85
734.728	0.85
734.753	3.85
734.777	5.85
734.802	18.85
734.826	12.85
734.851	3.85
734.876	17.85
734.9	19.85
734.925	15.85
734.949	11.85
734.974	15.85
734.998	8.85
735.023	-5.15
735.047	2.85
735.072	22.85
735.096	12.85
735.121	9.85
735.145	25.85
735.17	4.85
735.194	26.85
735.219	13.85
735.243	5.85
735.268	20.85
735.292	-0.15
735.317	6.85
735.341	7.85
735.365	4.85
735.39	11.85
735.414	23.85
735.439	12.85
735.463	11.85
735.488	15.85
735.512	16.85
735.537	2.85
735.561	13.85
735.586	6.85
735.61	21.85
735.634	-5.15
735.659	29.85
735.683	43.85
735.708	16.85
735.732	3.85
735.757	6.85
735.781	18.85
735.805	13.85
735.83	16.85
735.854	10.85
735.879	21.85
735.903	34.85
735.927	8.85
735.952	14.85
735.976	14.85
736.001	0.85
736.025	11.85
736.049	6.85
736.074	7.85
736.098	3.85
736.123	20.85
736.147	7.85
736.171	14.85
736.196	22.85
736.22	2.85
736.244	14.85
736.269	-1.15
736.293	11.85
736.317	19.85
736.342	15.85
736.366	12.85
736.39	23.85
736.415	6.85
736.439	9.85
736.463	24.85
736.488	23.85
736.512	8.85
736.536	5.85
736.561	26.85
736.585	2.85
736.609	3.85
736.634	5.85
736.658	18.85
736.682	5.85
736.707	-8.15
736.731	1.85
736.755	6.85
736.78	24.85
736.804	23.85
736.828	15.85
736.852	12.85
736.877	8.85
736.901	5.85
736.925	4.85
736.949	22.85
736.974	0.85
736.998	4.85
737.022	15.85
737.047	0.85
737.071	2.85
737.095	16.85
737.119	32.85
737.144	23.85
737.168	13.85
737.192	4.85
737.216	10.85
737.241	3.85
737.265	24.85
737.289	14.85
737.313	13.85
737.337	34.85
737.362	10.85
737.386	2.85
737.41	22.85
737.434	10.85
737.459	4.85
737.483	20.85
737.507	22.85
737.531	19.85
737.555	14.85
737.58	22.85
737.604	1.85
737.628	-15.15
737.652	-14.15
737.676	3.85
737.701	16.85
737.725	23.85
737.749	8.85
737.773	4.85
737.797	-7.15
737.821	24.85
737.846	7.85
737.87	30.85
737.894	7.85
737.918	11.85
737.942	10.85
737.966	19.85
737.99	12.85
738.015	7.85
738.039	-5.15
738.063	7.85
738.087	14.85
738.111	-9.15
738.135	20.85
738.159	2.85
738.184	13.85
738.208	9.85
738.232	16.85
738.256	28.85
738.28	23.85
738.304	19.85
738.328	5.85
738.352	10.85
738.376	3.85
738.4	12.85
738.425	21.85
738.449	-11.15
738.473	17.85
738.497	6.85
738.521	17.85
738.545	14.85
738.569	6.85
738.593	8.85
738.617	10.85
738.641	12.85
738.665	16.85
738.689	30.85
738.713	12.85
738.737	13.85
738.762	12.85
738.786	4.85
738.81	7.85
738.834	22.85
738.858	7.85
738.882	8.85
738.906	-1.15
738.93	16.85
738.954	19.85
738.978	6.85
739.002	12.85
739.026	26.85
739.05	20.85
739.074	7.85
739.098	23.85
739.122	14.85
739.146	16.85
739.17	22.85
739.194	29.85
739.218	5.85
739.242	-0.15
739.266	7.85
739.29	11.85
739.314	11.85
739.338	14.85
739.362	13.85
739.386	8.85
739.41	-0.15
739.434	-0.15
739.458	23.85
739.482	26.85
739.506	11.85
739.53	14.85
739.554	19.85
739.577	13.85
739.601	18.85
739.625	7.85
739.649	4.85
739.673	-0.15
739.697	11.85
739.721	6.85
739.745	12.85
739.769	21.85
739.793	6.85
739.817	22.85
739.841	-2.15
739.865	-5.15
739.889	-0.15
739.912	32.85
739.936	-9.15
739.96	24.85
739.984	26.85
740.008	20.85
740.032	-1.15
740.056	5.85
740.08	6.85
740.104	-1.15
740.127	18.85
740.151	16.85
740.175	20.85
740.199	11.85
740.223	69.85
740.247	22.85
740.271	31.85
740.295	11.85
740.318	2.85
740.342	-3.15
740.366	23.85
740.39	19.85
740.414	4.85
740.438	7.85
740.461	6.85
740.485	19.85
740.509	5.85
740.533	12.85
740.557	-8.15
740.581	4.85
740.604	-9.15
740.628	-5.15
740.652	11.85
740.676	16.85
740.7	13.85
740.723	5.85
740.747	5.85
740.771	15.85
740.795	-5.15
740.819	4.85
740.842	-5.15
740.866	20.85
740.89	13.85
740.914	10.85
740.938	2.85
740.961	18.85
740.985	20.85
741.009	6.85
741.033	18.85
741.056	20.85
741.08	16.85
741.104	10.85
741.128	2.85
741.151	5.85
741.175	10.85
741.199	5.85
741.223	23.85
741.246	6.85
741.27	21.85
741.294	12.85
741.318	-0.15
741.341	3.85
741.365	3.85
741.389	-7.15
741.413	13.85
741.436	7.85
741.46	11.85
741.484	19.85
741.507	8.85
741.531	25.85
741.555	19.85
741.579	17.85
741.602	10.85
741.626	20.85
741.65	14.85
741.673	2.85
741.697	9.85
741.721	3.85
741.744	-8.15
741.768	16.85
741.792	15.85
741.815	12.85
741.839	18.85
741.863	26.85
741.886	23.85
741.91	8.85
741.934	5.85
741.957	2.85
741.981	24.85
742.005	0.85
742.028	4.85
742.052	3.85
742.075	10.85
742.099	19.85
742.123	12.85
742.146	8.85
742.17	8.85
742.194	-8.15
742.217	6.85
742.241	7.85
742.264	0.85
742.288	10.85
742.312	16.85
742.335	5.85
742.359	13.85
742.382	31.85
742.406	19.85
742.43	2.85
742.453	9.85
742.477	11.85
742.5	14.85
742.524	8.85
742.548	0.85
742.571	8.85
742.595	9.85
742.618	1.85
742.642	-1.15
742.665	2.85
742.689	-8.15
742.712	20.85
742.736	10.85
742.76	20.85
742.783	0.85
742.807	14.85
742.83	24.85
742.854	-4.15
742.877	7.85
742.901	-4.15
742.924	-5.15
742.948	14.85
742.971	11.85
742.995	7.85
743.018	2.85
743.042	-5.15
743.065	6.85
743.089	-18.15
743.112	11.85
743.136	-2.15
743.159	1.85
743.183	5.85
743.206	3.85
743.23	0.85
743.253	21.85
743.277	14.85
743.3	5.85
743.324	10.85
743.347	11.85
743.371	10.85
743.394	23.85
743.418	28.85
743.441	25.85
743.465	16.85
743.488	15.85
743.512	-0.15
743.535	8.85
743.558	12.85
743.582	19.85
743.605	17.85
743.629	14.85
743.652	8.85
743.676	6.85
743.699	20.85
743.723	18.85
743.746	19.85
743.769	10.85
743.793	12.85
743.816	7.85
743.84	18.85
743.863	0.85
743.886	23.85
743.91	8.85
743.933	6.85
743.957	21.85
743.98	11.85
744.003	-1.15
744.027	25.85
744.05	1.85
744.074	1.85
744.097	-9.15
744.12	10.85
744.144	8.85
744.167	14.85
744.19	-5.15
744.214	11.85
744.237	-3.15
744.26	11.85
744.284	9.85
744.307	-4.15
744.331	13.85
744.354	2.85
744.377	9.85
744.401	22.85
744.424	-4.15
744.447	0.85
744.471	3.85
