Data from HighRes_H2D2_15_04_11_07_2024_HR4C61891__79__15-05-42-342.txt Node

Date: Thu Nov 07 15:05:42 EST 2024
User: crc00042
Spectrometer: HR4C6189
Trigger mode: 4
Integration Time (sec): 1.000000E-1
Scans to average: 1
Electric dark correction enabled: true
Nonlinearity correction enabled: false
Boxcar width: 0
XAxis mode: Wavelengths
Number of Pixels in Spectrum: 3648
>>>>>Begin Spectral Data<<<<<
639.567	-80.69
639.602	-80.69
639.636	-80.69
639.67	-46.69
639.704	-24.69
639.738	4.31
639.773	-2.69
639.807	-3.69
639.841	12.31
639.875	8.31
639.909	1.31
639.943	-17.69
639.978	-0.69
640.012	0.31
640.046	8.31
640.08	4.31
640.114	-1.69
640.148	-12.69
640.182	-6.69
640.217	-5.69
640.251	6.31
640.285	7.31
640.319	0.31
640.353	4.31
640.387	18.31
640.421	0.31
640.455	-15.69
640.49	-13.69
640.524	1.31
640.558	5.31
640.592	-8.69
640.626	-6.69
640.66	3.31
640.694	-10.69
640.728	-4.69
640.762	1.31
640.796	15.31
640.83	17.31
640.865	-2.69
640.899	-5.69
640.933	-18.69
640.967	-15.69
641.001	-7.69
641.035	2.31
641.069	-11.69
641.103	-24.69
641.137	-4.69
641.171	-26.69
641.205	-4.69
641.239	0.31
641.273	8.31
641.307	0.31
641.341	0.31
641.375	-6.69
641.409	-9.69
641.443	1.31
641.477	6.31
641.511	-17.69
641.545	-13.69
641.579	-4.69
641.614	-2.69
641.648	-3.69
641.682	-5.69
641.716	-8.69
641.75	-7.69
641.784	-7.69
641.818	-6.69
641.852	2.31
641.886	-7.69
641.919	21.31
641.953	-6.69
641.987	-19.69
642.021	-0.69
642.055	10.31
642.089	8.31
642.123	-13.69
642.157	-2.69
642.191	-15.69
642.225	3.31
642.259	-5.69
642.293	7.31
642.327	-1.69
642.361	3.31
642.395	7.31
642.429	-0.69
642.463	-4.69
642.497	11.31
642.531	-14.69
642.565	-0.69
642.599	8.31
642.633	-12.69
642.666	15.31
642.7	12.31
642.734	5.31
642.768	-8.69
642.802	-7.69
642.836	5.31
642.87	7.31
642.904	7.31
642.938	-1.69
642.972	-13.69
643.005	-0.69
643.039	1.31
643.073	-15.69
643.107	7.31
643.141	2.31
643.175	13.31
643.209	-12.69
643.243	-5.69
643.276	-2.69
643.31	-16.69
643.344	-4.69
643.378	-8.69
643.412	2.31
643.446	1.31
643.48	-10.69
643.513	7.31
643.547	-12.69
643.581	-22.69
643.615	-9.69
643.649	-13.69
643.683	-10.69
643.716	-11.69
643.75	4.31
643.784	-2.69
643.818	5.31
643.852	-9.69
643.886	-7.69
643.919	-8.69
643.953	-11.69
643.987	-8.69
644.021	8.31
644.055	11.31
644.088	-12.69
644.122	-19.69
644.156	-15.69
644.19	-3.69
644.224	9.31
644.257	8.31
644.291	12.31
644.325	-9.69
644.359	-12.69
644.392	9.31
644.426	8.31
644.46	-6.69
644.494	-11.69
644.527	-8.69
644.561	2.31
644.595	-8.69
644.629	-6.69
644.662	-11.69
644.696	8.31
644.73	-6.69
644.764	6.31
644.797	1.31
644.831	9.31
644.865	-0.69
644.899	-5.69
644.932	28.31
644.966	13.31
645	13.31
645.033	16.31
645.067	-9.69
645.101	-3.69
645.135	-15.69
645.168	-14.69
645.202	-14.69
645.236	-6.69
645.269	-0.69
645.303	-10.69
645.337	-33.69
645.37	-27.69
645.404	18.31
645.438	-4.69
645.471	-14.69
645.505	7.31
645.539	4.31
645.572	-12.69
645.606	2.31
645.64	-10.69
645.673	-6.69
645.707	11.31
645.741	-1.69
645.774	-12.69
645.808	4.31
645.842	-15.69
645.875	8.31
645.909	-4.69
645.943	1.31
645.976	-2.69
646.01	4.31
646.043	8.31
646.077	2.31
646.111	-2.69
646.144	4.31
646.178	-0.69
646.212	-14.69
646.245	-12.69
646.279	-0.69
646.312	3.31
646.346	2.31
646.38	-5.69
646.413	-5.69
646.447	9.31
646.48	-3.69
646.514	2.31
646.547	-7.69
646.581	-4.69
646.615	-13.69
646.648	-35.69
646.682	1.31
646.715	-7.69
646.749	-8.69
646.782	-9.69
646.816	-19.69
646.85	12.31
646.883	-1.69
646.917	-1.69
646.95	-2.69
646.984	12.31
647.017	-9.69
647.051	-13.69
647.084	9.31
647.118	-26.69
647.151	-4.69
647.185	-9.69
647.218	-11.69
647.252	-5.69
647.285	-23.69
647.319	-19.69
647.353	5.31
647.386	8.31
647.42	-8.69
647.453	-0.69
647.487	-3.69
647.52	-0.69
647.553	3.31
647.587	2.31
647.62	2.31
647.654	-9.69
647.687	-12.69
647.721	9.31
647.754	-6.69
647.788	6.31
647.821	-17.69
647.855	-1.69
647.888	-7.69
647.922	6.31
647.955	-3.69
647.989	-3.69
648.022	-11.69
648.055	4.31
648.089	-1.69
648.122	21.31
648.156	9.31
648.189	-7.69
648.223	6.31
648.256	20.31
648.29	-6.69
648.323	-11.69
648.356	10.31
648.39	15.31
648.423	4.31
648.457	3.31
648.49	14.31
648.523	8.31
648.557	-17.69
648.59	-1.69
648.624	0.31
648.657	4.31
648.69	0.31
648.724	3.31
648.757	7.31
648.791	-14.69
648.824	-10.69
648.857	0.31
648.891	19.31
648.924	1.31
648.957	24.31
648.991	-3.69
649.024	-7.69
649.057	8.31
649.091	1.31
649.124	11.31
649.158	4.31
649.191	14.31
649.224	3.31
649.258	7.31
649.291	3.31
649.324	1.31
649.358	3.31
649.391	6.31
649.424	4.31
649.458	-5.69
649.491	0.31
649.524	-5.69
649.557	-9.69
649.591	-5.69
649.624	7.31
649.657	-6.69
649.691	6.31
649.724	-1.69
649.757	-7.69
649.791	-15.69
649.824	3.31
649.857	15.31
649.89	-9.69
649.924	-15.69
649.957	8.31
649.99	-14.69
650.023	-15.69
650.057	-10.69
650.09	-7.69
650.123	-11.69
650.157	19.31
650.19	13.31
650.223	-5.69
650.256	-11.69
650.29	-1.69
650.323	5.31
650.356	10.31
650.389	-5.69
650.423	-20.69
650.456	-11.69
650.489	-5.69
650.522	-7.69
650.555	1.31
650.589	8.31
650.622	-9.69
650.655	11.31
650.688	0.31
650.721	9.31
650.755	-0.69
650.788	7.31
650.821	-0.69
650.854	8.31
650.887	3.31
650.921	-3.69
650.954	-6.69
650.987	1.31
651.02	-10.69
651.053	-9.69
651.087	1.31
651.12	12.31
651.153	1.31
651.186	4.31
651.219	-13.69
651.252	9.31
651.286	0.31
651.319	-8.69
651.352	4.31
651.385	4.31
651.418	5.31
651.451	11.31
651.484	18.31
651.518	-5.69
651.551	9.31
651.584	-5.69
651.617	12.31
651.65	0.31
651.683	10.31
651.716	3.31
651.749	-1.69
651.783	-5.69
651.816	13.31
651.849	15.31
651.882	-13.69
651.915	-2.69
651.948	2.31
651.981	-9.69
652.014	-18.69
652.047	-20.69
652.08	-21.69
652.114	-2.69
652.147	-11.69
652.18	11.31
652.213	22.31
652.246	-1.69
652.279	-6.69
652.312	3.31
652.345	-6.69
652.378	-8.69
652.411	12.31
652.444	11.31
652.477	9.31
652.51	-0.69
652.543	-4.69
652.576	-3.69
652.609	-1.69
652.642	-0.69
652.675	18.31
652.709	-10.69
652.742	9.31
652.775	8.31
652.808	14.31
652.841	-12.69
652.874	-21.69
652.907	-7.69
652.94	-17.69
652.973	-13.69
653.006	-15.69
653.039	-18.69
653.072	14.31
653.105	6.31
653.138	-11.69
653.171	6.31
653.204	-9.69
653.237	-3.69
653.27	-4.69
653.303	-7.69
653.336	-0.69
653.368	-0.69
653.401	4.31
653.434	2.31
653.467	6.31
653.5	-11.69
653.533	-12.69
653.566	1.31
653.599	-4.69
653.632	-3.69
653.665	-7.69
653.698	-20.69
653.731	-18.69
653.764	-3.69
653.797	-0.69
653.83	0.31
653.863	0.31
653.896	-4.69
653.929	9.31
653.961	10.31
653.994	0.31
654.027	-8.69
654.06	4.31
654.093	7.31
654.126	9.31
654.159	-7.69
654.192	11.31
654.225	-4.69
654.258	-2.69
654.29	-5.69
654.323	10.31
654.356	-30.69
654.389	-10.69
654.422	-3.69
654.455	-2.69
654.488	7.31
654.521	-20.69
654.553	-22.69
654.586	-4.69
654.619	3.31
654.652	-10.69
654.685	-0.69
654.718	-6.69
654.751	9.31
654.783	-3.69
654.816	-3.69
654.849	6.31
654.882	11.31
654.915	-12.69
654.948	-2.69
654.98	-7.69
655.013	9.31
655.046	-2.69
655.079	0.31
655.112	-8.69
655.144	-12.69
655.177	0.31
655.21	-3.69
655.243	0.31
655.276	-24.69
655.308	-11.69
655.341	-3.69
655.374	5.31
655.407	-18.69
655.44	-29.69
655.472	-7.69
655.505	-5.69
655.538	-18.69
655.571	-26.69
655.603	-14.69
655.636	-9.69
655.669	1.31
655.702	-0.69
655.734	-4.69
655.767	2.31
655.8	1.31
655.833	14.31
655.865	13.31
655.898	16.31
655.931	16.31
655.964	8.31
655.996	18.31
656.029	28.31
656.062	19.31
656.095	39.31
656.127	59.31
656.16	185.31
656.193	620.31
656.225	964.31
656.258	535.31
656.291	217.31
656.324	169.31
656.356	375.31
656.389	754.31
656.422	682.31
656.454	236.31
656.487	75.31
656.52	27.31
656.552	16.31
656.585	7.31
656.618	24.31
656.65	20.31
656.683	0.31
656.716	15.31
656.748	0.31
656.781	-6.69
656.814	-10.69
656.846	16.31
656.879	-19.69
656.912	-2.69
656.944	-12.69
656.977	-8.69
657.01	-22.69
657.042	-11.69
657.075	-4.69
657.108	-4.69
657.14	4.31
657.173	16.31
657.205	4.31
657.238	0.31
657.271	-7.69
657.303	-9.69
657.336	-14.69
657.369	3.31
657.401	-5.69
657.434	-7.69
657.466	3.31
657.499	-0.69
657.532	-10.69
657.564	5.31
657.597	-7.69
657.629	13.31
657.662	-5.69
657.694	-2.69
657.727	-12.69
657.76	23.31
657.792	-11.69
657.825	-11.69
657.857	-7.69
657.89	-7.69
657.922	9.31
657.955	-14.69
657.987	-10.69
658.02	2.31
658.053	1.31
658.085	-11.69
658.118	-0.69
658.15	4.31
658.183	14.31
658.215	-9.69
658.248	-11.69
658.28	-0.69
658.313	7.31
658.345	7.31
658.378	0.31
658.41	-15.69
658.443	5.31
658.475	4.31
658.508	-2.69
658.54	-7.69
658.573	-2.69
658.605	3.31
658.638	-0.69
658.67	9.31
658.703	11.31
658.735	-26.69
658.768	-17.69
658.8	-20.69
658.833	6.31
658.865	4.31
658.898	-10.69
658.93	-4.69
658.963	6.31
658.995	-10.69
659.028	-8.69
659.06	1.31
659.092	-9.69
659.125	-21.69
659.157	-3.69
659.19	-15.69
659.222	-3.69
659.255	5.31
659.287	-9.69
659.32	-16.69
659.352	-3.69
659.384	8.31
659.417	2.31
659.449	7.31
659.482	-10.69
659.514	-26.69
659.546	-4.69
659.579	-10.69
659.611	-8.69
659.644	-1.69
659.676	-5.69
659.708	0.31
659.741	0.31
659.773	15.31
659.806	8.31
659.838	7.31
659.87	12.31
659.903	-11.69
659.935	3.31
659.967	12.31
660	10.31
660.032	-14.69
660.065	12.31
660.097	-7.69
660.129	-1.69
660.162	-8.69
660.194	-4.69
660.226	2.31
660.259	8.31
660.291	-7.69
660.323	9.31
660.356	2.31
660.388	-17.69
660.42	2.31
660.453	9.31
660.485	5.31
660.517	11.31
660.55	14.31
660.582	5.31
660.614	-1.69
660.647	-10.69
660.679	-17.69
660.711	-10.69
660.743	-27.69
660.776	-15.69
660.808	-16.69
660.84	-28.69
660.873	-5.69
660.905	1.31
660.937	-11.69
660.969	-7.69
661.002	-4.69
661.034	8.31
661.066	1.31
661.099	-0.69
661.131	22.31
661.163	9.31
661.195	-0.69
661.228	6.31
661.26	-13.69
661.292	-28.69
661.324	-13.69
661.357	-8.69
661.389	-2.69
661.421	10.31
661.453	-1.69
661.485	-3.69
661.518	-4.69
661.55	-8.69
661.582	-14.69
661.614	-0.69
661.647	1.31
661.679	-7.69
661.711	-4.69
661.743	-9.69
661.775	-3.69
661.808	-2.69
661.84	-5.69
661.872	7.31
661.904	1.31
661.936	-3.69
661.969	-19.69
662.001	3.31
662.033	-2.69
662.065	-17.69
662.097	-0.69
662.129	-3.69
662.162	-7.69
662.194	2.31
662.226	-6.69
662.258	15.31
662.29	0.31
662.322	-11.69
662.355	-13.69
662.387	6.31
662.419	13.31
662.451	14.31
662.483	4.31
662.515	-4.69
662.547	-12.69
662.58	-19.69
662.612	-27.69
662.644	-14.69
662.676	8.31
662.708	5.31
662.74	-4.69
662.772	-0.69
662.804	3.31
662.836	4.31
662.869	-1.69
662.901	16.31
662.933	-0.69
662.965	16.31
662.997	-0.69
663.029	2.31
663.061	-11.69
663.093	0.31
663.125	-1.69
663.157	0.31
663.189	-2.69
663.221	5.31
663.254	4.31
663.286	10.31
663.318	-7.69
663.35	1.31
663.382	-2.69
663.414	-6.69
663.446	-7.69
663.478	-19.69
663.51	10.31
663.542	-3.69
663.574	-9.69
663.606	-4.69
663.638	-11.69
663.67	3.31
663.702	-15.69
663.734	-14.69
663.766	-7.69
663.798	-2.69
663.83	-5.69
663.862	5.31
663.894	11.31
663.926	-0.69
663.958	-2.69
663.99	-20.69
664.022	-15.69
664.054	8.31
664.086	-8.69
664.118	-7.69
664.15	-3.69
664.182	8.31
664.214	5.31
664.246	9.31
664.278	-2.69
664.31	26.31
664.342	1.31
664.374	3.31
664.406	-2.69
664.438	-1.69
664.47	11.31
664.502	-0.69
664.534	-3.69
664.566	-17.69
664.598	1.31
664.63	9.31
664.662	9.31
664.693	3.31
664.725	3.31
664.757	-7.69
664.789	-5.69
664.821	-7.69
664.853	7.31
664.885	5.31
664.917	-6.69
664.949	-6.69
664.981	6.31
665.013	-4.69
665.045	-20.69
665.076	0.31
665.108	-7.69
665.14	-1.69
665.172	0.31
665.204	3.31
665.236	-15.69
665.268	7.31
665.3	-1.69
665.331	-3.69
665.363	-0.69
665.395	0.31
665.427	-10.69
665.459	-4.69
665.491	-2.69
665.523	21.31
665.555	-5.69
665.586	-9.69
665.618	0.31
665.65	3.31
665.682	5.31
665.714	5.31
665.746	-4.69
665.777	0.31
665.809	-18.69
665.841	8.31
665.873	-23.69
665.905	4.31
665.937	14.31
665.968	11.31
666	-8.69
666.032	-9.69
666.064	-0.69
666.096	-5.69
666.127	-2.69
666.159	0.31
666.191	12.31
666.223	-0.69
666.255	-2.69
666.286	5.31
666.318	1.31
666.35	15.31
666.382	3.31
666.413	-12.69
666.445	-37.69
666.477	-12.69
666.509	-7.69
666.54	-3.69
666.572	-14.69
666.604	-18.69
666.636	0.31
666.667	10.31
666.699	12.31
666.731	-15.69
666.763	-21.69
666.794	-7.69
666.826	8.31
666.858	-6.69
666.89	2.31
666.921	11.31
666.953	-6.69
666.985	4.31
667.017	26.31
667.048	4.31
667.08	-5.69
667.112	-7.69
667.143	-11.69
667.175	11.31
667.207	-0.69
667.238	3.31
667.27	-10.69
667.302	-11.69
667.334	-9.69
667.365	17.31
667.397	4.31
667.429	-2.69
667.46	12.31
667.492	12.31
667.524	-6.69
667.555	0.31
667.587	0.31
667.619	6.31
667.65	-23.69
667.682	0.31
667.714	0.31
667.745	4.31
667.777	4.31
667.808	16.31
667.84	17.31
667.872	11.31
667.903	15.31
667.935	-1.69
667.967	-1.69
667.998	6.31
668.03	-11.69
668.061	6.31
668.093	7.31
668.125	8.31
668.156	9.31
668.188	-2.69
668.22	1.31
668.251	2.31
668.283	3.31
668.314	8.31
668.346	-4.69
668.377	1.31
668.409	-6.69
668.441	8.31
668.472	-1.69
668.504	5.31
668.535	-1.69
668.567	2.31
668.599	7.31
668.63	-9.69
668.662	-16.69
668.693	12.31
668.725	4.31
668.756	-22.69
668.788	-15.69
668.819	12.31
668.851	11.31
668.882	1.31
668.914	-3.69
668.946	13.31
668.977	-21.69
669.009	-8.69
669.04	-16.69
669.072	-10.69
669.103	2.31
669.135	-6.69
669.166	6.31
669.198	6.31
669.229	6.31
669.261	1.31
669.292	-7.69
669.324	-11.69
669.355	14.31
669.387	-0.69
669.418	-3.69
669.45	-12.69
669.481	-5.69
669.513	-3.69
669.544	20.31
669.576	-15.69
669.607	4.31
669.639	12.31
669.67	-9.69
669.701	8.31
669.733	-7.69
669.764	2.31
669.796	-4.69
669.827	-0.69
669.859	-1.69
669.89	9.31
669.922	16.31
669.953	5.31
669.985	6.31
670.016	-8.69
670.047	-1.69
670.079	1.31
670.11	-3.69
670.142	9.31
670.173	4.31
670.204	-16.69
670.236	-4.69
670.267	-9.69
670.299	-1.69
670.33	-4.69
670.362	-3.69
670.393	-0.69
670.424	-2.69
670.456	-21.69
670.487	-13.69
670.518	-3.69
670.55	0.31
670.581	-7.69
670.613	0.31
670.644	-3.69
670.675	-16.69
670.707	8.31
670.738	-8.69
670.769	-10.69
670.801	-5.69
670.832	3.31
670.864	-17.69
670.895	-20.69
670.926	-18.69
670.958	6.31
670.989	-8.69
671.02	1.31
671.052	-7.69
671.083	-10.69
671.114	-18.69
671.146	4.31
671.177	5.31
671.208	-12.69
671.24	-11.69
671.271	-2.69
671.302	16.31
671.333	-4.69
671.365	-20.69
671.396	-12.69
671.427	-4.69
671.459	-10.69
671.49	3.31
671.521	-3.69
671.553	-6.69
671.584	9.31
671.615	-17.69
671.646	4.31
671.678	3.31
671.709	-9.69
671.74	-29.69
671.771	-13.69
671.803	-24.69
671.834	-8.69
671.865	-3.69
671.896	-4.69
671.928	-3.69
671.959	-10.69
671.99	-1.69
672.021	-7.69
672.053	-13.69
672.084	0.31
672.115	-16.69
672.146	-3.69
672.178	-6.69
672.209	-5.69
672.24	-6.69
672.271	16.31
672.303	4.31
672.334	-11.69
672.365	-24.69
672.396	-0.69
672.427	8.31
672.459	9.31
672.49	20.31
672.521	2.31
672.552	-12.69
672.583	2.31
672.615	-2.69
672.646	-5.69
672.677	-11.69
672.708	-7.69
672.739	-8.69
672.77	14.31
672.802	3.31
672.833	-6.69
672.864	4.31
672.895	-3.69
672.926	-10.69
672.957	-5.69
672.989	1.31
673.02	0.31
673.051	-19.69
673.082	-12.69
673.113	-11.69
673.144	8.31
673.175	-0.69
673.206	-3.69
673.238	-11.69
673.269	-3.69
673.3	-0.69
673.331	8.31
673.362	2.31
673.393	5.31
673.424	13.31
673.455	5.31
673.487	1.31
673.518	7.31
673.549	7.31
673.58	-5.69
673.611	1.31
673.642	2.31
673.673	-8.69
673.704	-6.69
673.735	-1.69
673.766	-12.69
673.797	11.31
673.828	-2.69
673.86	-4.69
673.891	-13.69
673.922	-12.69
673.953	-12.69
673.984	-4.69
674.015	7.31
674.046	-3.69
674.077	-6.69
674.108	-14.69
674.139	-3.69
674.17	3.31
674.201	4.31
674.232	-6.69
674.263	-3.69
674.294	-3.69
674.325	-21.69
674.356	-19.69
674.387	3.31
674.418	11.31
674.449	-2.69
674.48	-5.69
674.511	-3.69
674.542	0.31
674.573	-11.69
674.604	23.31
674.635	-14.69
674.666	-1.69
674.697	16.31
674.728	-3.69
674.759	3.31
674.79	-15.69
674.821	-17.69
674.852	-7.69
674.883	-20.69
674.914	12.31
674.945	0.31
674.976	3.31
675.007	-0.69
675.038	-9.69
675.069	-27.69
675.1	-23.69
675.131	-5.69
675.162	-6.69
675.193	1.31
675.224	-14.69
675.254	-8.69
675.285	-0.69
675.316	0.31
675.347	-8.69
675.378	-2.69
675.409	-5.69
675.44	-7.69
675.471	0.31
675.502	4.31
675.533	-3.69
675.564	-4.69
675.595	0.31
675.625	5.31
675.656	3.31
675.687	-9.69
675.718	-22.69
675.749	-14.69
675.78	13.31
675.811	-23.69
675.842	-9.69
675.873	-3.69
675.903	-23.69
675.934	-5.69
675.965	-8.69
675.996	-22.69
676.027	-5.69
676.058	-17.69
676.089	-20.69
676.119	-5.69
676.15	-3.69
676.181	-5.69
676.212	-18.69
676.243	-0.69
676.274	-15.69
676.304	2.31
676.335	-31.69
676.366	5.31
676.397	-2.69
676.428	-6.69
676.459	-5.69
676.489	-13.69
676.52	4.31
676.551	0.31
676.582	0.31
676.613	2.31
676.643	-14.69
676.674	14.31
676.705	6.31
676.736	11.31
676.767	14.31
676.797	9.31
676.828	-3.69
676.859	-10.69
676.89	-16.69
676.92	-9.69
676.951	-11.69
676.982	-17.69
677.013	2.31
677.044	7.31
677.074	-15.69
677.105	-6.69
677.136	-14.69
677.167	-4.69
677.197	-10.69
677.228	-6.69
677.259	-20.69
677.289	-10.69
677.32	-27.69
677.351	-4.69
677.382	-3.69
677.412	-8.69
677.443	14.31
677.474	-4.69
677.505	-6.69
677.535	-0.69
677.566	-14.69
677.597	-4.69
677.627	-4.69
677.658	-13.69
677.689	-11.69
677.72	-13.69
677.75	-15.69
677.781	-24.69
677.812	0.31
677.842	2.31
677.873	0.31
677.904	-15.69
677.934	-9.69
677.965	-1.69
677.996	-22.69
678.026	-5.69
678.057	4.31
678.088	-21.69
678.118	2.31
678.149	-3.69
678.18	0.31
678.21	-12.69
678.241	2.31
678.272	-0.69
678.302	3.31
678.333	11.31
678.363	3.31
678.394	-15.69
678.425	-11.69
678.455	-18.69
678.486	0.31
678.517	-9.69
678.547	-3.69
678.578	9.31
678.608	-9.69
678.639	5.31
678.67	12.31
678.7	-6.69
678.731	-9.69
678.761	6.31
678.792	-11.69
678.823	-3.69
678.853	2.31
678.884	-4.69
678.914	5.31
678.945	7.31
678.975	3.31
679.006	5.31
679.037	0.31
679.067	10.31
679.098	-4.69
679.128	-7.69
679.159	4.31
679.189	5.31
679.22	-24.69
679.25	10.31
679.281	3.31
679.312	1.31
679.342	-4.69
679.373	25.31
679.403	-2.69
679.434	8.31
679.464	4.31
679.495	6.31
679.525	2.31
679.556	-27.69
679.586	-6.69
679.617	10.31
679.647	-6.69
679.678	2.31
679.708	1.31
679.739	1.31
679.769	-6.69
679.8	-8.69
679.83	-3.69
679.861	5.31
679.891	-9.69
679.922	-6.69
679.952	0.31
679.983	-4.69
680.013	-6.69
680.044	5.31
680.074	-1.69
680.105	8.31
680.135	-1.69
680.165	0.31
680.196	-7.69
680.226	-17.69
680.257	6.31
680.287	-6.69
680.318	8.31
680.348	-17.69
680.379	14.31
680.409	-0.69
680.439	-5.69
680.47	-11.69
680.5	3.31
680.531	-0.69
680.561	22.31
680.592	0.31
680.622	-1.69
680.652	3.31
680.683	15.31
680.713	-0.69
680.744	-0.69
680.774	-14.69
680.804	0.31
680.835	-10.69
680.865	-10.69
680.896	12.31
680.926	13.31
680.956	-5.69
680.987	-4.69
681.017	-2.69
681.047	-9.69
681.078	-19.69
681.108	5.31
681.139	-2.69
681.169	-21.69
681.199	-7.69
681.23	15.31
681.26	-2.69
681.29	-3.69
681.321	-20.69
681.351	-3.69
681.381	-16.69
681.412	-3.69
681.442	7.31
681.472	3.31
681.503	1.31
681.533	2.31
681.563	1.31
681.594	7.31
681.624	-2.69
681.654	0.31
681.685	-8.69
681.715	3.31
681.745	-2.69
681.775	-8.69
681.806	6.31
681.836	3.31
681.866	-8.69
681.897	-7.69
681.927	-3.69
681.957	-15.69
681.987	3.31
682.018	-8.69
682.048	-0.69
682.078	0.31
682.109	18.31
682.139	7.31
682.169	-2.69
682.199	-8.69
682.23	-27.69
682.26	3.31
682.29	0.31
682.32	-1.69
682.351	0.31
682.381	4.31
682.411	-9.69
682.441	-8.69
682.472	-12.69
682.502	-11.69
682.532	-5.69
682.562	10.31
682.592	7.31
682.623	13.31
682.653	-3.69
682.683	-8.69
682.713	-0.69
682.743	9.31
682.774	-2.69
682.804	1.31
682.834	10.31
682.864	2.31
682.894	-3.69
682.925	-2.69
682.955	-4.69
682.985	0.31
683.015	-5.69
683.045	0.31
683.076	-6.69
683.106	0.31
683.136	-11.69
683.166	-11.69
683.196	5.31
683.226	-8.69
683.257	-8.69
683.287	0.31
683.317	-4.69
683.347	-11.69
683.377	-19.69
683.407	6.31
683.437	-2.69
683.468	10.31
683.498	7.31
683.528	-12.69
683.558	-2.69
683.588	-3.69
683.618	-2.69
683.648	4.31
683.678	-12.69
683.708	0.31
683.739	3.31
683.769	-0.69
683.799	-0.69
683.829	-3.69
683.859	9.31
683.889	3.31
683.919	-2.69
683.949	5.31
683.979	-15.69
684.009	-1.69
684.039	5.31
684.07	-13.69
684.1	1.31
684.13	-2.69
684.16	6.31
684.19	-0.69
684.22	7.31
684.25	-11.69
684.28	-0.69
684.31	10.31
684.34	9.31
684.37	4.31
684.4	0.31
684.43	5.31
684.46	-2.69
684.49	-0.69
684.52	-23.69
684.55	-11.69
684.58	-0.69
684.61	1.31
684.64	19.31
684.67	21.31
684.7	-3.69
684.73	-7.69
684.76	-9.69
684.79	16.31
684.82	-12.69
684.85	-15.69
684.88	-3.69
684.91	-8.69
684.94	-7.69
684.97	-1.69
685	1.31
685.03	-10.69
685.06	-7.69
685.09	-6.69
685.12	0.31
685.15	1.31
685.18	16.31
685.21	-4.69
685.24	22.31
685.27	9.31
685.3	5.31
685.33	10.31
685.36	1.31
685.39	3.31
685.42	3.31
685.45	-6.69
685.48	-8.69
685.51	-10.69
685.54	9.31
685.569	25.31
685.599	0.31
685.629	-4.69
685.659	-7.69
685.689	13.31
685.719	8.31
685.749	-6.69
685.779	0.31
685.809	4.31
685.839	-4.69
685.869	-4.69
685.898	9.31
685.928	1.31
685.958	-14.69
685.988	5.31
686.018	-4.69
686.048	-4.69
686.078	15.31
686.108	16.31
686.137	2.31
686.167	30.31
686.197	-16.69
686.227	-10.69
686.257	14.31
686.287	16.31
686.317	3.31
686.346	8.31
686.376	-17.69
686.406	-9.69
686.436	11.31
686.466	-1.69
686.496	5.31
686.525	-0.69
686.555	1.31
686.585	-4.69
686.615	16.31
686.645	9.31
686.675	10.31
686.704	1.31
686.734	-2.69
686.764	-6.69
686.794	0.31
686.824	-12.69
686.853	0.31
686.883	2.31
686.913	13.31
686.943	8.31
686.973	-15.69
687.002	-4.69
687.032	4.31
687.062	-1.69
687.092	10.31
687.121	-2.69
687.151	1.31
687.181	0.31
687.211	-0.69
687.24	-2.69
687.27	7.31
687.3	-4.69
687.33	-4.69
687.359	-30.69
687.389	3.31
687.419	-15.69
687.449	-2.69
687.478	-9.69
687.508	-3.69
687.538	8.31
687.568	4.31
687.597	-5.69
687.627	7.31
687.657	-2.69
687.686	2.31
687.716	13.31
687.746	-10.69
687.776	-19.69
687.805	5.31
687.835	-8.69
687.865	12.31
687.894	19.31
687.924	1.31
687.954	-4.69
687.983	0.31
688.013	18.31
688.043	1.31
688.072	7.31
688.102	14.31
688.132	-2.69
688.161	-14.69
688.191	3.31
688.221	5.31
688.25	-19.69
688.28	-7.69
688.31	-10.69
688.339	-11.69
688.369	-7.69
688.399	-21.69
688.428	-2.69
688.458	5.31
688.488	-7.69
688.517	-10.69
688.547	-7.69
688.576	29.31
688.606	16.31
688.636	-3.69
688.665	-0.69
688.695	7.31
688.725	-2.69
688.754	-1.69
688.784	3.31
688.813	6.31
688.843	6.31
688.873	-9.69
688.902	-1.69
688.932	-7.69
688.961	-6.69
688.991	9.31
689.02	6.31
689.05	-13.69
689.08	4.31
689.109	-2.69
689.139	0.31
689.168	3.31
689.198	-12.69
689.227	-3.69
689.257	-2.69
689.287	10.31
689.316	2.31
689.346	-14.69
689.375	-12.69
689.405	-0.69
689.434	1.31
689.464	6.31
689.493	-3.69
689.523	-7.69
689.552	0.31
689.582	-1.69
689.611	1.31
689.641	14.31
689.67	-4.69
689.7	-4.69
689.73	17.31
689.759	4.31
689.789	-5.69
689.818	-0.69
689.848	-0.69
689.877	0.31
689.906	-3.69
689.936	-14.69
689.965	11.31
689.995	-2.69
690.024	7.31
690.054	3.31
690.083	6.31
690.113	18.31
690.142	0.31
690.172	-2.69
690.201	9.31
690.231	0.31
690.26	4.31
690.29	1.31
690.319	3.31
690.348	-5.69
690.378	8.31
690.407	11.31
690.437	-24.69
690.466	-1.69
690.496	-13.69
690.525	3.31
690.555	-11.69
690.584	-2.69
690.613	-2.69
690.643	14.31
690.672	7.31
690.702	2.31
690.731	3.31
690.76	11.31
690.79	-0.69
690.819	-13.69
690.849	-8.69
690.878	-17.69
690.907	-6.69
690.937	2.31
690.966	16.31
690.996	-6.69
691.025	-2.69
691.054	-0.69
691.084	-2.69
691.113	-9.69
691.142	-5.69
691.172	3.31
691.201	0.31
691.23	-0.69
691.26	13.31
691.289	-4.69
691.319	-14.69
691.348	-5.69
691.377	0.31
691.407	-0.69
691.436	0.31
691.465	0.31
691.495	-10.69
691.524	-9.69
691.553	4.31
691.583	11.31
691.612	19.31
691.641	7.31
691.67	2.31
691.7	2.31
691.729	-17.69
691.758	0.31
691.788	-2.69
691.817	3.31
691.846	-10.69
691.876	-2.69
691.905	-3.69
691.934	-14.69
691.963	12.31
691.993	-0.69
692.022	-13.69
692.051	-24.69
692.081	4.31
692.11	25.31
692.139	-9.69
692.168	-2.69
692.198	17.31
692.227	8.31
692.256	-9.69
692.285	-2.69
692.315	17.31
692.344	-4.69
692.373	-5.69
692.402	-15.69
692.432	-2.69
692.461	1.31
692.49	-15.69
692.519	-13.69
692.548	-5.69
692.578	8.31
692.607	-19.69
692.636	-14.69
692.665	0.31
692.694	22.31
692.724	-0.69
692.753	2.31
692.782	-4.69
692.811	4.31
692.84	-0.69
692.87	-1.69
692.899	-10.69
692.928	3.31
692.957	-21.69
692.986	4.31
693.016	-3.69
693.045	9.31
693.074	8.31
693.103	-13.69
693.132	0.31
693.161	3.31
693.191	-6.69
693.22	-15.69
693.249	-11.69
693.278	-0.69
693.307	14.31
693.336	-4.69
693.365	-3.69
693.395	-6.69
693.424	5.31
693.453	11.31
693.482	4.31
693.511	17.31
693.54	7.31
693.569	-1.69
693.598	-6.69
693.628	9.31
693.657	14.31
693.686	15.31
693.715	18.31
693.744	27.31
693.773	17.31
693.802	1.31
693.831	-5.69
693.86	11.31
693.889	-11.69
693.919	2.31
693.948	2.31
693.977	14.31
694.006	-10.69
694.035	-6.69
694.064	-10.69
694.093	3.31
694.122	2.31
694.151	12.31
694.18	5.31
694.209	18.31
694.238	16.31
694.267	35.31
694.296	13.31
694.325	-7.69
694.354	-0.69
694.383	-2.69
694.412	1.31
694.441	-0.69
694.471	1.31
694.5	-8.69
694.529	7.31
694.558	23.31
694.587	-2.69
694.616	1.31
694.645	-11.69
694.674	3.31
694.703	18.31
694.732	2.31
694.761	3.31
694.79	17.31
694.819	-2.69
694.848	-8.69
694.877	16.31
694.906	13.31
694.935	3.31
694.963	16.31
694.992	-18.69
695.021	6.31
695.05	16.31
695.079	-12.69
695.108	-20.69
695.137	20.31
695.166	8.31
695.195	-6.69
695.224	3.31
695.253	-6.69
695.282	4.31
695.311	11.31
695.34	2.31
695.369	7.31
695.398	-4.69
695.427	15.31
695.456	8.31
695.485	6.31
695.513	8.31
695.542	-5.69
695.571	-9.69
695.6	7.31
695.629	7.31
695.658	4.31
695.687	0.31
695.716	0.31
695.745	18.31
695.774	-4.69
695.802	-23.69
695.831	-5.69
695.86	-1.69
695.889	10.31
695.918	-4.69
695.947	4.31
695.976	-4.69
696.005	-4.69
696.033	0.31
696.062	14.31
696.091	10.31
696.12	-0.69
696.149	9.31
696.178	-1.69
696.207	10.31
696.235	-13.69
696.264	10.31
696.293	-7.69
696.322	-1.69
696.351	1.31
696.38	-15.69
696.408	1.31
696.437	-0.69
696.466	-5.69
696.495	19.31
696.524	11.31
696.553	6.31
696.581	4.31
696.61	-4.69
696.639	-6.69
696.668	0.31
696.697	4.31
696.725	18.31
696.754	-3.69
696.783	-2.69
696.812	-10.69
696.84	2.31
696.869	-0.69
696.898	-3.69
696.927	3.31
696.956	7.31
696.984	11.31
697.013	-2.69
697.042	0.31
697.071	10.31
697.099	20.31
697.128	2.31
697.157	7.31
697.186	-0.69
697.214	3.31
697.243	10.31
697.272	11.31
697.301	13.31
697.329	8.31
697.358	9.31
697.387	31.31
697.415	14.31
697.444	-13.69
697.473	5.31
697.502	-8.69
697.53	-4.69
697.559	13.31
697.588	5.31
697.616	12.31
697.645	-0.69
697.674	17.31
697.703	-4.69
697.731	13.31
697.76	8.31
697.789	-3.69
697.817	0.31
697.846	8.31
697.875	-4.69
697.903	15.31
697.932	12.31
697.961	16.31
697.989	9.31
698.018	0.31
698.047	13.31
698.075	28.31
698.104	4.31
698.133	8.31
698.161	-10.69
698.19	1.31
698.218	-7.69
698.247	-0.69
698.276	-6.69
698.304	12.31
698.333	-7.69
698.362	-0.69
698.39	0.31
698.419	3.31
698.447	-5.69
698.476	-8.69
698.505	1.31
698.533	4.31
698.562	3.31
698.591	-11.69
698.619	-5.69
698.648	4.31
698.676	9.31
698.705	-1.69
698.733	-14.69
698.762	6.31
698.791	7.31
698.819	-1.69
698.848	10.31
698.876	21.31
698.905	8.31
698.933	9.31
698.962	10.31
698.991	-8.69
699.019	14.31
699.048	7.31
699.076	2.31
699.105	-8.69
699.133	-3.69
699.162	5.31
699.19	19.31
699.219	5.31
699.248	0.31
699.276	3.31
699.305	-10.69
699.333	6.31
699.362	-1.69
699.39	-6.69
699.419	-2.69
699.447	-4.69
699.476	-3.69
699.504	-2.69
699.533	5.31
699.561	7.31
699.59	6.31
699.618	-11.69
699.647	8.31
699.675	-5.69
699.704	-1.69
699.732	-16.69
699.761	10.31
699.789	1.31
699.818	11.31
699.846	4.31
699.874	-9.69
699.903	-4.69
699.931	-6.69
699.96	1.31
699.988	13.31
700.017	-7.69
700.045	-8.69
700.074	-8.69
700.102	-3.69
700.13	3.31
700.159	10.31
700.187	5.31
700.216	3.31
700.244	-8.69
700.273	-4.69
700.301	-11.69
700.329	15.31
700.358	19.31
700.386	-0.69
700.415	-6.69
700.443	3.31
700.472	-0.69
700.5	21.31
700.528	4.31
700.557	9.31
700.585	5.31
700.614	8.31
700.642	4.31
700.67	7.31
700.699	1.31
700.727	-4.69
700.755	-4.69
700.784	7.31
700.812	-2.69
700.841	3.31
700.869	1.31
700.897	-8.69
700.926	-14.69
700.954	4.31
700.982	8.31
701.011	3.31
701.039	8.31
701.067	8.31
701.096	14.31
701.124	-1.69
701.152	-1.69
701.181	-5.69
701.209	-12.69
701.237	-7.69
701.266	-6.69
701.294	-7.69
701.322	-11.69
701.351	6.31
701.379	11.31
701.407	-18.69
701.435	-4.69
701.464	6.31
701.492	12.31
701.52	1.31
701.549	-2.69
701.577	-9.69
701.605	-5.69
701.634	14.31
701.662	1.31
701.69	-3.69
701.718	-8.69
701.747	17.31
701.775	11.31
701.803	-2.69
701.831	11.31
701.86	-10.69
701.888	-4.69
701.916	2.31
701.944	0.31
701.973	-15.69
702.001	-4.69
702.029	-9.69
702.057	-17.69
702.086	-23.69
702.114	-15.69
702.142	-3.69
702.17	-8.69
702.199	-0.69
702.227	0.31
702.255	-9.69
702.283	-5.69
702.311	14.31
702.34	-1.69
702.368	-1.69
702.396	4.31
702.424	1.31
702.452	5.31
702.481	-14.69
702.509	-29.69
702.537	-12.69
702.565	-2.69
702.593	-12.69
702.621	2.31
702.65	9.31
702.678	-10.69
702.706	4.31
702.734	0.31
702.762	-0.69
702.79	-3.69
702.819	-0.69
702.847	-6.69
702.875	15.31
702.903	11.31
702.931	8.31
702.959	-1.69
702.988	-8.69
703.016	-0.69
703.044	5.31
703.072	4.31
703.1	-15.69
703.128	-4.69
703.156	-4.69
703.184	-2.69
703.212	4.31
703.241	-5.69
703.269	4.31
703.297	11.31
703.325	-9.69
703.353	-2.69
703.381	-0.69
703.409	-4.69
703.437	-10.69
703.465	-7.69
703.493	-7.69
703.522	-1.69
703.55	1.31
703.578	-0.69
703.606	-10.69
703.634	-11.69
703.662	-12.69
703.69	3.31
703.718	0.31
703.746	17.31
703.774	-1.69
703.802	6.31
703.83	0.31
703.858	1.31
703.886	-7.69
703.914	-25.69
703.942	-0.69
703.97	-8.69
703.998	-1.69
704.027	7.31
704.055	3.31
704.083	-7.69
704.111	-5.69
704.139	0.31
704.167	-10.69
704.195	-5.69
704.223	-5.69
704.251	3.31
704.279	11.31
704.307	-3.69
704.335	-5.69
704.363	6.31
704.391	-14.69
704.419	-9.69
704.447	-10.69
704.475	-1.69
704.503	0.31
704.531	0.31
704.558	9.31
704.586	11.31
704.614	-0.69
704.642	5.31
704.67	-16.69
704.698	-4.69
704.726	-0.69
704.754	0.31
704.782	-4.69
704.81	-12.69
704.838	19.31
704.866	5.31
704.894	-8.69
704.922	-17.69
704.95	-9.69
704.978	-10.69
705.006	-8.69
705.034	4.31
705.061	-7.69
705.089	0.31
705.117	-16.69
705.145	4.31
705.173	-7.69
705.201	-11.69
705.229	-3.69
705.257	-10.69
705.285	9.31
705.313	-5.69
705.34	-6.69
705.368	-11.69
705.396	3.31
705.424	3.31
705.452	-13.69
705.48	-3.69
705.508	1.31
705.536	-9.69
705.563	-0.69
705.591	1.31
705.619	0.31
705.647	-17.69
705.675	-2.69
705.703	-10.69
705.731	-15.69
705.758	-5.69
705.786	-8.69
705.814	13.31
705.842	4.31
705.87	6.31
705.898	15.31
705.925	-11.69
705.953	2.31
705.981	-0.69
706.009	-14.69
706.037	4.31
706.065	4.31
706.092	1.31
706.12	-2.69
706.148	-3.69
706.176	-6.69
706.204	16.31
706.231	7.31
706.259	2.31
706.287	-3.69
706.315	18.31
706.342	-0.69
706.37	8.31
706.398	6.31
706.426	-5.69
706.454	-5.69
706.481	0.31
706.509	1.31
706.537	-9.69
706.565	-0.69
706.592	2.31
706.62	-9.69
706.648	7.31
706.676	-8.69
706.703	-3.69
706.731	0.31
706.759	-7.69
706.787	-5.69
706.814	-4.69
706.842	-18.69
706.87	-16.69
706.897	-1.69
706.925	1.31
706.953	6.31
706.981	-2.69
707.008	-1.69
707.036	-5.69
707.064	2.31
707.091	0.31
707.119	9.31
707.147	-1.69
707.174	-9.69
707.202	7.31
707.23	0.31
707.258	-0.69
707.285	-11.69
707.313	-15.69
707.341	0.31
707.368	15.31
707.396	1.31
707.424	0.31
707.451	11.31
707.479	8.31
707.507	-1.69
707.534	-9.69
707.562	-21.69
707.59	-4.69
707.617	-3.69
707.645	-6.69
707.672	11.31
707.7	-2.69
707.728	17.31
707.755	-1.69
707.783	-9.69
707.811	2.31
707.838	-6.69
707.866	-1.69
707.893	2.31
707.921	-13.69
707.949	-9.69
707.976	-2.69
708.004	-2.69
708.031	-5.69
708.059	-1.69
708.087	5.31
708.114	-8.69
708.142	-12.69
708.169	-8.69
708.197	-2.69
708.225	7.31
708.252	-16.69
708.28	-6.69
708.307	-13.69
708.335	-3.69
708.362	-18.69
708.39	-3.69
708.418	-4.69
708.445	-7.69
708.473	-18.69
708.5	-22.69
708.528	5.31
708.555	9.31
708.583	-4.69
708.61	-8.69
708.638	-7.69
708.665	-6.69
708.693	-10.69
708.72	-7.69
708.748	0.31
708.776	5.31
708.803	2.31
708.831	12.31
708.858	8.31
708.886	1.31
708.913	-7.69
708.941	1.31
708.968	4.31
708.996	-5.69
709.023	19.31
709.051	-2.69
709.078	-7.69
709.105	-7.69
709.133	-4.69
709.16	-7.69
709.188	32.31
709.215	13.31
709.243	-1.69
709.27	3.31
709.298	-6.69
709.325	-3.69
709.353	-3.69
709.38	-0.69
709.408	-3.69
709.435	-6.69
709.462	2.31
709.49	-1.69
709.517	0.31
709.545	-6.69
709.572	-2.69
709.6	-6.69
709.627	-4.69
709.655	-0.69
709.682	5.31
709.709	-10.69
709.737	-10.69
709.764	-16.69
709.792	13.31
709.819	7.31
709.846	2.31
709.874	-2.69
709.901	8.31
709.929	11.31
709.956	7.31
709.983	-2.69
710.011	-19.69
710.038	-6.69
710.066	10.31
710.093	-4.69
710.12	-3.69
710.148	2.31
710.175	-17.69
710.202	-18.69
710.23	1.31
710.257	-4.69
710.284	-0.69
710.312	-15.69
710.339	-12.69
710.366	8.31
710.394	-4.69
710.421	1.31
710.448	17.31
710.476	-15.69
710.503	4.31
710.53	3.31
710.558	9.31
710.585	11.31
710.612	-11.69
710.64	-6.69
710.667	-6.69
710.694	-13.69
710.722	-2.69
710.749	-11.69
710.776	8.31
710.804	19.31
710.831	-5.69
710.858	-9.69
710.885	-7.69
710.913	7.31
710.94	10.31
710.967	3.31
710.995	6.31
711.022	-5.69
711.049	-7.69
711.076	-11.69
711.104	-2.69
711.131	-8.69
711.158	-4.69
711.185	0.31
711.213	-9.69
711.24	-5.69
711.267	-15.69
711.294	1.31
711.322	2.31
711.349	-0.69
711.376	-9.69
711.403	-6.69
711.431	-10.69
711.458	3.31
711.485	5.31
711.512	-11.69
711.54	-8.69
711.567	-7.69
711.594	-7.69
711.621	-10.69
711.648	5.31
711.676	3.31
711.703	-3.69
711.73	-24.69
711.757	-2.69
711.784	-0.69
711.812	-12.69
711.839	-13.69
711.866	-7.69
711.893	-11.69
711.92	0.31
711.947	-1.69
711.975	8.31
712.002	0.31
712.029	-2.69
712.056	8.31
712.083	11.31
712.11	-29.69
712.138	-8.69
712.165	2.31
712.192	-2.69
712.219	-21.69
712.246	-21.69
712.273	-6.69
712.3	-1.69
712.328	-11.69
712.355	-18.69
712.382	-20.69
712.409	5.31
712.436	-9.69
712.463	3.31
712.49	14.31
712.517	2.31
712.544	2.31
712.572	-10.69
712.599	-12.69
712.626	-0.69
712.653	-10.69
712.68	-10.69
712.707	-8.69
712.734	-8.69
712.761	0.31
712.788	-2.69
712.815	1.31
712.842	5.31
712.87	15.31
712.897	-4.69
712.924	-2.69
712.951	1.31
712.978	15.31
713.005	6.31
713.032	8.31
713.059	3.31
713.086	4.31
713.113	-0.69
713.14	-17.69
713.167	6.31
713.194	13.31
713.221	15.31
713.248	5.31
713.275	0.31
713.302	-14.69
713.329	2.31
713.356	-7.69
713.383	-9.69
713.41	3.31
713.437	-19.69
713.464	-3.69
713.491	13.31
713.518	1.31
713.545	-8.69
713.572	-7.69
713.599	-4.69
713.626	10.31
713.653	8.31
713.68	-12.69
713.707	-9.69
713.734	-10.69
713.761	-6.69
713.788	-0.69
713.815	-3.69
713.842	-5.69
713.869	7.31
713.896	4.31
713.923	-1.69
713.95	-6.69
713.977	-4.69
714.004	-8.69
714.031	-22.69
714.058	-0.69
714.085	-8.69
714.112	11.31
714.139	-14.69
714.165	-6.69
714.192	-15.69
714.219	13.31
714.246	1.31
714.273	-15.69
714.3	9.31
714.327	6.31
714.354	10.31
714.381	-10.69
714.408	0.31
714.435	-0.69
714.461	-4.69
714.488	-10.69
714.515	2.31
714.542	-11.69
714.569	-13.69
714.596	-11.69
714.623	-14.69
714.65	-13.69
714.677	-7.69
714.703	-6.69
714.73	-7.69
714.757	9.31
714.784	-1.69
714.811	1.31
714.838	0.31
714.865	-3.69
714.891	11.31
714.918	0.31
714.945	-1.69
714.972	12.31
714.999	17.31
715.026	-6.69
715.052	20.31
715.079	-10.69
715.106	3.31
715.133	-8.69
715.16	-12.69
715.187	-2.69
715.213	9.31
715.24	-21.69
715.267	-6.69
715.294	-10.69
715.321	0.31
715.347	5.31
715.374	-0.69
715.401	5.31
715.428	5.31
715.455	6.31
715.481	-6.69
715.508	7.31
715.535	0.31
715.562	24.31
715.588	13.31
715.615	-5.69
715.642	8.31
715.669	4.31
715.695	0.31
715.722	-7.69
715.749	2.31
715.776	1.31
715.802	1.31
715.829	4.31
715.856	2.31
715.883	11.31
715.909	-3.69
715.936	-3.69
715.963	-2.69
715.99	-19.69
716.016	-3.69
716.043	9.31
716.07	-3.69
716.096	0.31
716.123	-0.69
716.15	-8.69
716.177	5.31
716.203	17.31
716.23	4.31
716.257	-8.69
716.283	1.31
716.31	-2.69
716.337	-12.69
716.363	-4.69
716.39	-3.69
716.417	-3.69
716.443	-1.69
716.47	8.31
716.497	-2.69
716.523	8.31
716.55	4.31
716.577	13.31
716.603	-3.69
716.63	-2.69
716.657	4.31
716.683	8.31
716.71	3.31
716.737	13.31
716.763	6.31
716.79	7.31
716.817	0.31
716.843	7.31
716.87	-5.69
716.897	-4.69
716.923	8.31
716.95	-15.69
716.976	-7.69
717.003	-3.69
717.03	1.31
717.056	8.31
717.083	0.31
717.109	-11.69
717.136	-2.69
717.163	-15.69
717.189	2.31
717.216	-4.69
717.242	-0.69
717.269	-6.69
717.296	8.31
717.322	17.31
717.349	7.31
717.375	9.31
717.402	12.31
717.428	24.31
717.455	15.31
717.481	14.31
717.508	13.31
717.535	16.31
717.561	-1.69
717.588	-3.69
717.614	-9.69
717.641	3.31
717.667	-13.69
717.694	8.31
717.72	-2.69
717.747	11.31
717.773	-9.69
717.8	-5.69
717.826	-3.69
717.853	-7.69
717.88	9.31
717.906	3.31
717.933	0.31
717.959	-6.69
717.986	-5.69
718.012	11.31
718.039	1.31
718.065	13.31
718.092	-0.69
718.118	-10.69
718.144	-1.69
718.171	10.31
718.197	15.31
718.224	0.31
718.25	10.31
718.277	7.31
718.303	-1.69
718.33	-1.69
718.356	-10.69
718.383	-5.69
718.409	0.31
718.436	-2.69
718.462	-9.69
718.489	-7.69
718.515	5.31
718.541	23.31
718.568	0.31
718.594	0.31
718.621	-6.69
718.647	-11.69
718.674	3.31
718.7	1.31
718.726	-20.69
718.753	-11.69
718.779	-1.69
718.806	-2.69
718.832	-10.69
718.858	-11.69
718.885	-8.69
718.911	2.31
718.938	11.31
718.964	-3.69
718.99	3.31
719.017	-2.69
719.043	4.31
719.07	2.31
719.096	-9.69
719.122	-2.69
719.149	1.31
719.175	-8.69
719.201	-7.69
719.228	-4.69
719.254	-4.69
719.281	-1.69
719.307	0.31
719.333	-3.69
719.36	-0.69
719.386	-11.69
719.412	10.31
719.439	-11.69
719.465	-0.69
719.491	-3.69
719.518	9.31
719.544	-0.69
719.57	11.31
719.597	7.31
719.623	6.31
719.649	-3.69
719.675	-2.69
719.702	-0.69
719.728	17.31
719.754	-2.69
719.781	-0.69
719.807	-8.69
719.833	1.31
719.86	5.31
719.886	6.31
719.912	1.31
719.938	2.31
719.965	-8.69
719.991	0.31
720.017	-5.69
720.044	-11.69
720.07	-8.69
720.096	-2.69
720.122	0.31
720.149	17.31
720.175	27.31
720.201	22.31
720.227	1.31
720.254	-8.69
720.28	0.31
720.306	-4.69
720.332	-5.69
720.359	6.31
720.385	14.31
720.411	-2.69
720.437	-10.69
720.463	-9.69
720.49	1.31
720.516	-8.69
720.542	-3.69
720.568	-0.69
720.595	3.31
720.621	7.31
720.647	3.31
720.673	16.31
720.699	2.31
720.725	-2.69
720.752	2.31
720.778	-1.69
720.804	11.31
720.83	4.31
720.856	-0.69
720.883	-11.69
720.909	0.31
720.935	14.31
720.961	-5.69
720.987	-3.69
721.013	-1.69
721.04	3.31
721.066	1.31
721.092	9.31
721.118	20.31
721.144	-2.69
721.17	-4.69
721.196	-0.69
721.223	-5.69
721.249	-2.69
721.275	17.31
721.301	1.31
721.327	6.31
721.353	5.31
721.379	-0.69
721.405	9.31
721.432	11.31
721.458	-7.69
721.484	-7.69
721.51	-14.69
721.536	-8.69
721.562	0.31
721.588	8.31
721.614	-1.69
721.64	-8.69
721.666	-7.69
721.693	-10.69
721.719	-21.69
721.745	-13.69
721.771	-6.69
721.797	-3.69
721.823	-9.69
721.849	11.31
721.875	23.31
721.901	12.31
721.927	6.31
721.953	15.31
721.979	6.31
722.005	7.31
722.031	-4.69
722.057	8.31
722.083	-5.69
722.109	-7.69
722.135	3.31
722.161	15.31
722.187	-4.69
722.214	-3.69
722.24	-2.69
722.266	-9.69
722.292	0.31
722.318	12.31
722.344	-5.69
722.37	5.31
722.396	12.31
722.422	-22.69
722.448	3.31
722.474	-5.69
722.5	-8.69
722.526	1.31
722.552	-0.69
722.578	14.31
722.603	11.31
722.629	-13.69
722.655	-19.69
722.681	-5.69
722.707	-3.69
722.733	-12.69
722.759	-4.69
722.785	-11.69
722.811	-0.69
722.837	-12.69
722.863	0.31
722.889	20.31
722.915	1.31
722.941	-5.69
722.967	-5.69
722.993	4.31
723.019	-8.69
723.045	1.31
723.071	0.31
723.097	-11.69
723.122	-0.69
723.148	-8.69
723.174	0.31
723.2	6.31
723.226	-3.69
723.252	-28.69
723.278	-1.69
723.304	-1.69
723.33	-11.69
723.356	-18.69
723.381	-7.69
723.407	-18.69
723.433	11.31
723.459	-2.69
723.485	8.31
723.511	3.31
723.537	-9.69
723.563	-5.69
723.588	-0.69
723.614	-13.69
723.64	-23.69
723.666	-0.69
723.692	3.31
723.718	10.31
723.744	2.31
723.769	-1.69
723.795	-4.69
723.821	10.31
723.847	3.31
723.873	-4.69
723.899	3.31
723.924	3.31
723.95	4.31
723.976	-8.69
724.002	10.31
724.028	1.31
724.053	9.31
724.079	-2.69
724.105	-8.69
724.131	6.31
724.157	-4.69
724.182	-3.69
724.208	-3.69
724.234	-0.69
724.26	-5.69
724.286	-3.69
724.311	-5.69
724.337	-3.69
724.363	-2.69
724.389	1.31
724.415	-4.69
724.44	7.31
724.466	-0.69
724.492	-11.69
724.518	-2.69
724.543	-0.69
724.569	1.31
724.595	-6.69
724.621	-4.69
724.646	-10.69
724.672	-5.69
724.698	-20.69
724.723	-15.69
724.749	-13.69
724.775	7.31
724.801	9.31
724.826	-4.69
724.852	6.31
724.878	-11.69
724.904	-7.69
724.929	-3.69
724.955	0.31
724.981	-11.69
725.006	7.31
725.032	-14.69
725.058	17.31
725.083	-6.69
725.109	-5.69
725.135	-0.69
725.161	15.31
725.186	9.31
725.212	-11.69
725.238	-6.69
725.263	-0.69
725.289	-16.69
725.315	-19.69
725.34	-1.69
725.366	8.31
725.392	-10.69
725.417	2.31
725.443	1.31
725.468	-0.69
725.494	5.31
725.52	15.31
725.545	-10.69
725.571	-4.69
725.597	-4.69
725.622	-2.69
725.648	-3.69
725.674	14.31
725.699	-7.69
725.725	5.31
725.75	29.31
725.776	-0.69
725.802	-0.69
725.827	2.31
725.853	6.31
725.878	-7.69
725.904	-7.69
725.93	-0.69
725.955	-25.69
725.981	-7.69
726.006	4.31
726.032	14.31
726.057	-3.69
726.083	-4.69
726.109	-7.69
726.134	6.31
726.16	17.31
726.185	8.31
726.211	1.31
726.236	-5.69
726.262	1.31
726.288	-3.69
726.313	25.31
726.339	-1.69
726.364	9.31
726.39	19.31
726.415	5.31
726.441	-0.69
726.466	-13.69
726.492	8.31
726.517	-9.69
726.543	-6.69
726.568	-4.69
726.594	-8.69
726.619	9.31
726.645	2.31
726.67	5.31
726.696	14.31
726.721	-6.69
726.747	-11.69
726.772	6.31
726.798	1.31
726.823	7.31
726.849	-3.69
726.874	-4.69
726.9	19.31
726.925	0.31
726.951	-9.69
726.976	3.31
727.002	-8.69
727.027	-13.69
727.053	8.31
727.078	-13.69
727.104	15.31
727.129	-15.69
727.155	-0.69
727.18	19.31
727.205	10.31
727.231	-15.69
727.256	-1.69
727.282	1.31
727.307	12.31
727.333	-0.69
727.358	-9.69
727.383	-16.69
727.409	-12.69
727.434	-6.69
727.46	-11.69
727.485	-7.69
727.511	3.31
727.536	-21.69
727.561	-4.69
727.587	-11.69
727.612	1.31
727.637	0.31
727.663	-0.69
727.688	6.31
727.714	-4.69
727.739	-6.69
727.764	-4.69
727.79	11.31
727.815	9.31
727.841	12.31
727.866	-0.69
727.891	-3.69
727.917	-10.69
727.942	-6.69
727.967	-8.69
727.993	-12.69
728.018	0.31
728.043	-2.69
728.069	11.31
728.094	3.31
728.119	-2.69
728.145	10.31
728.17	-4.69
728.195	-4.69
728.221	19.31
728.246	-4.69
728.271	-11.69
728.297	-8.69
728.322	-0.69
728.347	-2.69
728.373	-0.69
728.398	-5.69
728.423	-16.69
728.448	4.31
728.474	-0.69
728.499	0.31
728.524	-9.69
728.55	-20.69
728.575	-6.69
728.6	2.31
728.625	-15.69
728.651	0.31
728.676	-0.69
728.701	1.31
728.727	-5.69
728.752	-20.69
728.777	-8.69
728.802	1.31
728.828	16.31
728.853	-0.69
728.878	-18.69
728.903	-5.69
728.929	-23.69
728.954	-14.69
728.979	3.31
729.004	5.31
729.03	-14.69
729.055	0.31
729.08	-15.69
729.105	-11.69
729.13	-6.69
729.156	5.31
729.181	-8.69
729.206	-12.69
729.231	-5.69
729.256	6.31
729.282	3.31
729.307	-1.69
729.332	-5.69
729.357	-15.69
729.382	8.31
729.408	4.31
729.433	4.31
729.458	-0.69
729.483	7.31
729.508	11.31
729.533	9.31
729.559	4.31
729.584	-15.69
729.609	13.31
729.634	12.31
729.659	2.31
729.684	-18.69
729.71	17.31
729.735	8.31
729.76	0.31
729.785	5.31
729.81	5.31
729.835	-8.69
729.86	10.31
729.886	11.31
729.911	4.31
729.936	-23.69
729.961	-3.69
729.986	-0.69
730.011	7.31
730.036	3.31
730.061	10.31
730.086	22.31
730.112	-7.69
730.137	4.31
730.162	14.31
730.187	-18.69
730.212	1.31
730.237	-4.69
730.262	-8.69
730.287	-1.69
730.312	19.31
730.337	-20.69
730.362	13.31
730.387	3.31
730.413	-2.69
730.438	-10.69
730.463	-7.69
730.488	-3.69
730.513	-3.69
730.538	4.31
730.563	-0.69
730.588	5.31
730.613	18.31
730.638	-0.69
730.663	-6.69
730.688	11.31
730.713	17.31
730.738	-11.69
730.763	5.31
730.788	-4.69
730.813	8.31
730.838	0.31
730.863	2.31
730.888	-12.69
730.913	-8.69
730.938	-26.69
730.963	0.31
730.988	7.31
731.013	22.31
731.038	5.31
731.063	2.31
731.088	10.31
731.113	-0.69
731.138	-7.69
731.163	-0.69
731.188	-3.69
731.213	16.31
731.238	3.31
731.263	3.31
731.288	-14.69
731.313	16.31
731.338	12.31
731.363	2.31
731.388	6.31
731.413	1.31
731.438	13.31
731.463	6.31
731.487	0.31
731.512	-4.69
731.537	-10.69
731.562	-4.69
731.587	-6.69
731.612	3.31
731.637	-10.69
731.662	-3.69
731.687	-11.69
731.712	-15.69
731.737	2.31
731.762	-0.69
731.786	11.31
731.811	7.31
731.836	-4.69
731.861	5.31
731.886	1.31
731.911	9.31
731.936	14.31
731.961	8.31
731.986	-8.69
732.01	0.31
732.035	0.31
732.06	1.31
732.085	9.31
732.11	8.31
732.135	-7.69
732.16	-8.69
732.184	-12.69
732.209	-8.69
732.234	3.31
732.259	-0.69
732.284	9.31
732.309	-5.69
732.334	-12.69
732.358	-14.69
732.383	-18.69
732.408	-8.69
732.433	8.31
732.458	1.31
732.482	20.31
732.507	-5.69
732.532	2.31
732.557	13.31
732.582	17.31
732.607	-2.69
732.631	-19.69
732.656	-9.69
732.681	4.31
732.706	-8.69
732.73	-4.69
732.755	-7.69
732.78	-0.69
732.805	-7.69
732.83	-10.69
732.854	-4.69
732.879	2.31
732.904	2.31
732.929	1.31
732.953	10.31
732.978	4.31
733.003	-7.69
733.028	-20.69
733.052	7.31
733.077	-4.69
733.102	25.31
733.127	-2.69
733.151	12.31
733.176	0.31
733.201	-14.69
733.226	-6.69
733.25	-7.69
733.275	0.31
733.3	-10.69
733.324	2.31
733.349	-3.69
733.374	12.31
733.399	-1.69
733.423	2.31
733.448	-3.69
733.473	-2.69
733.497	-4.69
733.522	4.31
733.547	-2.69
733.571	26.31
733.596	-12.69
733.621	-11.69
733.646	-2.69
733.67	4.31
733.695	-8.69
733.72	-3.69
733.744	0.31
733.769	14.31
733.794	8.31
733.818	6.31
733.843	-9.69
733.867	-23.69
733.892	-3.69
733.917	4.31
733.941	6.31
733.966	-14.69
733.991	-19.69
734.015	14.31
734.04	6.31
734.065	9.31
734.089	17.31
734.114	-13.69
734.138	-2.69
734.163	-0.69
734.188	-6.69
734.212	4.31
734.237	11.31
734.261	-9.69
734.286	-16.69
734.311	-5.69
734.335	-3.69
734.36	-0.69
734.384	11.31
734.409	-6.69
734.434	-19.69
734.458	1.31
734.483	-9.69
734.507	-2.69
734.532	7.31
734.556	-0.69
734.581	-2.69
734.606	3.31
734.63	-9.69
734.655	11.31
734.679	17.31
734.704	4.31
734.728	2.31
734.753	-5.69
734.777	1.31
734.802	-0.69
734.826	3.31
734.851	1.31
734.876	11.31
734.9	-0.69
734.925	6.31
734.949	-3.69
734.974	0.31
734.998	12.31
735.023	-7.69
735.047	-6.69
735.072	9.31
735.096	-4.69
735.121	0.31
735.145	10.31
735.17	10.31
735.194	14.31
735.219	-5.69
735.243	0.31
735.268	3.31
735.292	9.31
735.317	-6.69
735.341	3.31
735.365	-16.69
735.39	-5.69
735.414	9.31
735.439	-2.69
735.463	4.31
735.488	4.31
735.512	6.31
735.537	4.31
735.561	3.31
735.586	-7.69
735.61	12.31
735.634	0.31
735.659	-4.69
735.683	7.31
735.708	-13.69
735.732	-4.69
735.757	4.31
735.781	10.31
735.805	4.31
735.83	-6.69
735.854	-0.69
735.879	2.31
735.903	9.31
735.927	-10.69
735.952	0.31
735.976	-2.69
736.001	1.31
736.025	19.31
736.049	16.31
736.074	2.31
736.098	-15.69
736.123	3.31
736.147	0.31
736.171	-7.69
736.196	-0.69
736.22	-5.69
736.244	-7.69
736.269	-4.69
736.293	-5.69
736.317	4.31
736.342	12.31
736.366	8.31
736.39	13.31
736.415	2.31
736.439	-2.69
736.463	16.31
736.488	-2.69
736.512	5.31
736.536	10.31
736.561	24.31
736.585	-0.69
736.609	1.31
736.634	5.31
736.658	-8.69
736.682	-8.69
736.707	-23.69
736.731	1.31
736.755	10.31
736.78	18.31
736.804	25.31
736.828	15.31
736.852	-5.69
736.877	-13.69
736.901	1.31
736.925	-0.69
736.949	-3.69
736.974	-16.69
736.998	-21.69
737.022	-0.69
737.047	-14.69
737.071	-5.69
737.095	9.31
737.119	22.31
737.144	17.31
737.168	-9.69
737.192	-5.69
737.216	1.31
737.241	-6.69
737.265	-6.69
737.289	8.31
737.313	-4.69
737.337	4.31
737.362	-5.69
737.386	3.31
737.41	-6.69
737.434	0.31
737.459	1.31
737.483	10.31
737.507	4.31
737.531	9.31
737.555	9.31
737.58	9.31
737.604	11.31
737.628	-9.69
737.652	-4.69
737.676	-5.69
737.701	-5.69
737.725	-1.69
737.749	10.31
737.773	9.31
737.797	4.31
737.821	0.31
737.846	11.31
737.87	31.31
737.894	11.31
737.918	-4.69
737.942	-8.69
737.966	-0.69
737.99	3.31
738.015	12.31
738.039	11.31
738.063	-15.69
738.087	6.31
738.111	8.31
738.135	2.31
738.159	-6.69
738.184	1.31
738.208	1.31
738.232	1.31
738.256	11.31
738.28	-4.69
738.304	9.31
738.328	-5.69
738.352	-6.69
738.376	-0.69
738.4	-3.69
738.425	-5.69
738.449	-9.69
738.473	11.31
738.497	2.31
738.521	-4.69
738.545	0.31
738.569	-0.69
738.593	9.31
738.617	10.31
738.641	7.31
738.665	-0.69
738.689	9.31
738.713	8.31
738.737	-5.69
738.762	7.31
738.786	3.31
738.81	-11.69
738.834	12.31
738.858	7.31
738.882	1.31
738.906	-24.69
738.93	-8.69
738.954	-7.69
738.978	0.31
739.002	0.31
739.026	23.31
739.05	0.31
739.074	3.31
739.098	18.31
739.122	12.31
739.146	-3.69
739.17	12.31
739.194	7.31
739.218	-7.69
739.242	-3.69
739.266	-2.69
739.29	0.31
739.314	16.31
739.338	14.31
739.362	4.31
739.386	1.31
739.41	3.31
739.434	-13.69
739.458	18.31
739.482	4.31
739.506	13.31
739.53	-8.69
739.554	11.31
739.577	8.31
739.601	4.31
739.625	-10.69
739.649	2.31
739.673	-6.69
739.697	-0.69
739.721	-3.69
739.745	15.31
739.769	12.31
739.793	4.31
739.817	15.31
739.841	-13.69
739.865	1.31
739.889	-6.69
739.912	9.31
739.936	-1.69
739.96	-2.69
739.984	4.31
740.008	-4.69
740.032	-0.69
740.056	-1.69
740.08	6.31
740.104	-8.69
740.127	4.31
740.151	7.31
740.175	4.31
740.199	-5.69
740.223	46.31
740.247	0.31
740.271	11.31
740.295	-7.69
740.318	-6.69
740.342	0.31
740.366	11.31
740.39	4.31
740.414	-4.69
740.438	-14.69
740.461	25.31
740.485	4.31
740.509	-7.69
740.533	7.31
740.557	-2.69
740.581	-0.69
740.604	-19.69
740.628	-9.69
740.652	16.31
740.676	3.31
740.7	12.31
740.723	-3.69
740.747	-3.69
740.771	0.31
740.795	-24.69
740.819	3.31
740.842	-3.69
740.866	4.31
740.89	12.31
740.914	7.31
740.938	-3.69
740.961	21.31
740.985	-6.69
741.009	-0.69
741.033	-8.69
741.056	-8.69
741.08	-6.69
741.104	-10.69
741.128	-7.69
741.151	5.31
741.175	-0.69
741.199	7.31
741.223	-5.69
741.246	-18.69
741.27	10.31
741.294	5.31
741.318	-12.69
741.341	-22.69
741.365	-19.69
741.389	-7.69
741.413	11.31
741.436	12.31
741.46	-11.69
741.484	22.31
741.507	-9.69
741.531	30.31
741.555	16.31
741.579	-4.69
741.602	-15.69
741.626	17.31
741.65	-1.69
741.673	-2.69
741.697	8.31
741.721	1.31
741.744	-21.69
741.768	4.31
741.792	-4.69
741.815	-3.69
741.839	0.31
741.863	-3.69
741.886	15.31
741.91	10.31
741.934	-0.69
741.957	-21.69
741.981	4.31
742.005	5.31
742.028	-17.69
742.052	-16.69
742.075	4.31
742.099	0.31
742.123	-11.69
742.146	0.31
742.17	11.31
742.194	-6.69
742.217	-10.69
742.241	-8.69
742.264	-10.69
742.288	2.31
742.312	-13.69
742.335	4.31
742.359	0.31
742.382	10.31
742.406	10.31
742.43	-8.69
742.453	-8.69
742.477	-10.69
742.5	-2.69
742.524	-2.69
742.548	-7.69
742.571	-8.69
742.595	8.31
742.618	-0.69
742.642	-11.69
742.665	0.31
742.689	-3.69
742.712	12.31
742.736	9.31
742.76	-0.69
742.783	-3.69
742.807	-13.69
742.83	1.31
742.854	-12.69
742.877	-7.69
742.901	13.31
742.924	-7.69
742.948	0.31
742.971	1.31
742.995	-8.69
743.018	-16.69
743.042	-17.69
743.065	0.31
743.089	-8.69
743.112	-7.69
743.136	-4.69
743.159	-2.69
743.183	-5.69
743.206	-9.69
743.23	-15.69
743.253	-0.69
743.277	4.31
743.3	-16.69
743.324	-7.69
743.347	-5.69
743.371	0.31
743.394	-2.69
743.418	11.31
743.441	2.31
743.465	1.31
743.488	0.31
743.512	-1.69
743.535	-3.69
743.558	-5.69
743.582	-2.69
743.605	-3.69
743.629	4.31
743.652	14.31
743.676	-0.69
743.699	4.31
743.723	-4.69
743.746	4.31
743.769	3.31
743.793	-3.69
743.816	-9.69
743.84	16.31
743.863	1.31
743.886	0.31
743.91	8.31
743.933	9.31
743.957	7.31
743.98	-4.69
744.003	0.31
744.027	3.31
744.05	-3.69
744.074	9.31
744.097	-24.69
744.12	-8.69
744.144	-2.69
744.167	0.31
744.19	-4.69
744.214	-14.69
744.237	-13.69
744.26	8.31
744.284	-7.69
744.307	-20.69
744.331	-6.69
744.354	-13.69
744.377	-1.69
744.401	0.31
744.424	-13.69
744.447	-3.69
744.471	-10.69
