Data from HighRes_H2D2_15_04_11_07_2024_HR4C61891__48__15-05-39-243.txt Node

Date: Thu Nov 07 15:05:39 EST 2024
User: crc00042
Spectrometer: HR4C6189
Trigger mode: 4
Integration Time (sec): 1.000000E-1
Scans to average: 1
Electric dark correction enabled: true
Nonlinearity correction enabled: false
Boxcar width: 0
XAxis mode: Wavelengths
Number of Pixels in Spectrum: 3648
>>>>>Begin Spectral Data<<<<<
639.567	-19.77
639.602	-19.77
639.636	-19.77
639.67	-47.77
639.704	-16.77
639.738	-5.77
639.773	-6.77
639.807	-4.77
639.841	6.23
639.875	13.23
639.909	7.23
639.943	2.23
639.978	-13.77
640.012	-0.77
640.046	12.23
640.08	-0.77
640.114	3.23
640.148	-11.77
640.182	0.23
640.217	-0.77
640.251	14.23
640.285	11.23
640.319	-3.77
640.353	15.23
640.387	9.23
640.421	4.23
640.455	-3.77
640.49	4.23
640.524	2.23
640.558	10.23
640.592	2.23
640.626	-4.77
640.66	-1.77
640.694	-20.77
640.728	6.23
640.762	7.23
640.796	7.23
640.83	14.23
640.865	12.23
640.899	6.23
640.933	-2.77
640.967	-4.77
641.001	9.23
641.035	13.23
641.069	0.23
641.103	-6.77
641.137	-4.77
641.171	-10.77
641.205	10.23
641.239	-6.77
641.273	5.23
641.307	7.23
641.341	8.23
641.375	-7.77
641.409	-7.77
641.443	-11.77
641.477	0.23
641.511	-2.77
641.545	11.23
641.579	12.23
641.614	18.23
641.648	3.23
641.682	1.23
641.716	-0.77
641.75	7.23
641.784	-13.77
641.818	-8.77
641.852	-8.77
641.886	3.23
641.919	23.23
641.953	8.23
641.987	-3.77
642.021	-7.77
642.055	5.23
642.089	5.23
642.123	-8.77
642.157	-13.77
642.191	-3.77
642.225	18.23
642.259	-9.77
642.293	15.23
642.327	0.23
642.361	-20.77
642.395	30.23
642.429	22.23
642.463	23.23
642.497	2.23
642.531	-15.77
642.565	-8.77
642.599	-4.77
642.633	-5.77
642.666	18.23
642.7	14.23
642.734	18.23
642.768	-12.77
642.802	1.23
642.836	7.23
642.87	14.23
642.904	15.23
642.938	14.23
642.972	11.23
643.005	5.23
643.039	14.23
643.073	-9.77
643.107	20.23
643.141	-11.77
643.175	12.23
643.209	3.23
643.243	-10.77
643.276	-6.77
643.31	-15.77
643.344	-10.77
643.378	2.23
643.412	3.23
643.446	7.23
643.48	13.23
643.513	21.23
643.547	4.23
643.581	-7.77
643.615	12.23
643.649	15.23
643.683	7.23
643.716	-10.77
643.75	-5.77
643.784	-2.77
643.818	-8.77
643.852	-5.77
643.886	4.23
643.919	28.23
643.953	-5.77
643.987	3.23
644.021	12.23
644.055	0.23
644.088	1.23
644.122	-11.77
644.156	-0.77
644.19	3.23
644.224	10.23
644.257	12.23
644.291	10.23
644.325	-3.77
644.359	-4.77
644.392	14.23
644.426	4.23
644.46	13.23
644.494	15.23
644.527	-13.77
644.561	15.23
644.595	16.23
644.629	-9.77
644.662	7.23
644.696	3.23
644.73	-0.77
644.764	21.23
644.797	15.23
644.831	-0.77
644.865	4.23
644.899	4.23
644.932	28.23
644.966	10.23
645	12.23
645.033	-1.77
645.067	6.23
645.101	23.23
645.135	2.23
645.168	9.23
645.202	-0.77
645.236	-8.77
645.269	-1.77
645.303	0.23
645.337	-16.77
645.37	-3.77
645.404	14.23
645.438	6.23
645.471	-7.77
645.505	14.23
645.539	22.23
645.572	3.23
645.606	1.23
645.64	6.23
645.673	9.23
645.707	28.23
645.741	3.23
645.774	-0.77
645.808	12.23
645.842	-11.77
645.875	10.23
645.909	5.23
645.943	-3.77
645.976	3.23
646.01	9.23
646.043	13.23
646.077	13.23
646.111	14.23
646.144	14.23
646.178	26.23
646.212	-19.77
646.245	15.23
646.279	0.23
646.312	6.23
646.346	16.23
646.38	8.23
646.413	14.23
646.447	3.23
646.48	9.23
646.514	7.23
646.547	6.23
646.581	-10.77
646.615	1.23
646.648	5.23
646.682	8.23
646.715	13.23
646.749	19.23
646.782	-3.77
646.816	-9.77
646.85	10.23
646.883	15.23
646.917	6.23
646.95	1.23
646.984	3.23
647.017	-0.77
647.051	-2.77
647.084	9.23
647.118	9.23
647.151	-12.77
647.185	10.23
647.218	11.23
647.252	4.23
647.285	-8.77
647.319	-20.77
647.353	0.23
647.386	22.23
647.42	7.23
647.453	6.23
647.487	7.23
647.52	4.23
647.553	22.23
647.587	-2.77
647.62	8.23
647.654	14.23
647.687	3.23
647.721	11.23
647.754	9.23
647.788	13.23
647.821	-11.77
647.855	-0.77
647.888	13.23
647.922	20.23
647.955	17.23
647.989	3.23
648.022	19.23
648.055	8.23
648.089	11.23
648.122	35.23
648.156	0.23
648.189	16.23
648.223	21.23
648.256	11.23
648.29	7.23
648.323	-1.77
648.356	14.23
648.39	13.23
648.423	11.23
648.457	-8.77
648.49	11.23
648.523	8.23
648.557	-8.77
648.59	-7.77
648.624	-2.77
648.657	5.23
648.69	11.23
648.724	11.23
648.757	14.23
648.791	10.23
648.824	5.23
648.857	14.23
648.891	2.23
648.924	-1.77
648.957	23.23
648.991	3.23
649.024	21.23
649.057	14.23
649.091	8.23
649.124	16.23
649.158	26.23
649.191	34.23
649.224	4.23
649.258	4.23
649.291	11.23
649.324	0.23
649.358	7.23
649.391	27.23
649.424	10.23
649.458	6.23
649.491	9.23
649.524	-6.77
649.557	-0.77
649.591	-7.77
649.624	15.23
649.657	-2.77
649.691	16.23
649.724	7.23
649.757	12.23
649.791	3.23
649.824	7.23
649.857	11.23
649.89	2.23
649.924	-9.77
649.957	14.23
649.99	-11.77
650.023	-5.77
650.057	4.23
650.09	11.23
650.123	9.23
650.157	7.23
650.19	19.23
650.223	-7.77
650.256	-14.77
650.29	-6.77
650.323	-14.77
650.356	11.23
650.389	10.23
650.423	-2.77
650.456	0.23
650.489	2.23
650.522	8.23
650.555	15.23
650.589	24.23
650.622	12.23
650.655	-0.77
650.688	2.23
650.721	-4.77
650.755	-3.77
650.788	6.23
650.821	8.23
650.854	-2.77
650.887	11.23
650.921	3.23
650.954	-3.77
650.987	-0.77
651.02	-4.77
651.053	-0.77
651.087	0.23
651.12	28.23
651.153	10.23
651.186	4.23
651.219	-8.77
651.252	8.23
651.286	10.23
651.319	-8.77
651.352	-0.77
651.385	-3.77
651.418	0.23
651.451	27.23
651.484	11.23
651.518	-6.77
651.551	27.23
651.584	-7.77
651.617	12.23
651.65	10.23
651.683	17.23
651.716	-7.77
651.749	-22.77
651.783	-1.77
651.816	0.23
651.849	13.23
651.882	13.23
651.915	-1.77
651.948	8.23
651.981	17.23
652.014	4.23
652.047	-7.77
652.08	5.23
652.114	0.23
652.147	-1.77
652.18	7.23
652.213	33.23
652.246	9.23
652.279	-12.77
652.312	38.23
652.345	15.23
652.378	19.23
652.411	25.23
652.444	11.23
652.477	2.23
652.51	2.23
652.543	-8.77
652.576	12.23
652.609	3.23
652.642	-4.77
652.675	7.23
652.709	13.23
652.742	8.23
652.775	14.23
652.808	13.23
652.841	14.23
652.874	15.23
652.907	15.23
652.94	-2.77
652.973	-10.77
653.006	7.23
653.039	9.23
653.072	10.23
653.105	0.23
653.138	-18.77
653.171	0.23
653.204	12.23
653.237	-8.77
653.27	1.23
653.303	7.23
653.336	8.23
653.368	3.23
653.401	19.23
653.434	10.23
653.467	8.23
653.5	-17.77
653.533	-12.77
653.566	8.23
653.599	13.23
653.632	-5.77
653.665	-3.77
653.698	-13.77
653.731	6.23
653.764	15.23
653.797	9.23
653.83	17.23
653.863	3.23
653.896	11.23
653.929	3.23
653.961	3.23
653.994	1.23
654.027	-21.77
654.06	-3.77
654.093	17.23
654.126	16.23
654.159	-3.77
654.192	2.23
654.225	11.23
654.258	1.23
654.29	7.23
654.323	21.23
654.356	3.23
654.389	6.23
654.422	1.23
654.455	11.23
654.488	1.23
654.521	-16.77
654.553	3.23
654.586	7.23
654.619	4.23
654.652	15.23
654.685	15.23
654.718	11.23
654.751	22.23
654.783	7.23
654.816	11.23
654.849	-2.77
654.882	2.23
654.915	0.23
654.948	0.23
654.98	4.23
655.013	0.23
655.046	5.23
655.079	-12.77
655.112	-3.77
655.144	-2.77
655.177	15.23
655.21	17.23
655.243	6.23
655.276	2.23
655.308	3.23
655.341	2.23
655.374	2.23
655.407	-6.77
655.44	-8.77
655.472	5.23
655.505	14.23
655.538	8.23
655.571	9.23
655.603	-1.77
655.636	-6.77
655.669	11.23
655.702	7.23
655.734	-4.77
655.767	14.23
655.8	16.23
655.833	19.23
655.865	26.23
655.898	7.23
655.931	-7.77
655.964	11.23
655.996	12.23
656.029	35.23
656.062	24.23
656.095	45.23
656.127	80.23
656.16	201.23
656.193	652.23
656.225	976.23
656.258	556.23
656.291	218.23
656.324	172.23
656.356	367.23
656.389	772.23
656.422	685.23
656.454	236.23
656.487	88.23
656.52	39.23
656.552	12.23
656.585	14.23
656.618	12.23
656.65	10.23
656.683	4.23
656.716	7.23
656.748	1.23
656.781	3.23
656.814	-0.77
656.846	5.23
656.879	-7.77
656.912	4.23
656.944	-8.77
656.977	-8.77
657.01	-2.77
657.042	8.23
657.075	3.23
657.108	0.23
657.14	11.23
657.173	-1.77
657.205	28.23
657.238	12.23
657.271	12.23
657.303	-3.77
657.336	6.23
657.369	6.23
657.401	-1.77
657.434	2.23
657.466	4.23
657.499	10.23
657.532	-10.77
657.564	17.23
657.597	-8.77
657.629	-7.77
657.662	13.23
657.694	-0.77
657.727	-15.77
657.76	6.23
657.792	-0.77
657.825	3.23
657.857	11.23
657.89	7.23
657.922	3.23
657.955	-11.77
657.987	-4.77
658.02	25.23
658.053	25.23
658.085	8.23
658.118	18.23
658.15	1.23
658.183	19.23
658.215	5.23
658.248	6.23
658.28	7.23
658.313	28.23
658.345	25.23
658.378	21.23
658.41	6.23
658.443	15.23
658.475	13.23
658.508	0.23
658.54	-0.77
658.573	-20.77
658.605	-0.77
658.638	3.23
658.67	10.23
658.703	2.23
658.735	-12.77
658.768	8.23
658.8	3.23
658.833	25.23
658.865	6.23
658.898	-3.77
658.93	-0.77
658.963	10.23
658.995	-8.77
659.028	11.23
659.06	5.23
659.092	4.23
659.125	2.23
659.157	5.23
659.19	-16.77
659.222	-11.77
659.255	1.23
659.287	3.23
659.32	2.23
659.352	2.23
659.384	10.23
659.417	1.23
659.449	1.23
659.482	5.23
659.514	10.23
659.546	11.23
659.579	10.23
659.611	13.23
659.644	-7.77
659.676	5.23
659.708	-14.77
659.741	4.23
659.773	10.23
659.806	1.23
659.838	2.23
659.87	15.23
659.903	-3.77
659.935	2.23
659.967	8.23
660	-0.77
660.032	-20.77
660.065	8.23
660.097	11.23
660.129	6.23
660.162	-7.77
660.194	20.23
660.226	19.23
660.259	18.23
660.291	-8.77
660.323	-8.77
660.356	4.23
660.388	-0.77
660.42	0.23
660.453	9.23
660.485	11.23
660.517	15.23
660.55	4.23
660.582	3.23
660.614	10.23
660.647	-6.77
660.679	-8.77
660.711	3.23
660.743	-18.77
660.776	-2.77
660.808	-17.77
660.84	-5.77
660.873	10.23
660.905	11.23
660.937	9.23
660.969	-15.77
661.002	0.23
661.034	18.23
661.066	15.23
661.099	29.23
661.131	18.23
661.163	-1.77
661.195	-1.77
661.228	11.23
661.26	-6.77
661.292	-6.77
661.324	10.23
661.357	6.23
661.389	6.23
661.421	14.23
661.453	-5.77
661.485	19.23
661.518	12.23
661.55	-19.77
661.582	-6.77
661.614	0.23
661.647	7.23
661.679	0.23
661.711	-13.77
661.743	-17.77
661.775	-11.77
661.808	9.23
661.84	-4.77
661.872	9.23
661.904	3.23
661.936	10.23
661.969	-5.77
662.001	3.23
662.033	2.23
662.065	2.23
662.097	14.23
662.129	21.23
662.162	-0.77
662.194	3.23
662.226	1.23
662.258	1.23
662.29	-6.77
662.322	-4.77
662.355	-2.77
662.387	19.23
662.419	7.23
662.451	5.23
662.483	-4.77
662.515	-15.77
662.547	-8.77
662.58	-5.77
662.612	8.23
662.644	-0.77
662.676	0.23
662.708	21.23
662.74	6.23
662.772	5.23
662.804	14.23
662.836	13.23
662.869	-5.77
662.901	8.23
662.933	0.23
662.965	23.23
662.997	8.23
663.029	-8.77
663.061	5.23
663.093	3.23
663.125	9.23
663.157	8.23
663.189	20.23
663.221	6.23
663.254	-9.77
663.286	3.23
663.318	5.23
663.35	4.23
663.382	7.23
663.414	-0.77
663.446	9.23
663.478	-5.77
663.51	23.23
663.542	-11.77
663.574	9.23
663.606	18.23
663.638	-5.77
663.67	3.23
663.702	13.23
663.734	18.23
663.766	10.23
663.798	-6.77
663.83	0.23
663.862	10.23
663.894	1.23
663.926	-3.77
663.958	7.23
663.99	-7.77
664.022	1.23
664.054	11.23
664.086	-4.77
664.118	-14.77
664.15	-8.77
664.182	11.23
664.214	11.23
664.246	6.23
664.278	-2.77
664.31	19.23
664.342	18.23
664.374	-2.77
664.406	-4.77
664.438	-2.77
664.47	17.23
664.502	-1.77
664.534	10.23
664.566	14.23
664.598	23.23
664.63	-4.77
664.662	9.23
664.693	-4.77
664.725	-7.77
664.757	-7.77
664.789	-19.77
664.821	9.23
664.853	21.23
664.885	9.23
664.917	-0.77
664.949	13.23
664.981	21.23
665.013	13.23
665.045	-5.77
665.076	12.23
665.108	7.23
665.14	-13.77
665.172	2.23
665.204	3.23
665.236	-0.77
665.268	26.23
665.3	17.23
665.331	3.23
665.363	5.23
665.395	-6.77
665.427	-0.77
665.459	16.23
665.491	13.23
665.523	15.23
665.555	3.23
665.586	13.23
665.618	-7.77
665.65	-1.77
665.682	13.23
665.714	-8.77
665.746	-7.77
665.777	-0.77
665.809	5.23
665.841	-0.77
665.873	0.23
665.905	11.23
665.937	12.23
665.968	3.23
666	17.23
666.032	12.23
666.064	-12.77
666.096	1.23
666.127	7.23
666.159	2.23
666.191	5.23
666.223	-3.77
666.255	-1.77
666.286	13.23
666.318	-1.77
666.35	27.23
666.382	8.23
666.413	9.23
666.445	-4.77
666.477	-2.77
666.509	10.23
666.54	-0.77
666.572	9.23
666.604	13.23
666.636	4.23
666.667	14.23
666.699	22.23
666.731	8.23
666.763	-8.77
666.794	7.23
666.826	2.23
666.858	-2.77
666.89	23.23
666.921	9.23
666.953	10.23
666.985	17.23
667.017	20.23
667.048	16.23
667.08	17.23
667.112	-17.77
667.143	-1.77
667.175	7.23
667.207	5.23
667.238	6.23
667.27	7.23
667.302	12.23
667.334	4.23
667.365	25.23
667.397	1.23
667.429	-0.77
667.46	9.23
667.492	3.23
667.524	-1.77
667.555	1.23
667.587	11.23
667.619	8.23
667.65	-11.77
667.682	10.23
667.714	1.23
667.745	-3.77
667.777	-2.77
667.808	0.23
667.84	-16.77
667.872	1.23
667.903	24.23
667.935	1.23
667.967	-4.77
667.998	20.23
668.03	4.23
668.061	4.23
668.093	1.23
668.125	11.23
668.156	-1.77
668.188	-1.77
668.22	-3.77
668.251	0.23
668.283	3.23
668.314	6.23
668.346	-2.77
668.377	3.23
668.409	-9.77
668.441	11.23
668.472	11.23
668.504	20.23
668.535	15.23
668.567	26.23
668.599	11.23
668.63	6.23
668.662	-4.77
668.693	26.23
668.725	15.23
668.756	6.23
668.788	-5.77
668.819	0.23
668.851	13.23
668.882	0.23
668.914	10.23
668.946	19.23
668.977	2.23
669.009	3.23
669.04	-8.77
669.072	1.23
669.103	20.23
669.135	-8.77
669.166	23.23
669.198	11.23
669.229	1.23
669.261	-5.77
669.292	-15.77
669.324	4.23
669.355	-0.77
669.387	-1.77
669.418	-0.77
669.45	-7.77
669.481	9.23
669.513	9.23
669.544	4.23
669.576	14.23
669.607	25.23
669.639	13.23
669.67	-2.77
669.701	5.23
669.733	-17.77
669.764	-1.77
669.796	-4.77
669.827	2.23
669.859	-0.77
669.89	12.23
669.922	13.23
669.953	15.23
669.985	-0.77
670.016	3.23
670.047	9.23
670.079	4.23
670.11	1.23
670.142	6.23
670.173	6.23
670.204	-7.77
670.236	19.23
670.267	0.23
670.299	-3.77
670.33	1.23
670.362	11.23
670.393	-16.77
670.424	10.23
670.456	-24.77
670.487	-2.77
670.518	2.23
670.55	6.23
670.581	-0.77
670.613	9.23
670.644	-2.77
670.675	2.23
670.707	5.23
670.738	11.23
670.769	12.23
670.801	-6.77
670.832	13.23
670.864	-8.77
670.895	7.23
670.926	12.23
670.958	2.23
670.989	5.23
671.02	-0.77
671.052	-4.77
671.083	-3.77
671.114	-2.77
671.146	8.23
671.177	9.23
671.208	-3.77
671.24	-24.77
671.271	-10.77
671.302	5.23
671.333	-12.77
671.365	-6.77
671.396	0.23
671.427	-5.77
671.459	6.23
671.49	22.23
671.521	17.23
671.553	15.23
671.584	28.23
671.615	-1.77
671.646	5.23
671.678	7.23
671.709	-14.77
671.74	-16.77
671.771	-8.77
671.803	13.23
671.834	10.23
671.865	6.23
671.896	3.23
671.928	3.23
671.959	-6.77
671.99	-13.77
672.021	7.23
672.053	0.23
672.084	11.23
672.115	-2.77
672.146	7.23
672.178	-27.77
672.209	-6.77
672.24	-3.77
672.271	18.23
672.303	11.23
672.334	8.23
672.365	-12.77
672.396	-15.77
672.427	3.23
672.459	-3.77
672.49	17.23
672.521	23.23
672.552	14.23
672.583	-0.77
672.615	10.23
672.646	23.23
672.677	-0.77
672.708	13.23
672.739	9.23
672.77	24.23
672.802	12.23
672.833	4.23
672.864	-8.77
672.895	6.23
672.926	-0.77
672.957	-9.77
672.989	-4.77
673.02	6.23
673.051	9.23
673.082	0.23
673.113	-1.77
673.144	18.23
673.175	7.23
673.206	-1.77
673.238	8.23
673.269	5.23
673.3	1.23
673.331	-4.77
673.362	1.23
673.393	-12.77
673.424	15.23
673.455	18.23
673.487	-8.77
673.518	12.23
673.549	4.23
673.58	3.23
673.611	-2.77
673.642	-3.77
673.673	-19.77
673.704	3.23
673.735	-16.77
673.766	-8.77
673.797	2.23
673.828	-0.77
673.86	-9.77
673.891	-13.77
673.922	-13.77
673.953	-5.77
673.984	11.23
674.015	3.23
674.046	3.23
674.077	-13.77
674.108	-11.77
674.139	-11.77
674.17	12.23
674.201	7.23
674.232	3.23
674.263	11.23
674.294	-0.77
674.325	-3.77
674.356	3.23
674.387	17.23
674.418	10.23
674.449	0.23
674.48	-1.77
674.511	2.23
674.542	3.23
674.573	15.23
674.604	14.23
674.635	8.23
674.666	16.23
674.697	10.23
674.728	-3.77
674.759	16.23
674.79	-5.77
674.821	-4.77
674.852	3.23
674.883	-1.77
674.914	2.23
674.945	-0.77
674.976	-2.77
675.007	7.23
675.038	0.23
675.069	-0.77
675.1	1.23
675.131	5.23
675.162	-3.77
675.193	-4.77
675.224	-0.77
675.254	18.23
675.285	6.23
675.316	9.23
675.347	4.23
675.378	-10.77
675.409	-12.77
675.44	15.23
675.471	11.23
675.502	-2.77
675.533	-0.77
675.564	7.23
675.595	-3.77
675.625	24.23
675.656	14.23
675.687	-2.77
675.718	-8.77
675.749	5.23
675.78	-3.77
675.811	-3.77
675.842	-3.77
675.873	9.23
675.903	-8.77
675.934	4.23
675.965	-7.77
675.996	-2.77
676.027	0.23
676.058	10.23
676.089	-7.77
676.119	0.23
676.15	3.23
676.181	6.23
676.212	-9.77
676.243	7.23
676.274	5.23
676.304	18.23
676.335	-5.77
676.366	15.23
676.397	8.23
676.428	9.23
676.459	9.23
676.489	24.23
676.52	7.23
676.551	-6.77
676.582	-13.77
676.613	5.23
676.643	-12.77
676.674	8.23
676.705	3.23
676.736	16.23
676.767	19.23
676.797	25.23
676.828	32.23
676.859	20.23
676.89	-9.77
676.92	9.23
676.951	12.23
676.982	22.23
677.013	3.23
677.044	6.23
677.074	-3.77
677.105	-13.77
677.136	9.23
677.167	0.23
677.197	17.23
677.228	9.23
677.259	-12.77
677.289	-4.77
677.32	-4.77
677.351	-2.77
677.382	-6.77
677.412	-4.77
677.443	12.23
677.474	11.23
677.505	-7.77
677.535	0.23
677.566	-8.77
677.597	-21.77
677.627	-10.77
677.658	-4.77
677.689	3.23
677.72	-0.77
677.75	7.23
677.781	18.23
677.812	9.23
677.842	13.23
677.873	7.23
677.904	-5.77
677.934	-9.77
677.965	2.23
677.996	-17.77
678.026	-8.77
678.057	11.23
678.088	3.23
678.118	-6.77
678.149	-5.77
678.18	-1.77
678.21	-1.77
678.241	-4.77
678.272	-9.77
678.302	19.23
678.333	2.23
678.363	9.23
678.394	7.23
678.425	-1.77
678.455	3.23
678.486	14.23
678.517	-8.77
678.547	1.23
678.578	5.23
678.608	0.23
678.639	18.23
678.67	3.23
678.7	-7.77
678.731	-3.77
678.761	5.23
678.792	6.23
678.823	7.23
678.853	5.23
678.884	-3.77
678.914	20.23
678.945	20.23
678.975	11.23
679.006	2.23
679.037	1.23
679.067	35.23
679.098	1.23
679.128	-4.77
679.159	-2.77
679.189	11.23
679.22	-2.77
679.25	7.23
679.281	11.23
679.312	-4.77
679.342	15.23
679.373	43.23
679.403	0.23
679.434	4.23
679.464	4.23
679.495	5.23
679.525	13.23
679.556	-13.77
679.586	0.23
679.617	-1.77
679.647	4.23
679.678	14.23
679.708	-14.77
679.739	9.23
679.769	-4.77
679.8	1.23
679.83	14.23
679.861	13.23
679.891	-17.77
679.922	-9.77
679.952	2.23
679.983	7.23
680.013	18.23
680.044	-0.77
680.074	-1.77
680.105	12.23
680.135	-3.77
680.165	19.23
680.196	4.23
680.226	0.23
680.257	11.23
680.287	-1.77
680.318	8.23
680.348	-4.77
680.379	5.23
680.409	2.23
680.439	-10.77
680.47	-5.77
680.5	8.23
680.531	-3.77
680.561	8.23
680.592	1.23
680.622	14.23
680.652	7.23
680.683	22.23
680.713	-3.77
680.744	-14.77
680.774	-5.77
680.804	10.23
680.835	-7.77
680.865	-17.77
680.896	6.23
680.926	24.23
680.956	14.23
680.987	-3.77
681.017	10.23
681.047	5.23
681.078	-7.77
681.108	3.23
681.139	9.23
681.169	-5.77
681.199	0.23
681.23	9.23
681.26	-6.77
681.29	2.23
681.321	-5.77
681.351	8.23
681.381	-8.77
681.412	11.23
681.442	22.23
681.472	6.23
681.503	10.23
681.533	-0.77
681.563	-4.77
681.594	13.23
681.624	2.23
681.654	-6.77
681.685	-4.77
681.715	15.23
681.745	18.23
681.775	0.23
681.806	-1.77
681.836	0.23
681.866	-13.77
681.897	4.23
681.927	-4.77
681.957	-22.77
681.987	2.23
682.018	3.23
682.048	4.23
682.078	-0.77
682.109	16.23
682.139	-2.77
682.169	-2.77
682.199	7.23
682.23	-4.77
682.26	23.23
682.29	-5.77
682.32	-0.77
682.351	1.23
682.381	-2.77
682.411	1.23
682.441	1.23
682.472	-5.77
682.502	15.23
682.532	5.23
682.562	-3.77
682.592	-5.77
682.623	4.23
682.653	-3.77
682.683	-3.77
682.713	3.23
682.743	2.23
682.774	3.23
682.804	3.23
682.834	11.23
682.864	-5.77
682.894	-0.77
682.925	-1.77
682.955	-0.77
682.985	4.23
683.015	7.23
683.045	11.23
683.076	0.23
683.106	-4.77
683.136	5.23
683.166	-3.77
683.196	-8.77
683.226	9.23
683.257	-8.77
683.287	1.23
683.317	-7.77
683.347	-9.77
683.377	4.23
683.407	13.23
683.437	-1.77
683.468	11.23
683.498	3.23
683.528	4.23
683.558	4.23
683.588	-0.77
683.618	-6.77
683.648	-6.77
683.678	4.23
683.708	21.23
683.739	3.23
683.769	3.23
683.799	-0.77
683.829	11.23
683.859	10.23
683.889	13.23
683.919	-7.77
683.949	12.23
683.979	0.23
684.009	-8.77
684.039	9.23
684.07	-5.77
684.1	1.23
684.13	-25.77
684.16	1.23
684.19	-5.77
684.22	-15.77
684.25	22.23
684.28	-1.77
684.31	8.23
684.34	13.23
684.37	15.23
684.4	2.23
684.43	4.23
684.46	1.23
684.49	-7.77
684.52	14.23
684.55	18.23
684.58	-1.77
684.61	5.23
684.64	8.23
684.67	23.23
684.7	0.23
684.73	18.23
684.76	6.23
684.79	12.23
684.82	0.23
684.85	4.23
684.88	11.23
684.91	0.23
684.94	1.23
684.97	4.23
685	9.23
685.03	3.23
685.06	-1.77
685.09	2.23
685.12	20.23
685.15	-1.77
685.18	13.23
685.21	11.23
685.24	13.23
685.27	20.23
685.3	14.23
685.33	13.23
685.36	-4.77
685.39	1.23
685.42	1.23
685.45	8.23
685.48	5.23
685.51	2.23
685.54	25.23
685.569	-8.77
685.599	10.23
685.629	5.23
685.659	5.23
685.689	5.23
685.719	-1.77
685.749	3.23
685.779	2.23
685.809	12.23
685.839	-2.77
685.869	-4.77
685.898	8.23
685.928	-11.77
685.958	-4.77
685.988	2.23
686.018	3.23
686.048	4.23
686.078	10.23
686.108	25.23
686.137	-1.77
686.167	9.23
686.197	-4.77
686.227	-2.77
686.257	24.23
686.287	0.23
686.317	4.23
686.346	2.23
686.376	-2.77
686.406	-4.77
686.436	6.23
686.466	16.23
686.496	8.23
686.525	10.23
686.555	6.23
686.585	22.23
686.615	21.23
686.645	24.23
686.675	-3.77
686.704	12.23
686.734	27.23
686.764	7.23
686.794	-1.77
686.824	-4.77
686.853	17.23
686.883	17.23
686.913	15.23
686.943	16.23
686.973	8.23
687.002	8.23
687.032	5.23
687.062	-4.77
687.092	12.23
687.121	-8.77
687.151	6.23
687.181	-4.77
687.211	9.23
687.24	-3.77
687.27	-0.77
687.3	10.23
687.33	-1.77
687.359	-10.77
687.389	-1.77
687.419	9.23
687.449	2.23
687.478	25.23
687.508	12.23
687.538	3.23
687.568	11.23
687.597	-1.77
687.627	-2.77
687.657	-12.77
687.686	15.23
687.716	23.23
687.746	9.23
687.776	6.23
687.805	7.23
687.835	0.23
687.865	4.23
687.894	13.23
687.924	-3.77
687.954	2.23
687.983	4.23
688.013	17.23
688.043	19.23
688.072	11.23
688.102	17.23
688.132	5.23
688.161	10.23
688.191	1.23
688.221	23.23
688.25	-5.77
688.28	11.23
688.31	6.23
688.339	4.23
688.369	6.23
688.399	-6.77
688.428	-6.77
688.458	8.23
688.488	8.23
688.517	14.23
688.547	4.23
688.576	36.23
688.606	27.23
688.636	11.23
688.665	13.23
688.695	13.23
688.725	6.23
688.754	6.23
688.784	14.23
688.813	24.23
688.843	26.23
688.873	11.23
688.902	9.23
688.932	10.23
688.961	6.23
688.991	26.23
689.02	19.23
689.05	-0.77
689.08	9.23
689.109	10.23
689.139	-3.77
689.168	-0.77
689.198	1.23
689.227	19.23
689.257	19.23
689.287	20.23
689.316	-5.77
689.346	0.23
689.375	-4.77
689.405	6.23
689.434	-7.77
689.464	18.23
689.493	2.23
689.523	3.23
689.552	-12.77
689.582	15.23
689.611	17.23
689.641	11.23
689.67	7.23
689.7	7.23
689.73	14.23
689.759	9.23
689.789	15.23
689.818	-5.77
689.848	-18.77
689.877	11.23
689.906	-1.77
689.936	5.23
689.965	20.23
689.995	14.23
690.024	17.23
690.054	-1.77
690.083	-4.77
690.113	7.23
690.142	-4.77
690.172	8.23
690.201	9.23
690.231	1.23
690.26	-6.77
690.29	-4.77
690.319	11.23
690.348	9.23
690.378	11.23
690.407	19.23
690.437	0.23
690.466	-4.77
690.496	3.23
690.525	25.23
690.555	-6.77
690.584	6.23
690.613	4.23
690.643	13.23
690.672	10.23
690.702	14.23
690.731	12.23
690.76	19.23
690.79	-1.77
690.819	-1.77
690.849	10.23
690.878	1.23
690.907	6.23
690.937	24.23
690.966	15.23
690.996	10.23
691.025	-6.77
691.054	0.23
691.084	15.23
691.113	10.23
691.142	13.23
691.172	2.23
691.201	25.23
691.23	11.23
691.26	19.23
691.289	8.23
691.319	-3.77
691.348	14.23
691.377	32.23
691.407	4.23
691.436	4.23
691.465	2.23
691.495	-0.77
691.524	1.23
691.553	-9.77
691.583	0.23
691.612	22.23
691.641	11.23
691.67	-5.77
691.7	6.23
691.729	-10.77
691.758	5.23
691.788	-3.77
691.817	6.23
691.846	3.23
691.876	-4.77
691.905	14.23
691.934	11.23
691.963	31.23
691.993	8.23
692.022	4.23
692.051	2.23
692.081	10.23
692.11	29.23
692.139	-4.77
692.168	14.23
692.198	21.23
692.227	19.23
692.256	15.23
692.285	13.23
692.315	-2.77
692.344	18.23
692.373	2.23
692.402	-14.77
692.432	-7.77
692.461	1.23
692.49	7.23
692.519	4.23
692.548	17.23
692.578	8.23
692.607	2.23
692.636	-3.77
692.665	13.23
692.694	23.23
692.724	17.23
692.753	13.23
692.782	33.23
692.811	4.23
692.84	-3.77
692.87	4.23
692.899	-1.77
692.928	2.23
692.957	-0.77
692.986	5.23
693.016	15.23
693.045	8.23
693.074	8.23
693.103	-0.77
693.132	9.23
693.161	6.23
693.191	13.23
693.22	0.23
693.249	1.23
693.278	-9.77
693.307	13.23
693.336	-1.77
693.365	-6.77
693.395	-3.77
693.424	21.23
693.453	24.23
693.482	-2.77
693.511	6.23
693.54	31.23
693.569	11.23
693.598	11.23
693.628	20.23
693.657	18.23
693.686	41.23
693.715	19.23
693.744	17.23
693.773	20.23
693.802	4.23
693.831	18.23
693.86	29.23
693.889	3.23
693.919	19.23
693.948	2.23
693.977	13.23
694.006	4.23
694.035	-6.77
694.064	5.23
694.093	6.23
694.122	5.23
694.151	22.23
694.18	19.23
694.209	49.23
694.238	-0.77
694.267	7.23
694.296	8.23
694.325	18.23
694.354	18.23
694.383	3.23
694.412	4.23
694.441	16.23
694.471	8.23
694.5	1.23
694.529	15.23
694.558	34.23
694.587	8.23
694.616	9.23
694.645	10.23
694.674	33.23
694.703	22.23
694.732	2.23
694.761	13.23
694.79	24.23
694.819	-4.77
694.848	-5.77
694.877	21.23
694.906	19.23
694.935	10.23
694.963	11.23
694.992	8.23
695.021	19.23
695.05	9.23
695.079	5.23
695.108	3.23
695.137	22.23
695.166	18.23
695.195	-17.77
695.224	2.23
695.253	20.23
695.282	15.23
695.311	0.23
695.34	18.23
695.369	18.23
695.398	14.23
695.427	20.23
695.456	20.23
695.485	12.23
695.513	15.23
695.542	5.23
695.571	6.23
695.6	14.23
695.629	24.23
695.658	18.23
695.687	4.23
695.716	11.23
695.745	41.23
695.774	6.23
695.802	-9.77
695.831	-0.77
695.86	12.23
695.889	8.23
695.918	17.23
695.947	7.23
695.976	6.23
696.005	21.23
696.033	22.23
696.062	11.23
696.091	9.23
696.12	10.23
696.149	17.23
696.178	12.23
696.207	18.23
696.235	-2.77
696.264	19.23
696.293	18.23
696.322	12.23
696.351	11.23
696.38	8.23
696.408	4.23
696.437	6.23
696.466	20.23
696.495	24.23
696.524	30.23
696.553	15.23
696.581	10.23
696.61	9.23
696.639	1.23
696.668	13.23
696.697	4.23
696.725	17.23
696.754	12.23
696.783	7.23
696.812	12.23
696.84	19.23
696.869	13.23
696.898	7.23
696.927	4.23
696.956	41.23
696.984	12.23
697.013	4.23
697.042	2.23
697.071	11.23
697.099	18.23
697.128	24.23
697.157	13.23
697.186	-4.77
697.214	0.23
697.243	16.23
697.272	18.23
697.301	19.23
697.329	-3.77
697.358	19.23
697.387	26.23
697.415	4.23
697.444	13.23
697.473	16.23
697.502	13.23
697.53	14.23
697.559	15.23
697.588	12.23
697.616	10.23
697.645	1.23
697.674	17.23
697.703	11.23
697.731	16.23
697.76	0.23
697.789	0.23
697.817	11.23
697.846	31.23
697.875	11.23
697.903	20.23
697.932	25.23
697.961	16.23
697.989	18.23
698.018	21.23
698.047	11.23
698.075	14.23
698.104	4.23
698.133	14.23
698.161	0.23
698.19	10.23
698.218	3.23
698.247	16.23
698.276	10.23
698.304	9.23
698.333	11.23
698.362	21.23
698.39	11.23
698.419	7.23
698.447	0.23
698.476	3.23
698.505	19.23
698.533	11.23
698.562	16.23
698.591	7.23
698.619	-4.77
698.648	17.23
698.676	6.23
698.705	-5.77
698.733	-2.77
698.762	17.23
698.791	10.23
698.819	2.23
698.848	19.23
698.876	30.23
698.905	16.23
698.933	7.23
698.962	-8.77
698.991	10.23
699.019	23.23
699.048	6.23
699.076	21.23
699.105	0.23
699.133	15.23
699.162	8.23
699.19	15.23
699.219	8.23
699.248	10.23
699.276	11.23
699.305	14.23
699.333	15.23
699.362	1.23
699.39	20.23
699.419	2.23
699.447	13.23
699.476	7.23
699.504	6.23
699.533	7.23
699.561	-3.77
699.59	5.23
699.618	7.23
699.647	0.23
699.675	13.23
699.704	11.23
699.732	7.23
699.761	24.23
699.789	20.23
699.818	12.23
699.846	10.23
699.874	9.23
699.903	7.23
699.931	-0.77
699.96	-3.77
699.988	18.23
700.017	19.23
700.045	7.23
700.074	9.23
700.102	8.23
700.13	14.23
700.159	3.23
700.187	2.23
700.216	-13.77
700.244	0.23
700.273	-1.77
700.301	8.23
700.329	15.23
700.358	11.23
700.386	-1.77
700.415	18.23
700.443	9.23
700.472	5.23
700.5	34.23
700.528	9.23
700.557	10.23
700.585	17.23
700.614	5.23
700.642	15.23
700.67	19.23
700.699	-0.77
700.727	8.23
700.755	9.23
700.784	6.23
700.812	-3.77
700.841	24.23
700.869	5.23
700.897	-13.77
700.926	6.23
700.954	13.23
700.982	4.23
701.011	12.23
701.039	8.23
701.067	12.23
701.096	20.23
701.124	-7.77
701.152	6.23
701.181	10.23
701.209	7.23
701.237	7.23
701.266	1.23
701.294	3.23
701.322	16.23
701.351	20.23
701.379	-8.77
701.407	3.23
701.435	9.23
701.464	29.23
701.492	27.23
701.52	0.23
701.549	-1.77
701.577	-16.77
701.605	4.23
701.634	12.23
701.662	7.23
701.69	6.23
701.718	12.23
701.747	16.23
701.775	3.23
701.803	-8.77
701.831	3.23
701.86	4.23
701.888	-2.77
701.916	3.23
701.944	4.23
701.973	2.23
702.001	-3.77
702.029	-17.77
702.057	3.23
702.086	-4.77
702.114	1.23
702.142	7.23
702.17	4.23
702.199	7.23
702.227	10.23
702.255	-4.77
702.283	-9.77
702.311	3.23
702.34	11.23
702.368	-3.77
702.396	4.23
702.424	-2.77
702.452	-4.77
702.481	-3.77
702.509	7.23
702.537	26.23
702.565	13.23
702.593	-8.77
702.621	0.23
702.65	11.23
702.678	-6.77
702.706	8.23
702.734	-15.77
702.762	-2.77
702.79	-5.77
702.819	4.23
702.847	15.23
702.875	18.23
702.903	19.23
702.931	6.23
702.959	7.23
702.988	8.23
703.016	6.23
703.044	-2.77
703.072	-7.77
703.1	-9.77
703.128	-5.77
703.156	5.23
703.184	5.23
703.212	20.23
703.241	13.23
703.269	4.23
703.297	-1.77
703.325	13.23
703.353	-4.77
703.381	-8.77
703.409	-11.77
703.437	3.23
703.465	1.23
703.493	-4.77
703.522	9.23
703.55	4.23
703.578	10.23
703.606	-5.77
703.634	6.23
703.662	-1.77
703.69	4.23
703.718	10.23
703.746	12.23
703.774	10.23
703.802	21.23
703.83	8.23
703.858	-8.77
703.886	-7.77
703.914	3.23
703.942	6.23
703.97	3.23
703.998	0.23
704.027	12.23
704.055	12.23
704.083	7.23
704.111	-6.77
704.139	9.23
704.167	9.23
704.195	-9.77
704.223	8.23
704.251	6.23
704.279	17.23
704.307	-1.77
704.335	-4.77
704.363	4.23
704.391	-5.77
704.419	-6.77
704.447	4.23
704.475	7.23
704.503	-20.77
704.531	13.23
704.558	10.23
704.586	24.23
704.614	10.23
704.642	7.23
704.67	-13.77
704.698	6.23
704.726	6.23
704.754	6.23
704.782	0.23
704.81	3.23
704.838	33.23
704.866	10.23
704.894	-11.77
704.922	5.23
704.95	12.23
704.978	13.23
705.006	5.23
705.034	27.23
705.061	-9.77
705.089	7.23
705.117	-1.77
705.145	3.23
705.173	18.23
705.201	11.23
705.229	21.23
705.257	2.23
705.285	13.23
705.313	3.23
705.34	7.23
705.368	-5.77
705.396	7.23
705.424	9.23
705.452	3.23
705.48	-2.77
705.508	-8.77
705.536	-2.77
705.563	3.23
705.591	0.23
705.619	8.23
705.647	-0.77
705.675	2.23
705.703	-0.77
705.731	2.23
705.758	30.23
705.786	6.23
705.814	20.23
705.842	15.23
705.87	18.23
705.898	4.23
705.925	-9.77
705.953	6.23
705.981	4.23
706.009	13.23
706.037	4.23
706.065	0.23
706.092	-12.77
706.12	3.23
706.148	4.23
706.176	1.23
706.204	-3.77
706.231	-12.77
706.259	-14.77
706.287	-1.77
706.315	4.23
706.342	-4.77
706.37	9.23
706.398	8.23
706.426	15.23
706.454	1.23
706.481	16.23
706.509	6.23
706.537	-15.77
706.565	-2.77
706.592	26.23
706.62	4.23
706.648	5.23
706.676	16.23
706.703	14.23
706.731	3.23
706.759	-5.77
706.787	6.23
706.814	3.23
706.842	2.23
706.87	4.23
706.897	15.23
706.925	8.23
706.953	16.23
706.981	32.23
707.008	14.23
707.036	7.23
707.064	16.23
707.091	-6.77
707.119	4.23
707.147	8.23
707.174	0.23
707.202	6.23
707.23	-1.77
707.258	24.23
707.285	-4.77
707.313	6.23
707.341	2.23
707.368	-5.77
707.396	2.23
707.424	17.23
707.451	6.23
707.479	5.23
707.507	10.23
707.534	-10.77
707.562	-1.77
707.59	-0.77
707.617	3.23
707.645	7.23
707.672	-11.77
707.7	-5.77
707.728	11.23
707.755	6.23
707.783	-12.77
707.811	17.23
707.838	1.23
707.866	10.23
707.893	4.23
707.921	4.23
707.949	2.23
707.976	-1.77
708.004	5.23
708.031	1.23
708.059	4.23
708.087	14.23
708.114	4.23
708.142	4.23
708.169	-8.77
708.197	-10.77
708.225	7.23
708.252	-12.77
708.28	4.23
708.307	-8.77
708.335	-8.77
708.362	6.23
708.39	-6.77
708.418	4.23
708.445	-1.77
708.473	-16.77
708.5	1.23
708.528	1.23
708.555	3.23
708.583	-0.77
708.61	-7.77
708.638	14.23
708.665	4.23
708.693	13.23
708.72	1.23
708.748	14.23
708.776	11.23
708.803	8.23
708.831	6.23
708.858	9.23
708.886	6.23
708.913	7.23
708.941	10.23
708.968	5.23
708.996	-1.77
709.023	29.23
709.051	-2.77
709.078	-9.77
709.105	4.23
709.133	2.23
709.16	-5.77
709.188	13.23
709.215	17.23
709.243	5.23
709.27	-8.77
709.298	-11.77
709.325	-0.77
709.353	-0.77
709.38	-3.77
709.408	17.23
709.435	9.23
709.462	9.23
709.49	14.23
709.517	-5.77
709.545	-9.77
709.572	12.23
709.6	7.23
709.627	12.23
709.655	13.23
709.682	1.23
709.709	-7.77
709.737	-2.77
709.764	-9.77
709.792	13.23
709.819	10.23
709.846	10.23
709.874	14.23
709.901	17.23
709.929	30.23
709.956	13.23
709.983	-6.77
710.011	-3.77
710.038	-0.77
710.066	13.23
710.093	11.23
710.12	7.23
710.148	10.23
710.175	6.23
710.202	-3.77
710.23	14.23
710.257	2.23
710.284	2.23
710.312	4.23
710.339	-1.77
710.366	-3.77
710.394	-3.77
710.421	-0.77
710.448	3.23
710.476	-3.77
710.503	6.23
710.53	15.23
710.558	15.23
710.585	2.23
710.612	-14.77
710.64	-8.77
710.667	2.23
710.694	-4.77
710.722	0.23
710.749	7.23
710.776	20.23
710.804	17.23
710.831	11.23
710.858	10.23
710.885	6.23
710.913	22.23
710.94	15.23
710.967	7.23
710.995	-5.77
711.022	7.23
711.049	6.23
711.076	-7.77
711.104	-0.77
711.131	-12.77
711.158	-4.77
711.185	16.23
711.213	2.23
711.24	0.23
711.267	-1.77
711.294	8.23
711.322	17.23
711.349	-2.77
711.376	13.23
711.403	8.23
711.431	-3.77
711.458	1.23
711.485	-0.77
711.512	3.23
711.54	6.23
711.567	2.23
711.594	3.23
711.621	2.23
711.648	8.23
711.676	0.23
711.703	6.23
711.73	-13.77
711.757	-5.77
711.784	3.23
711.812	12.23
711.839	-2.77
711.866	-4.77
711.893	10.23
711.92	11.23
711.947	12.23
711.975	35.23
712.002	1.23
712.029	7.23
712.056	16.23
712.083	13.23
712.11	1.23
712.138	10.23
712.165	12.23
712.192	8.23
712.219	-2.77
712.246	-8.77
712.273	-6.77
712.3	-7.77
712.328	-1.77
712.355	7.23
712.382	-1.77
712.409	22.23
712.436	2.23
712.463	12.23
712.49	17.23
712.517	5.23
712.544	11.23
712.572	16.23
712.599	2.23
712.626	17.23
712.653	-8.77
712.68	-2.77
712.707	16.23
712.734	4.23
712.761	-13.77
712.788	3.23
712.815	17.23
712.842	20.23
712.87	-2.77
712.897	-7.77
712.924	-1.77
712.951	7.23
712.978	13.23
713.005	20.23
713.032	22.23
713.059	4.23
713.086	-1.77
713.113	0.23
713.14	-0.77
713.167	14.23
713.194	12.23
713.221	13.23
713.248	14.23
713.275	9.23
713.302	-2.77
713.329	-5.77
713.356	4.23
713.383	34.23
713.41	5.23
713.437	-14.77
713.464	2.23
713.491	11.23
713.518	-2.77
713.545	0.23
713.572	0.23
713.599	18.23
713.626	-0.77
713.653	11.23
713.68	1.23
713.707	-7.77
713.734	1.23
713.761	13.23
713.788	-0.77
713.815	18.23
713.842	5.23
713.869	-2.77
713.896	2.23
713.923	-5.77
713.95	3.23
713.977	-6.77
714.004	-6.77
714.031	-11.77
714.058	-2.77
714.085	6.23
714.112	4.23
714.139	1.23
714.165	11.23
714.192	-4.77
714.219	0.23
714.246	11.23
714.273	-7.77
714.3	-7.77
714.327	16.23
714.354	4.23
714.381	4.23
714.408	11.23
714.435	-5.77
714.461	-3.77
714.488	6.23
714.515	-4.77
714.542	6.23
714.569	-1.77
714.596	-6.77
714.623	3.23
714.65	8.23
714.677	15.23
714.703	8.23
714.73	4.23
714.757	4.23
714.784	6.23
714.811	4.23
714.838	-2.77
714.865	-14.77
714.891	10.23
714.918	6.23
714.945	1.23
714.972	14.23
714.999	19.23
715.026	-4.77
715.052	3.23
715.079	8.23
715.106	18.23
715.133	8.23
715.16	10.23
715.187	-0.77
715.213	2.23
715.24	-3.77
715.267	1.23
715.294	10.23
715.321	0.23
715.347	13.23
715.374	-5.77
715.401	2.23
715.428	3.23
715.455	-3.77
715.481	-20.77
715.508	17.23
715.535	15.23
715.562	32.23
715.588	17.23
715.615	10.23
715.642	3.23
715.669	10.23
715.695	-8.77
715.722	3.23
715.749	23.23
715.776	26.23
715.802	-0.77
715.829	12.23
715.856	-6.77
715.883	27.23
715.909	-5.77
715.936	-6.77
715.963	-0.77
715.99	-4.77
716.016	10.23
716.043	4.23
716.07	8.23
716.096	-13.77
716.123	4.23
716.15	12.23
716.177	23.23
716.203	14.23
716.23	17.23
716.257	16.23
716.283	19.23
716.31	2.23
716.337	11.23
716.363	-7.77
716.39	-0.77
716.417	14.23
716.443	6.23
716.47	8.23
716.497	9.23
716.523	13.23
716.55	6.23
716.577	14.23
716.603	7.23
716.63	3.23
716.657	12.23
716.683	-3.77
716.71	-3.77
716.737	5.23
716.763	3.23
716.79	14.23
716.817	22.23
716.843	3.23
716.87	2.23
716.897	14.23
716.923	17.23
716.95	7.23
716.976	-7.77
717.003	4.23
717.03	7.23
717.056	10.23
717.083	-11.77
717.109	20.23
717.136	13.23
717.163	-0.77
717.189	7.23
717.216	-5.77
717.242	5.23
717.269	16.23
717.296	-6.77
717.322	12.23
717.349	11.23
717.375	8.23
717.402	0.23
717.428	2.23
717.455	9.23
717.481	0.23
717.508	-1.77
717.535	6.23
717.561	-3.77
717.588	-1.77
717.614	-2.77
717.641	8.23
717.667	-5.77
717.694	9.23
717.72	13.23
717.747	9.23
717.773	-2.77
717.8	11.23
717.826	6.23
717.853	0.23
717.88	7.23
717.906	11.23
717.933	6.23
717.959	5.23
717.986	7.23
718.012	14.23
718.039	11.23
718.065	10.23
718.092	17.23
718.118	-11.77
718.144	-18.77
718.171	18.23
718.197	19.23
718.224	15.23
718.25	12.23
718.277	0.23
718.303	-12.77
718.33	-0.77
718.356	-2.77
718.383	0.23
718.409	-0.77
718.436	6.23
718.462	7.23
718.489	-3.77
718.515	23.23
718.541	18.23
718.568	15.23
718.594	6.23
718.621	17.23
718.647	11.23
718.674	23.23
718.7	16.23
718.726	-8.77
718.753	7.23
718.779	8.23
718.806	5.23
718.832	-0.77
718.858	3.23
718.885	3.23
718.911	24.23
718.938	13.23
718.964	-5.77
718.99	5.23
719.017	-1.77
719.043	19.23
719.07	19.23
719.096	5.23
719.122	26.23
719.149	15.23
719.175	27.23
719.201	2.23
719.228	10.23
719.254	-1.77
719.281	-0.77
719.307	0.23
719.333	3.23
719.36	18.23
719.386	13.23
719.412	8.23
719.439	-5.77
719.465	2.23
719.491	-2.77
719.518	-9.77
719.544	19.23
719.57	9.23
719.597	15.23
719.623	10.23
719.649	2.23
719.675	7.23
719.702	5.23
719.728	28.23
719.754	6.23
719.781	2.23
719.807	13.23
719.833	6.23
719.86	4.23
719.886	11.23
719.912	11.23
719.938	-7.77
719.965	6.23
719.991	20.23
720.017	13.23
720.044	6.23
720.07	17.23
720.096	6.23
720.122	-2.77
720.149	11.23
720.175	15.23
720.201	4.23
720.227	20.23
720.254	23.23
720.28	1.23
720.306	-0.77
720.332	12.23
720.359	27.23
720.385	0.23
720.411	16.23
720.437	17.23
720.463	-4.77
720.49	10.23
720.516	13.23
720.542	0.23
720.568	-3.77
720.595	14.23
720.621	13.23
720.647	13.23
720.673	9.23
720.699	9.23
720.725	2.23
720.752	21.23
720.778	9.23
720.804	5.23
720.83	28.23
720.856	4.23
720.883	0.23
720.909	7.23
720.935	15.23
720.961	6.23
720.987	1.23
721.013	4.23
721.04	-2.77
721.066	6.23
721.092	-14.77
721.118	12.23
721.144	6.23
721.17	5.23
721.196	9.23
721.223	0.23
721.249	-0.77
721.275	19.23
721.301	6.23
721.327	13.23
721.353	25.23
721.379	-0.77
721.405	12.23
721.432	17.23
721.458	4.23
721.484	16.23
721.51	-21.77
721.536	-2.77
721.562	-8.77
721.588	-7.77
721.614	1.23
721.64	4.23
721.666	3.23
721.693	-7.77
721.719	1.23
721.745	-1.77
721.771	1.23
721.797	20.23
721.823	10.23
721.849	16.23
721.875	3.23
721.901	11.23
721.927	-1.77
721.953	1.23
721.979	16.23
722.005	4.23
722.031	-0.77
722.057	-12.77
722.083	2.23
722.109	7.23
722.135	18.23
722.161	12.23
722.187	18.23
722.214	3.23
722.24	1.23
722.266	-1.77
722.292	8.23
722.318	21.23
722.344	-1.77
722.37	0.23
722.396	12.23
722.422	-2.77
722.448	-7.77
722.474	-10.77
722.5	12.23
722.526	3.23
722.552	15.23
722.578	12.23
722.603	-1.77
722.629	-3.77
722.655	-3.77
722.681	-8.77
722.707	6.23
722.733	-7.77
722.759	1.23
722.785	9.23
722.811	17.23
722.837	3.23
722.863	10.23
722.889	19.23
722.915	-2.77
722.941	-1.77
722.967	-0.77
722.993	15.23
723.019	11.23
723.045	8.23
723.071	6.23
723.097	6.23
723.122	8.23
723.148	0.23
723.174	10.23
723.2	16.23
723.226	8.23
723.252	22.23
723.278	19.23
723.304	13.23
723.33	10.23
723.356	-9.77
723.381	-12.77
723.407	-7.77
723.433	5.23
723.459	-5.77
723.485	11.23
723.511	16.23
723.537	4.23
723.563	1.23
723.588	-8.77
723.614	4.23
723.64	-0.77
723.666	-2.77
723.692	16.23
723.718	-1.77
723.744	8.23
723.769	4.23
723.795	-8.77
723.821	8.23
723.847	16.23
723.873	8.23
723.899	11.23
723.924	6.23
723.95	2.23
723.976	-1.77
724.002	12.23
724.028	0.23
724.053	-2.77
724.079	-8.77
724.105	14.23
724.131	7.23
724.157	7.23
724.182	14.23
724.208	0.23
724.234	2.23
724.26	13.23
724.286	21.23
724.311	9.23
724.337	-0.77
724.363	-9.77
724.389	3.23
724.415	13.23
724.44	33.23
724.466	16.23
724.492	19.23
724.518	13.23
724.543	7.23
724.569	16.23
724.595	20.23
724.621	19.23
724.646	3.23
724.672	0.23
724.698	-4.77
724.723	1.23
724.749	-2.77
724.775	16.23
724.801	2.23
724.826	-4.77
724.852	-11.77
724.878	2.23
724.904	-5.77
724.929	-4.77
724.955	-7.77
724.981	-0.77
725.006	9.23
725.032	14.23
725.058	40.23
725.083	-7.77
725.109	5.23
725.135	6.23
725.161	10.23
725.186	12.23
725.212	-0.77
725.238	7.23
725.263	-0.77
725.289	-11.77
725.315	-5.77
725.34	3.23
725.366	5.23
725.392	-5.77
725.417	-3.77
725.443	6.23
725.468	12.23
725.494	8.23
725.52	4.23
725.545	15.23
725.571	-4.77
725.597	1.23
725.622	-1.77
725.648	-4.77
725.674	14.23
725.699	0.23
725.725	-0.77
725.75	17.23
725.776	0.23
725.802	8.23
725.827	-1.77
725.853	1.23
725.878	3.23
725.904	12.23
725.93	-9.77
725.955	-5.77
725.981	-8.77
726.006	4.23
726.032	10.23
726.057	-3.77
726.083	-5.77
726.109	-3.77
726.134	4.23
726.16	8.23
726.185	8.23
726.211	24.23
726.236	15.23
726.262	1.23
726.288	3.23
726.313	12.23
726.339	7.23
726.364	-0.77
726.39	8.23
726.415	7.23
726.441	0.23
726.466	6.23
726.492	15.23
726.517	10.23
726.543	14.23
726.568	2.23
726.594	5.23
726.619	-1.77
726.645	7.23
726.67	20.23
726.696	11.23
726.721	-9.77
726.747	-1.77
726.772	-14.77
726.798	-5.77
726.823	-2.77
726.849	6.23
726.874	2.23
726.9	30.23
726.925	19.23
726.951	12.23
726.976	31.23
727.002	-7.77
727.027	9.23
727.053	11.23
727.078	-4.77
727.104	-8.77
727.129	-18.77
727.155	7.23
727.18	5.23
727.205	15.23
727.231	3.23
727.256	7.23
727.282	17.23
727.307	9.23
727.333	3.23
727.358	-2.77
727.383	0.23
727.409	-5.77
727.434	30.23
727.46	15.23
727.485	11.23
727.511	0.23
727.536	-8.77
727.561	2.23
727.587	-4.77
727.612	5.23
727.637	4.23
727.663	0.23
727.688	16.23
727.714	6.23
727.739	11.23
727.764	15.23
727.79	11.23
727.815	1.23
727.841	6.23
727.866	11.23
727.891	-0.77
727.917	-14.77
727.942	1.23
727.967	-5.77
727.993	-1.77
728.018	4.23
728.043	10.23
728.069	18.23
728.094	18.23
728.119	5.23
728.145	14.23
728.17	12.23
728.195	0.23
728.221	8.23
728.246	6.23
728.271	-8.77
728.297	8.23
728.322	15.23
728.347	2.23
728.373	13.23
728.398	18.23
728.423	10.23
728.448	-6.77
728.474	10.23
728.499	12.23
728.524	-8.77
728.55	0.23
728.575	4.23
728.6	1.23
728.625	13.23
728.651	3.23
728.676	2.23
728.701	13.23
728.727	12.23
728.752	-12.77
728.777	9.23
728.802	6.23
728.828	4.23
728.853	-0.77
728.878	0.23
728.903	-9.77
728.929	-11.77
728.954	-4.77
728.979	12.23
729.004	-1.77
729.03	6.23
729.055	27.23
729.08	20.23
729.105	-2.77
729.13	23.23
729.156	2.23
729.181	-2.77
729.206	-22.77
729.231	-4.77
729.256	1.23
729.282	4.23
729.307	-9.77
729.332	-9.77
729.357	-13.77
729.382	-2.77
729.408	-1.77
729.433	6.23
729.458	2.23
729.483	14.23
729.508	16.23
729.533	10.23
729.559	11.23
729.584	-14.77
729.609	1.23
729.634	0.23
729.659	-8.77
729.684	-17.77
729.71	28.23
729.735	9.23
729.76	10.23
729.785	10.23
729.81	8.23
729.835	0.23
729.86	9.23
729.886	8.23
729.911	1.23
729.936	-8.77
729.961	12.23
729.986	-12.77
730.011	3.23
730.036	0.23
730.061	1.23
730.086	3.23
730.112	-9.77
730.137	15.23
730.162	11.23
730.187	-12.77
730.212	-1.77
730.237	-5.77
730.262	1.23
730.287	-4.77
730.312	7.23
730.337	-1.77
730.362	27.23
730.387	16.23
730.413	-5.77
730.438	7.23
730.463	10.23
730.488	1.23
730.513	23.23
730.538	15.23
730.563	11.23
730.588	13.23
730.613	23.23
730.638	-6.77
730.663	-6.77
730.688	18.23
730.713	7.23
730.738	-0.77
730.763	14.23
730.788	-6.77
730.813	10.23
730.838	15.23
730.863	14.23
730.888	-1.77
730.913	-20.77
730.938	-12.77
730.963	3.23
730.988	0.23
731.013	8.23
731.038	13.23
731.063	13.23
731.088	16.23
731.113	1.23
731.138	0.23
731.163	-7.77
731.188	-9.77
731.213	10.23
731.238	6.23
731.263	-3.77
731.288	5.23
731.313	-0.77
731.338	3.23
731.363	9.23
731.388	12.23
731.413	9.23
731.438	12.23
731.463	-1.77
731.487	16.23
731.512	-12.77
731.537	0.23
731.562	7.23
731.587	-2.77
731.612	-4.77
731.637	5.23
731.662	2.23
731.687	2.23
731.712	-12.77
731.737	12.23
731.762	3.23
731.786	14.23
731.811	11.23
731.836	14.23
731.861	10.23
731.886	2.23
731.911	13.23
731.936	23.23
731.961	0.23
731.986	-4.77
732.01	-12.77
732.035	10.23
732.06	14.23
732.085	-1.77
732.11	16.23
732.135	-9.77
732.16	10.23
732.184	8.23
732.209	15.23
732.234	18.23
732.259	17.23
732.284	27.23
732.309	-4.77
732.334	-11.77
732.358	-10.77
732.383	-10.77
732.408	9.23
732.433	16.23
732.458	11.23
732.482	12.23
732.507	-6.77
732.532	17.23
732.557	21.23
732.582	11.23
732.607	6.23
732.631	3.23
732.656	11.23
732.681	8.23
732.706	9.23
732.73	4.23
732.755	3.23
732.78	10.23
732.805	8.23
732.83	-2.77
732.854	2.23
732.879	36.23
732.904	-4.77
732.929	2.23
732.953	14.23
732.978	6.23
733.003	-6.77
733.028	7.23
733.052	16.23
733.077	6.23
733.102	19.23
733.127	3.23
733.151	-3.77
733.176	11.23
733.201	5.23
733.226	2.23
733.25	2.23
733.275	7.23
733.3	19.23
733.324	24.23
733.349	2.23
733.374	16.23
733.399	6.23
733.423	5.23
733.448	10.23
733.473	0.23
733.497	11.23
733.522	-3.77
733.547	19.23
733.571	15.23
733.596	16.23
733.621	-2.77
733.646	7.23
733.67	11.23
733.695	-16.77
733.72	7.23
733.744	2.23
733.769	3.23
733.794	22.23
733.818	9.23
733.843	-4.77
733.867	-5.77
733.892	2.23
733.917	-7.77
733.941	17.23
733.966	2.23
733.991	0.23
734.015	25.23
734.04	4.23
734.065	16.23
734.089	14.23
734.114	7.23
734.138	10.23
734.163	-0.77
734.188	14.23
734.212	19.23
734.237	28.23
734.261	14.23
734.286	-2.77
734.311	3.23
734.335	7.23
734.36	0.23
734.384	7.23
734.409	3.23
734.434	-4.77
734.458	17.23
734.483	4.23
734.507	0.23
734.532	-4.77
734.556	10.23
734.581	-0.77
734.606	16.23
734.63	-0.77
734.655	21.23
734.679	17.23
734.704	19.23
734.728	-0.77
734.753	-8.77
734.777	0.23
734.802	11.23
734.826	9.23
734.851	5.23
734.876	17.23
734.9	10.23
734.925	11.23
734.949	11.23
734.974	13.23
734.998	31.23
735.023	-5.77
735.047	-1.77
735.072	14.23
735.096	9.23
735.121	9.23
735.145	14.23
735.17	9.23
735.194	6.23
735.219	3.23
735.243	7.23
735.268	21.23
735.292	28.23
735.317	5.23
735.341	9.23
735.365	-9.77
735.39	10.23
735.414	2.23
735.439	19.23
735.463	2.23
735.488	6.23
735.512	5.23
735.537	-1.77
735.561	-3.77
735.586	2.23
735.61	4.23
735.634	1.23
735.659	18.23
735.683	23.23
735.708	17.23
735.732	-1.77
735.757	-1.77
735.781	4.23
735.805	7.23
735.83	5.23
735.854	3.23
735.879	11.23
735.903	26.23
735.927	13.23
735.952	4.23
735.976	-3.77
736.001	3.23
736.025	7.23
736.049	-6.77
736.074	4.23
736.098	4.23
736.123	18.23
736.147	9.23
736.171	11.23
736.196	3.23
736.22	-4.77
736.244	8.23
736.269	11.23
736.293	10.23
736.317	3.23
736.342	4.23
736.366	15.23
736.39	6.23
736.415	9.23
736.439	-4.77
736.463	7.23
736.488	19.23
736.512	20.23
736.536	2.23
736.561	33.23
736.585	14.23
736.609	13.23
736.634	-7.77
736.658	7.23
736.682	5.23
736.707	8.23
736.731	1.23
736.755	2.23
736.78	20.23
736.804	25.23
736.828	14.23
736.852	4.23
736.877	2.23
736.901	-1.77
736.925	9.23
736.949	22.23
736.974	8.23
736.998	-9.77
737.022	3.23
737.047	-7.77
737.071	4.23
737.095	8.23
737.119	14.23
737.144	18.23
737.168	-9.77
737.192	8.23
737.216	15.23
737.241	-5.77
737.265	-3.77
737.289	1.23
737.313	7.23
737.337	18.23
737.362	6.23
737.386	4.23
737.41	-0.77
737.434	4.23
737.459	-0.77
737.483	13.23
737.507	25.23
737.531	19.23
737.555	16.23
737.58	8.23
737.604	-0.77
737.628	-1.77
737.652	-3.77
737.676	-4.77
737.701	7.23
737.725	1.23
737.749	5.23
737.773	5.23
737.797	3.23
737.821	15.23
737.846	6.23
737.87	28.23
737.894	8.23
737.918	2.23
737.942	-15.77
737.966	24.23
737.99	8.23
738.015	5.23
738.039	14.23
738.063	14.23
738.087	28.23
738.111	1.23
738.135	15.23
738.159	8.23
738.184	10.23
738.208	14.23
738.232	11.23
738.256	17.23
738.28	12.23
738.304	9.23
738.328	-0.77
738.352	12.23
738.376	-2.77
738.4	27.23
738.425	11.23
738.449	1.23
738.473	-1.77
738.497	16.23
738.521	0.23
738.545	3.23
738.569	18.23
738.593	16.23
738.617	14.23
738.641	1.23
738.665	6.23
738.689	11.23
738.713	5.23
738.737	14.23
738.762	27.23
738.786	-6.77
738.81	-22.77
738.834	18.23
738.858	-1.77
738.882	14.23
738.906	-3.77
738.93	13.23
738.954	32.23
738.978	7.23
739.002	0.23
739.026	-2.77
739.05	-2.77
739.074	0.23
739.098	28.23
739.122	1.23
739.146	10.23
739.17	15.23
739.194	11.23
739.218	-3.77
739.242	-2.77
739.266	4.23
739.29	13.23
739.314	6.23
739.338	10.23
739.362	18.23
739.386	15.23
739.41	8.23
739.434	6.23
739.458	24.23
739.482	5.23
739.506	21.23
739.53	3.23
739.554	19.23
739.577	10.23
739.601	12.23
739.625	-2.77
739.649	17.23
739.673	-9.77
739.697	6.23
739.721	-0.77
739.745	6.23
739.769	9.23
739.793	15.23
739.817	21.23
739.841	-9.77
739.865	6.23
739.889	-3.77
739.912	11.23
739.936	6.23
739.96	-8.77
739.984	17.23
740.008	15.23
740.032	2.23
740.056	2.23
740.08	7.23
740.104	7.23
740.127	8.23
740.151	23.23
740.175	15.23
740.199	3.23
740.223	48.23
740.247	17.23
740.271	19.23
740.295	0.23
740.318	-7.77
740.342	-0.77
740.366	21.23
740.39	16.23
740.414	8.23
740.438	10.23
740.461	20.23
740.485	-0.77
740.509	3.23
740.533	21.23
740.557	1.23
740.581	3.23
740.604	-13.77
740.628	6.23
740.652	20.23
740.676	-9.77
740.7	18.23
740.723	1.23
740.747	5.23
740.771	12.23
740.795	-1.77
740.819	27.23
740.842	12.23
740.866	7.23
740.89	9.23
740.914	16.23
740.938	4.23
740.961	11.23
740.985	17.23
741.009	1.23
741.033	16.23
741.056	17.23
741.08	14.23
741.104	-4.77
741.128	17.23
741.151	13.23
741.175	8.23
741.199	16.23
741.223	4.23
741.246	-1.77
741.27	26.23
741.294	5.23
741.318	2.23
741.341	2.23
741.365	-0.77
741.389	2.23
741.413	14.23
741.436	13.23
741.46	15.23
741.484	25.23
741.507	18.23
741.531	39.23
741.555	21.23
741.579	13.23
741.602	-2.77
741.626	22.23
741.65	18.23
741.673	16.23
741.697	14.23
741.721	-4.77
741.744	-0.77
741.768	2.23
741.792	-5.77
741.815	-2.77
741.839	18.23
741.863	19.23
741.886	22.23
741.91	2.23
741.934	16.23
741.957	-9.77
741.981	21.23
742.005	-3.77
742.028	-3.77
742.052	4.23
742.075	9.23
742.099	26.23
742.123	1.23
742.146	-0.77
742.17	-1.77
742.194	-8.77
742.217	-6.77
742.241	-9.77
742.264	-6.77
742.288	24.23
742.312	8.23
742.335	-6.77
742.359	15.23
742.382	10.23
742.406	11.23
742.43	1.23
742.453	-4.77
742.477	6.23
742.5	3.23
742.524	-8.77
742.548	2.23
742.571	5.23
742.595	-21.77
742.618	-6.77
742.642	-6.77
742.665	20.23
742.689	-3.77
742.712	9.23
742.736	-3.77
742.76	16.23
742.783	6.23
742.807	-1.77
742.83	1.23
742.854	-0.77
742.877	5.23
742.901	14.23
742.924	14.23
742.948	-3.77
742.971	15.23
742.995	4.23
743.018	-2.77
743.042	-5.77
743.065	-10.77
743.089	7.23
743.112	2.23
743.136	-6.77
743.159	-9.77
743.183	1.23
743.206	9.23
743.23	9.23
743.253	14.23
743.277	15.23
743.3	-2.77
743.324	2.23
743.347	1.23
743.371	30.23
743.394	15.23
743.418	14.23
743.441	11.23
743.465	2.23
743.488	5.23
743.512	-7.77
743.535	-6.77
743.558	6.23
743.582	9.23
743.605	1.23
743.629	10.23
743.652	10.23
743.676	2.23
743.699	11.23
743.723	9.23
743.746	10.23
743.769	13.23
743.793	7.23
743.816	3.23
743.84	15.23
743.863	1.23
743.886	10.23
743.91	11.23
743.933	10.23
743.957	-6.77
743.98	-4.77
744.003	-8.77
744.027	0.23
744.05	7.23
744.074	14.23
744.097	-2.77
744.12	-0.77
744.144	-1.77
744.167	11.23
744.19	-4.77
744.214	12.23
744.237	3.23
744.26	6.23
744.284	-1.77
744.307	-9.77
744.331	1.23
744.354	-1.77
744.377	-7.77
744.401	2.23
744.424	2.23
744.447	-4.77
744.471	-12.77
