Data from HighRes_H2D2_15_04_11_07_2024_HR4C61891__27__15-05-37-143.txt Node

Date: Thu Nov 07 15:05:37 EST 2024
User: crc00042
Spectrometer: HR4C6189
Trigger mode: 4
Integration Time (sec): 1.000000E-1
Scans to average: 1
Electric dark correction enabled: true
Nonlinearity correction enabled: false
Boxcar width: 0
XAxis mode: Wavelengths
Number of Pixels in Spectrum: 3648
>>>>>Begin Spectral Data<<<<<
639.567	-47.46
639.602	-47.46
639.636	-47.46
639.67	-29.46
639.704	-14.46
639.738	6.54
639.773	11.54
639.807	-11.46
639.841	-0.46
639.875	15.54
639.909	-4.46
639.943	-11.46
639.978	-15.46
640.012	2.54
640.046	11.54
640.08	3.54
640.114	-2.46
640.148	-5.46
640.182	-8.46
640.217	-0.46
640.251	17.54
640.285	2.54
640.319	5.54
640.353	14.54
640.387	-3.46
640.421	-8.46
640.455	-3.46
640.49	-21.46
640.524	-1.46
640.558	0.54
640.592	-8.46
640.626	20.54
640.66	-1.46
640.694	-11.46
640.728	-3.46
640.762	10.54
640.796	17.54
640.83	10.54
640.865	-11.46
640.899	-5.46
640.933	14.54
640.967	0.54
641.001	-4.46
641.035	-1.46
641.069	-2.46
641.103	-1.46
641.137	-7.46
641.171	-1.46
641.205	5.54
641.239	-5.46
641.273	22.54
641.307	14.54
641.341	8.54
641.375	-7.46
641.409	-11.46
641.443	4.54
641.477	12.54
641.511	-0.46
641.545	7.54
641.579	-15.46
641.614	13.54
641.648	16.54
641.682	5.54
641.716	11.54
641.75	26.54
641.784	9.54
641.818	-2.46
641.852	10.54
641.886	-18.46
641.919	14.54
641.953	11.54
641.987	-5.46
642.021	-2.46
642.055	10.54
642.089	11.54
642.123	2.54
642.157	-5.46
642.191	4.54
642.225	2.54
642.259	-4.46
642.293	7.54
642.327	17.54
642.361	10.54
642.395	7.54
642.429	20.54
642.463	12.54
642.497	5.54
642.531	-2.46
642.565	0.54
642.599	7.54
642.633	-2.46
642.666	11.54
642.7	29.54
642.734	17.54
642.768	-1.46
642.802	-6.46
642.836	11.54
642.87	2.54
642.904	18.54
642.938	15.54
642.972	2.54
643.005	-2.46
643.039	21.54
643.073	9.54
643.107	11.54
643.141	9.54
643.175	3.54
643.209	6.54
643.243	7.54
643.276	-8.46
643.31	-13.46
643.344	-5.46
643.378	6.54
643.412	3.54
643.446	12.54
643.48	14.54
643.513	18.54
643.547	10.54
643.581	0.54
643.615	15.54
643.649	9.54
643.683	-2.46
643.716	-17.46
643.75	-1.46
643.784	-14.46
643.818	11.54
643.852	7.54
643.886	-2.46
643.919	10.54
643.953	4.54
643.987	-7.46
644.021	14.54
644.055	11.54
644.088	0.54
644.122	-15.46
644.156	-13.46
644.19	5.54
644.224	14.54
644.257	22.54
644.291	28.54
644.325	6.54
644.359	8.54
644.392	20.54
644.426	6.54
644.46	-10.46
644.494	14.54
644.527	2.54
644.561	0.54
644.595	8.54
644.629	10.54
644.662	-6.46
644.696	23.54
644.73	5.54
644.764	0.54
644.797	-2.46
644.831	-7.46
644.865	12.54
644.899	2.54
644.932	15.54
644.966	3.54
645	3.54
645.033	3.54
645.067	0.54
645.101	12.54
645.135	8.54
645.168	-4.46
645.202	-7.46
645.236	-7.46
645.269	11.54
645.303	4.54
645.337	-9.46
645.37	4.54
645.404	8.54
645.438	11.54
645.471	-11.46
645.505	-0.46
645.539	7.54
645.572	-4.46
645.606	7.54
645.64	-0.46
645.673	2.54
645.707	17.54
645.741	3.54
645.774	-9.46
645.808	0.54
645.842	0.54
645.875	-6.46
645.909	-11.46
645.943	-13.46
645.976	8.54
646.01	-2.46
646.043	-0.46
646.077	7.54
646.111	0.54
646.144	13.54
646.178	-0.46
646.212	-14.46
646.245	-2.46
646.279	20.54
646.312	5.54
646.346	20.54
646.38	-4.46
646.413	7.54
646.447	-5.46
646.48	0.54
646.514	26.54
646.547	-12.46
646.581	-14.46
646.615	-4.46
646.648	-20.46
646.682	-8.46
646.715	-5.46
646.749	11.54
646.782	-11.46
646.816	5.54
646.85	9.54
646.883	5.54
646.917	0.54
646.95	13.54
646.984	15.54
647.017	7.54
647.051	4.54
647.084	13.54
647.118	-4.46
647.151	6.54
647.185	11.54
647.218	-5.46
647.252	1.54
647.285	-7.46
647.319	-6.46
647.353	18.54
647.386	15.54
647.42	-2.46
647.453	11.54
647.487	4.54
647.52	11.54
647.553	9.54
647.587	-18.46
647.62	-17.46
647.654	-1.46
647.687	2.54
647.721	8.54
647.754	4.54
647.788	6.54
647.821	-8.46
647.855	14.54
647.888	8.54
647.922	-8.46
647.955	-1.46
647.989	4.54
648.022	7.54
648.055	4.54
648.089	-4.46
648.122	9.54
648.156	-5.46
648.189	10.54
648.223	5.54
648.256	5.54
648.29	10.54
648.323	10.54
648.356	9.54
648.39	13.54
648.423	2.54
648.457	7.54
648.49	12.54
648.523	7.54
648.557	2.54
648.59	-11.46
648.624	8.54
648.657	4.54
648.69	4.54
648.724	9.54
648.757	12.54
648.791	15.54
648.824	16.54
648.857	-13.46
648.891	8.54
648.924	10.54
648.957	22.54
648.991	-3.46
649.024	17.54
649.057	4.54
649.091	-6.46
649.124	11.54
649.158	5.54
649.191	19.54
649.224	7.54
649.258	12.54
649.291	4.54
649.324	10.54
649.358	1.54
649.391	0.54
649.424	5.54
649.458	14.54
649.491	-1.46
649.524	-17.46
649.557	-1.46
649.591	-0.46
649.624	19.54
649.657	-3.46
649.691	10.54
649.724	8.54
649.757	1.54
649.791	-3.46
649.824	16.54
649.857	13.54
649.89	3.54
649.924	-17.46
649.957	14.54
649.99	-4.46
650.023	-0.46
650.057	-13.46
650.09	8.54
650.123	2.54
650.157	15.54
650.19	20.54
650.223	4.54
650.256	-6.46
650.29	8.54
650.323	7.54
650.356	12.54
650.389	-0.46
650.423	1.54
650.456	1.54
650.489	8.54
650.522	-3.46
650.555	14.54
650.589	7.54
650.622	8.54
650.655	9.54
650.688	23.54
650.721	3.54
650.755	7.54
650.788	17.54
650.821	-2.46
650.854	-17.46
650.887	14.54
650.921	11.54
650.954	-1.46
650.987	11.54
651.02	-2.46
651.053	8.54
651.087	18.54
651.12	22.54
651.153	14.54
651.186	7.54
651.219	-14.46
651.252	4.54
651.286	13.54
651.319	-2.46
651.352	13.54
651.385	19.54
651.418	-0.46
651.451	20.54
651.484	11.54
651.518	-10.46
651.551	29.54
651.584	-11.46
651.617	22.54
651.65	3.54
651.683	11.54
651.716	9.54
651.749	10.54
651.783	4.54
651.816	-4.46
651.849	2.54
651.882	-12.46
651.915	8.54
651.948	10.54
651.981	-2.46
652.014	8.54
652.047	17.54
652.08	1.54
652.114	10.54
652.147	-3.46
652.18	8.54
652.213	17.54
652.246	-6.46
652.279	4.54
652.312	11.54
652.345	15.54
652.378	16.54
652.411	14.54
652.444	16.54
652.477	5.54
652.51	5.54
652.543	-3.46
652.576	-1.46
652.609	-4.46
652.642	4.54
652.675	18.54
652.709	18.54
652.742	9.54
652.775	15.54
652.808	-5.46
652.841	7.54
652.874	4.54
652.907	-0.46
652.94	13.54
652.973	-12.46
653.006	-1.46
653.039	19.54
653.072	23.54
653.105	-17.46
653.138	4.54
653.171	7.54
653.204	3.54
653.237	8.54
653.27	2.54
653.303	9.54
653.336	2.54
653.368	-0.46
653.401	15.54
653.434	-7.46
653.467	-4.46
653.5	2.54
653.533	-8.46
653.566	-5.46
653.599	12.54
653.632	8.54
653.665	-0.46
653.698	-16.46
653.731	-13.46
653.764	10.54
653.797	0.54
653.83	11.54
653.863	4.54
653.896	9.54
653.929	-5.46
653.961	15.54
653.994	-2.46
654.027	-14.46
654.06	17.54
654.093	8.54
654.126	8.54
654.159	1.54
654.192	7.54
654.225	-18.46
654.258	-9.46
654.29	1.54
654.323	-1.46
654.356	3.54
654.389	16.54
654.422	9.54
654.455	3.54
654.488	14.54
654.521	-21.46
654.553	-3.46
654.586	15.54
654.619	7.54
654.652	10.54
654.685	13.54
654.718	20.54
654.751	12.54
654.783	10.54
654.816	35.54
654.849	3.54
654.882	4.54
654.915	-13.46
654.948	-2.46
654.98	-7.46
655.013	-1.46
655.046	0.54
655.079	6.54
655.112	12.54
655.144	-5.46
655.177	-6.46
655.21	6.54
655.243	23.54
655.276	10.54
655.308	6.54
655.341	-1.46
655.374	2.54
655.407	-0.46
655.44	-2.46
655.472	20.54
655.505	24.54
655.538	-0.46
655.571	0.54
655.603	-8.46
655.636	2.54
655.669	21.54
655.702	12.54
655.734	0.54
655.767	9.54
655.8	19.54
655.833	32.54
655.865	17.54
655.898	6.54
655.931	18.54
655.964	37.54
655.996	12.54
656.029	27.54
656.062	21.54
656.095	42.54
656.127	81.54
656.16	213.54
656.193	630.54
656.225	984.54
656.258	564.54
656.291	217.54
656.324	194.54
656.356	371.54
656.389	787.54
656.422	697.54
656.454	242.54
656.487	84.54
656.52	42.54
656.552	18.54
656.585	17.54
656.618	19.54
656.65	16.54
656.683	7.54
656.716	9.54
656.748	12.54
656.781	-24.46
656.814	3.54
656.846	10.54
656.879	2.54
656.912	-2.46
656.944	-10.46
656.977	-2.46
657.01	3.54
657.042	12.54
657.075	4.54
657.108	14.54
657.14	20.54
657.173	13.54
657.205	14.54
657.238	12.54
657.271	7.54
657.303	-4.46
657.336	-5.46
657.369	6.54
657.401	10.54
657.434	4.54
657.466	18.54
657.499	9.54
657.532	-3.46
657.564	5.54
657.597	-4.46
657.629	-2.46
657.662	12.54
657.694	9.54
657.727	-4.46
657.76	22.54
657.792	-3.46
657.825	10.54
657.857	5.54
657.89	-1.46
657.922	15.54
657.955	-21.46
657.987	-2.46
658.02	11.54
658.053	14.54
658.085	8.54
658.118	15.54
658.15	20.54
658.183	22.54
658.215	-5.46
658.248	-4.46
658.28	-0.46
658.313	20.54
658.345	18.54
658.378	-9.46
658.41	5.54
658.443	19.54
658.475	10.54
658.508	-1.46
658.54	-4.46
658.573	-7.46
658.605	3.54
658.638	-4.46
658.67	7.54
658.703	0.54
658.735	-6.46
658.768	12.54
658.8	9.54
658.833	34.54
658.865	15.54
658.898	16.54
658.93	-4.46
658.963	0.54
658.995	-5.46
659.028	4.54
659.06	5.54
659.092	-3.46
659.125	9.54
659.157	10.54
659.19	-6.46
659.222	-1.46
659.255	6.54
659.287	-9.46
659.32	5.54
659.352	15.54
659.384	13.54
659.417	3.54
659.449	-11.46
659.482	3.54
659.514	-8.46
659.546	-10.46
659.579	1.54
659.611	-0.46
659.644	-1.46
659.676	-18.46
659.708	-14.46
659.741	-7.46
659.773	11.54
659.806	-0.46
659.838	0.54
659.87	-5.46
659.903	8.54
659.935	8.54
659.967	-0.46
660	-2.46
660.032	-15.46
660.065	20.54
660.097	6.54
660.129	14.54
660.162	-8.46
660.194	11.54
660.226	3.54
660.259	15.54
660.291	0.54
660.323	3.54
660.356	-9.46
660.388	-15.46
660.42	15.54
660.453	3.54
660.485	17.54
660.517	4.54
660.55	26.54
660.582	1.54
660.614	8.54
660.647	1.54
660.679	-3.46
660.711	17.54
660.743	1.54
660.776	0.54
660.808	1.54
660.84	-1.46
660.873	6.54
660.905	-0.46
660.937	-8.46
660.969	-0.46
661.002	-3.46
661.034	9.54
661.066	5.54
661.099	18.54
661.131	26.54
661.163	16.54
661.195	-5.46
661.228	-4.46
661.26	0.54
661.292	-2.46
661.324	17.54
661.357	19.54
661.389	4.54
661.421	-2.46
661.453	-12.46
661.485	-4.46
661.518	10.54
661.55	-3.46
661.582	-10.46
661.614	-5.46
661.647	-8.46
661.679	6.54
661.711	-2.46
661.743	-1.46
661.775	-4.46
661.808	19.54
661.84	-11.46
661.872	1.54
661.904	-8.46
661.936	-9.46
661.969	0.54
662.001	-7.46
662.033	16.54
662.065	-4.46
662.097	6.54
662.129	7.54
662.162	-13.46
662.194	14.54
662.226	8.54
662.258	3.54
662.29	-3.46
662.322	-4.46
662.355	-8.46
662.387	23.54
662.419	-0.46
662.451	17.54
662.483	1.54
662.515	-0.46
662.547	1.54
662.58	-4.46
662.612	-0.46
662.644	-3.46
662.676	11.54
662.708	-0.46
662.74	-16.46
662.772	5.54
662.804	8.54
662.836	13.54
662.869	9.54
662.901	11.54
662.933	-4.46
662.965	19.54
662.997	26.54
663.029	2.54
663.061	6.54
663.093	-7.46
663.125	4.54
663.157	2.54
663.189	4.54
663.221	11.54
663.254	1.54
663.286	11.54
663.318	-4.46
663.35	-14.46
663.382	-4.46
663.414	0.54
663.446	-1.46
663.478	-10.46
663.51	35.54
663.542	-0.46
663.574	-6.46
663.606	4.54
663.638	1.54
663.67	2.54
663.702	0.54
663.734	9.54
663.766	-2.46
663.798	6.54
663.83	-6.46
663.862	-4.46
663.894	11.54
663.926	-20.46
663.958	8.54
663.99	-3.46
664.022	-5.46
664.054	6.54
664.086	-15.46
664.118	-20.46
664.15	9.54
664.182	12.54
664.214	15.54
664.246	8.54
664.278	3.54
664.31	4.54
664.342	3.54
664.374	-5.46
664.406	-2.46
664.438	11.54
664.47	19.54
664.502	3.54
664.534	-0.46
664.566	-6.46
664.598	13.54
664.63	-17.46
664.662	1.54
664.693	-7.46
664.725	-2.46
664.757	-3.46
664.789	-12.46
664.821	-3.46
664.853	16.54
664.885	-11.46
664.917	4.54
664.949	4.54
664.981	23.54
665.013	3.54
665.045	-5.46
665.076	-2.46
665.108	-2.46
665.14	3.54
665.172	-12.46
665.204	-0.46
665.236	-18.46
665.268	-6.46
665.3	-0.46
665.331	-3.46
665.363	3.54
665.395	-4.46
665.427	11.54
665.459	6.54
665.491	-0.46
665.523	16.54
665.555	1.54
665.586	-4.46
665.618	-0.46
665.65	-11.46
665.682	-1.46
665.714	24.54
665.746	10.54
665.777	10.54
665.809	12.54
665.841	4.54
665.873	-7.46
665.905	9.54
665.937	15.54
665.968	-0.46
666	-3.46
666.032	3.54
666.064	1.54
666.096	-2.46
666.127	13.54
666.159	18.54
666.191	22.54
666.223	10.54
666.255	8.54
666.286	15.54
666.318	18.54
666.35	13.54
666.382	5.54
666.413	-2.46
666.445	-7.46
666.477	10.54
666.509	-6.46
666.54	9.54
666.572	-0.46
666.604	-5.46
666.636	-7.46
666.667	17.54
666.699	12.54
666.731	9.54
666.763	-11.46
666.794	-6.46
666.826	-3.46
666.858	-15.46
666.89	8.54
666.921	4.54
666.953	-7.46
666.985	11.54
667.017	21.54
667.048	10.54
667.08	-7.46
667.112	-0.46
667.143	-12.46
667.175	-9.46
667.207	5.54
667.238	5.54
667.27	2.54
667.302	4.54
667.334	5.54
667.365	15.54
667.397	9.54
667.429	-8.46
667.46	7.54
667.492	1.54
667.524	-1.46
667.555	1.54
667.587	-0.46
667.619	7.54
667.65	2.54
667.682	0.54
667.714	-3.46
667.745	-0.46
667.777	-8.46
667.808	2.54
667.84	11.54
667.872	-4.46
667.903	20.54
667.935	4.54
667.967	-11.46
667.998	1.54
668.03	3.54
668.061	7.54
668.093	-12.46
668.125	12.54
668.156	11.54
668.188	-8.46
668.22	-21.46
668.251	-3.46
668.283	12.54
668.314	18.54
668.346	16.54
668.377	16.54
668.409	0.54
668.441	8.54
668.472	6.54
668.504	11.54
668.535	6.54
668.567	0.54
668.599	9.54
668.63	-30.46
668.662	0.54
668.693	13.54
668.725	6.54
668.756	8.54
668.788	0.54
668.819	0.54
668.851	3.54
668.882	-1.46
668.914	-1.46
668.946	-4.46
668.977	-14.46
669.009	10.54
669.04	-13.46
669.072	4.54
669.103	-1.46
669.135	2.54
669.166	2.54
669.198	9.54
669.229	19.54
669.261	-4.46
669.292	-0.46
669.324	1.54
669.355	16.54
669.387	-3.46
669.418	2.54
669.45	-6.46
669.481	0.54
669.513	16.54
669.544	13.54
669.576	8.54
669.607	28.54
669.639	6.54
669.67	1.54
669.701	28.54
669.733	-8.46
669.764	1.54
669.796	17.54
669.827	-4.46
669.859	4.54
669.89	0.54
669.922	7.54
669.953	17.54
669.985	24.54
670.016	12.54
670.047	14.54
670.079	6.54
670.11	3.54
670.142	-3.46
670.173	12.54
670.204	12.54
670.236	7.54
670.267	-3.46
670.299	-6.46
670.33	9.54
670.362	17.54
670.393	-5.46
670.424	12.54
670.456	-10.46
670.487	-4.46
670.518	-8.46
670.55	4.54
670.581	-7.46
670.613	13.54
670.644	-5.46
670.675	-4.46
670.707	-2.46
670.738	1.54
670.769	4.54
670.801	-3.46
670.832	10.54
670.864	-10.46
670.895	15.54
670.926	4.54
670.958	9.54
670.989	19.54
671.02	-6.46
671.052	-8.46
671.083	-7.46
671.114	4.54
671.146	-2.46
671.177	2.54
671.208	-10.46
671.24	-7.46
671.271	-5.46
671.302	-1.46
671.333	-10.46
671.365	-17.46
671.396	-6.46
671.427	11.54
671.459	2.54
671.49	-0.46
671.521	1.54
671.553	3.54
671.584	14.54
671.615	10.54
671.646	17.54
671.678	10.54
671.709	-3.46
671.74	-10.46
671.771	8.54
671.803	4.54
671.834	14.54
671.865	10.54
671.896	3.54
671.928	1.54
671.959	-7.46
671.99	-1.46
672.021	10.54
672.053	-2.46
672.084	26.54
672.115	11.54
672.146	-20.46
672.178	-5.46
672.209	-4.46
672.24	0.54
672.271	35.54
672.303	8.54
672.334	-4.46
672.365	-6.46
672.396	3.54
672.427	14.54
672.459	1.54
672.49	14.54
672.521	3.54
672.552	4.54
672.583	5.54
672.615	11.54
672.646	8.54
672.677	6.54
672.708	4.54
672.739	9.54
672.77	7.54
672.802	11.54
672.833	-5.46
672.864	-9.46
672.895	-7.46
672.926	-6.46
672.957	-1.46
672.989	-0.46
673.02	11.54
673.051	3.54
673.082	10.54
673.113	1.54
673.144	3.54
673.175	-5.46
673.206	-8.46
673.238	-5.46
673.269	15.54
673.3	5.54
673.331	10.54
673.362	-1.46
673.393	17.54
673.424	15.54
673.455	20.54
673.487	1.54
673.518	5.54
673.549	0.54
673.58	13.54
673.611	8.54
673.642	3.54
673.673	-13.46
673.704	-3.46
673.735	-4.46
673.766	2.54
673.797	-4.46
673.828	1.54
673.86	4.54
673.891	-0.46
673.922	5.54
673.953	-0.46
673.984	17.54
674.015	3.54
674.046	13.54
674.077	11.54
674.108	6.54
674.139	6.54
674.17	4.54
674.201	1.54
674.232	-3.46
674.263	-5.46
674.294	-16.46
674.325	-6.46
674.356	8.54
674.387	24.54
674.418	7.54
674.449	-8.46
674.48	-9.46
674.511	-3.46
674.542	10.54
674.573	16.54
674.604	17.54
674.635	9.54
674.666	7.54
674.697	12.54
674.728	-9.46
674.759	-12.46
674.79	-3.46
674.821	8.54
674.852	-1.46
674.883	-4.46
674.914	1.54
674.945	6.54
674.976	-0.46
675.007	-14.46
675.038	-15.46
675.069	-4.46
675.1	-10.46
675.131	11.54
675.162	3.54
675.193	5.54
675.224	-10.46
675.254	16.54
675.285	12.54
675.316	9.54
675.347	10.54
675.378	-6.46
675.409	-8.46
675.44	17.54
675.471	10.54
675.502	6.54
675.533	-2.46
675.564	-1.46
675.595	2.54
675.625	18.54
675.656	8.54
675.687	-1.46
675.718	-13.46
675.749	22.54
675.78	8.54
675.811	0.54
675.842	1.54
675.873	12.54
675.903	7.54
675.934	16.54
675.965	-3.46
675.996	-24.46
676.027	-4.46
676.058	6.54
676.089	-16.46
676.119	-3.46
676.15	-7.46
676.181	7.54
676.212	-4.46
676.243	9.54
676.274	10.54
676.304	22.54
676.335	-0.46
676.366	9.54
676.397	7.54
676.428	4.54
676.459	15.54
676.489	22.54
676.52	11.54
676.551	3.54
676.582	8.54
676.613	16.54
676.643	8.54
676.674	13.54
676.705	-3.46
676.736	22.54
676.767	-0.46
676.797	-1.46
676.828	2.54
676.859	12.54
676.89	-8.46
676.92	17.54
676.951	13.54
676.982	0.54
677.013	8.54
677.044	16.54
677.074	10.54
677.105	-16.46
677.136	25.54
677.167	20.54
677.197	2.54
677.228	-8.46
677.259	12.54
677.289	2.54
677.32	-2.46
677.351	5.54
677.382	-0.46
677.412	-16.46
677.443	10.54
677.474	-1.46
677.505	-15.46
677.535	-9.46
677.566	0.54
677.597	-28.46
677.627	6.54
677.658	10.54
677.689	-4.46
677.72	11.54
677.75	-6.46
677.781	-1.46
677.812	15.54
677.842	10.54
677.873	5.54
677.904	3.54
677.934	15.54
677.965	2.54
677.996	-12.46
678.026	0.54
678.057	8.54
678.088	-23.46
678.118	8.54
678.149	-6.46
678.18	1.54
678.21	4.54
678.241	8.54
678.272	3.54
678.302	-9.46
678.333	18.54
678.363	23.54
678.394	9.54
678.425	5.54
678.455	-4.46
678.486	20.54
678.517	10.54
678.547	-5.46
678.578	-5.46
678.608	-21.46
678.639	6.54
678.67	-6.46
678.7	-4.46
678.731	-2.46
678.761	-13.46
678.792	2.54
678.823	2.54
678.853	13.54
678.884	5.54
678.914	4.54
678.945	10.54
678.975	3.54
679.006	7.54
679.037	1.54
679.067	39.54
679.098	-7.46
679.128	-7.46
679.159	3.54
679.189	24.54
679.22	8.54
679.25	11.54
679.281	15.54
679.312	6.54
679.342	1.54
679.373	27.54
679.403	12.54
679.434	15.54
679.464	-10.46
679.495	-6.46
679.525	-0.46
679.556	-4.46
679.586	13.54
679.617	-7.46
679.647	4.54
679.678	-1.46
679.708	-2.46
679.739	-6.46
679.769	-1.46
679.8	1.54
679.83	9.54
679.861	20.54
679.891	-2.46
679.922	-11.46
679.952	-4.46
679.983	9.54
680.013	3.54
680.044	-10.46
680.074	9.54
680.105	9.54
680.135	6.54
680.165	9.54
680.196	9.54
680.226	18.54
680.257	14.54
680.287	4.54
680.318	-6.46
680.348	-0.46
680.379	17.54
680.409	13.54
680.439	0.54
680.47	-2.46
680.5	-0.46
680.531	-0.46
680.561	8.54
680.592	0.54
680.622	22.54
680.652	13.54
680.683	25.54
680.713	-1.46
680.744	-12.46
680.774	-14.46
680.804	11.54
680.835	-11.46
680.865	-3.46
680.896	36.54
680.926	12.54
680.956	14.54
680.987	5.54
681.017	8.54
681.047	0.54
681.078	-18.46
681.108	1.54
681.139	-0.46
681.169	-10.46
681.199	-11.46
681.23	-4.46
681.26	-5.46
681.29	4.54
681.321	-14.46
681.351	0.54
681.381	-13.46
681.412	20.54
681.442	12.54
681.472	12.54
681.503	15.54
681.533	14.54
681.563	0.54
681.594	-8.46
681.624	1.54
681.654	4.54
681.685	-4.46
681.715	8.54
681.745	8.54
681.775	-7.46
681.806	5.54
681.836	14.54
681.866	-7.46
681.897	-8.46
681.927	3.54
681.957	2.54
681.987	8.54
682.018	-0.46
682.048	0.54
682.078	0.54
682.109	18.54
682.139	0.54
682.169	-10.46
682.199	8.54
682.23	3.54
682.26	9.54
682.29	15.54
682.32	-14.46
682.351	-0.46
682.381	15.54
682.411	4.54
682.441	-3.46
682.472	3.54
682.502	4.54
682.532	5.54
682.562	18.54
682.592	4.54
682.623	11.54
682.653	7.54
682.683	0.54
682.713	9.54
682.743	-7.46
682.774	-1.46
682.804	18.54
682.834	15.54
682.864	-4.46
682.894	-2.46
682.925	-2.46
682.955	4.54
682.985	-0.46
683.015	-2.46
683.045	24.54
683.076	4.54
683.106	9.54
683.136	-9.46
683.166	3.54
683.196	1.54
683.226	-3.46
683.257	4.54
683.287	-0.46
683.317	-5.46
683.347	-7.46
683.377	-0.46
683.407	4.54
683.437	4.54
683.468	20.54
683.498	0.54
683.528	4.54
683.558	5.54
683.588	7.54
683.618	-13.46
683.648	-17.46
683.678	7.54
683.708	7.54
683.739	0.54
683.769	1.54
683.799	15.54
683.829	-13.46
683.859	11.54
683.889	1.54
683.919	9.54
683.949	5.54
683.979	1.54
684.009	5.54
684.039	2.54
684.07	-16.46
684.1	0.54
684.13	1.54
684.16	-13.46
684.19	3.54
684.22	-0.46
684.25	10.54
684.28	-11.46
684.31	13.54
684.34	6.54
684.37	-0.46
684.4	-14.46
684.43	9.54
684.46	14.54
684.49	7.54
684.52	9.54
684.55	8.54
684.58	-1.46
684.61	6.54
684.64	18.54
684.67	10.54
684.7	-0.46
684.73	9.54
684.76	-5.46
684.79	12.54
684.82	4.54
684.85	0.54
684.88	16.54
684.91	-3.46
684.94	-3.46
684.97	1.54
685	2.54
685.03	1.54
685.06	3.54
685.09	1.54
685.12	19.54
685.15	14.54
685.18	12.54
685.21	8.54
685.24	15.54
685.27	15.54
685.3	-2.46
685.33	10.54
685.36	14.54
685.39	11.54
685.42	-9.46
685.45	-17.46
685.48	1.54
685.51	-12.46
685.54	19.54
685.569	15.54
685.599	7.54
685.629	14.54
685.659	18.54
685.689	4.54
685.719	4.54
685.749	-4.46
685.779	-1.46
685.809	6.54
685.839	-9.46
685.869	2.54
685.898	15.54
685.928	2.54
685.958	-3.46
685.988	14.54
686.018	5.54
686.048	13.54
686.078	12.54
686.108	30.54
686.137	18.54
686.167	18.54
686.197	-4.46
686.227	3.54
686.257	17.54
686.287	16.54
686.317	4.54
686.346	-10.46
686.376	-2.46
686.406	5.54
686.436	18.54
686.466	12.54
686.496	13.54
686.525	6.54
686.555	-0.46
686.585	19.54
686.615	27.54
686.645	3.54
686.675	16.54
686.704	18.54
686.734	19.54
686.764	-9.46
686.794	3.54
686.824	-6.46
686.853	10.54
686.883	20.54
686.913	9.54
686.943	0.54
686.973	5.54
687.002	2.54
687.032	12.54
687.062	-0.46
687.092	16.54
687.121	11.54
687.151	15.54
687.181	-3.46
687.211	3.54
687.24	0.54
687.27	11.54
687.3	-4.46
687.33	18.54
687.359	-11.46
687.389	3.54
687.419	7.54
687.449	9.54
687.478	32.54
687.508	7.54
687.538	10.54
687.568	7.54
687.597	-0.46
687.627	7.54
687.657	25.54
687.686	18.54
687.716	19.54
687.746	1.54
687.776	-2.46
687.805	7.54
687.835	8.54
687.865	21.54
687.894	12.54
687.924	-4.46
687.954	3.54
687.983	10.54
688.013	19.54
688.043	7.54
688.072	-9.46
688.102	24.54
688.132	-6.46
688.161	10.54
688.191	4.54
688.221	23.54
688.25	8.54
688.28	13.54
688.31	-0.46
688.339	0.54
688.369	-0.46
688.399	-14.46
688.428	-4.46
688.458	4.54
688.488	14.54
688.517	15.54
688.547	-13.46
688.576	15.54
688.606	22.54
688.636	-14.46
688.665	2.54
688.695	-1.46
688.725	21.54
688.754	3.54
688.784	4.54
688.813	10.54
688.843	2.54
688.873	-9.46
688.902	-4.46
688.932	12.54
688.961	-13.46
688.991	0.54
689.02	11.54
689.05	-4.46
689.08	-0.46
689.109	21.54
689.139	-1.46
689.168	5.54
689.198	10.54
689.227	-0.46
689.257	-0.46
689.287	5.54
689.316	-1.46
689.346	7.54
689.375	-3.46
689.405	13.54
689.434	0.54
689.464	20.54
689.493	6.54
689.523	14.54
689.552	9.54
689.582	16.54
689.611	-3.46
689.641	20.54
689.67	2.54
689.7	7.54
689.73	9.54
689.759	-5.46
689.789	4.54
689.818	0.54
689.848	7.54
689.877	17.54
689.906	-10.46
689.936	-10.46
689.965	12.54
689.995	7.54
690.024	5.54
690.054	-4.46
690.083	5.54
690.113	11.54
690.142	-2.46
690.172	6.54
690.201	9.54
690.231	18.54
690.26	24.54
690.29	26.54
690.319	12.54
690.348	5.54
690.378	27.54
690.407	2.54
690.437	-0.46
690.466	10.54
690.496	-5.46
690.525	8.54
690.555	-15.46
690.584	2.54
690.613	3.54
690.643	6.54
690.672	29.54
690.702	-2.46
690.731	-5.46
690.76	10.54
690.79	1.54
690.819	-5.46
690.849	10.54
690.878	3.54
690.907	4.54
690.937	0.54
690.966	23.54
690.996	13.54
691.025	1.54
691.054	5.54
691.084	-6.46
691.113	5.54
691.142	20.54
691.172	13.54
691.201	14.54
691.23	4.54
691.26	11.54
691.289	-9.46
691.319	-9.46
691.348	5.54
691.377	19.54
691.407	12.54
691.436	3.54
691.465	8.54
691.495	3.54
691.524	-2.46
691.553	1.54
691.583	-0.46
691.612	17.54
691.641	8.54
691.67	-9.46
691.7	4.54
691.729	5.54
691.758	8.54
691.788	8.54
691.817	2.54
691.846	11.54
691.876	3.54
691.905	-0.46
691.934	3.54
691.963	14.54
691.993	14.54
692.022	13.54
692.051	-7.46
692.081	7.54
692.11	27.54
692.139	1.54
692.168	7.54
692.198	25.54
692.227	16.54
692.256	6.54
692.285	3.54
692.315	-2.46
692.344	5.54
692.373	14.54
692.402	-20.46
692.432	-11.46
692.461	9.54
692.49	23.54
692.519	10.54
692.548	6.54
692.578	2.54
692.607	-7.46
692.636	7.54
692.665	11.54
692.694	8.54
692.724	2.54
692.753	5.54
692.782	2.54
692.811	-0.46
692.84	3.54
692.87	12.54
692.899	9.54
692.928	-15.46
692.957	13.54
692.986	1.54
693.016	7.54
693.045	27.54
693.074	7.54
693.103	2.54
693.132	2.54
693.161	21.54
693.191	8.54
693.22	-4.46
693.249	13.54
693.278	12.54
693.307	15.54
693.336	-0.46
693.365	-5.46
693.395	3.54
693.424	6.54
693.453	20.54
693.482	3.54
693.511	7.54
693.54	4.54
693.569	12.54
693.598	7.54
693.628	28.54
693.657	21.54
693.686	26.54
693.715	18.54
693.744	15.54
693.773	9.54
693.802	5.54
693.831	6.54
693.86	20.54
693.889	12.54
693.919	18.54
693.948	-19.46
693.977	3.54
694.006	3.54
694.035	3.54
694.064	-0.46
694.093	16.54
694.122	9.54
694.151	-9.46
694.18	0.54
694.209	14.54
694.238	-3.46
694.267	20.54
694.296	7.54
694.325	9.54
694.354	22.54
694.383	14.54
694.412	-1.46
694.441	-22.46
694.471	-19.46
694.5	-16.46
694.529	11.54
694.558	31.54
694.587	10.54
694.616	-3.46
694.645	6.54
694.674	14.54
694.703	25.54
694.732	15.54
694.761	14.54
694.79	14.54
694.819	10.54
694.848	0.54
694.877	19.54
694.906	41.54
694.935	4.54
694.963	16.54
694.992	-1.46
695.021	4.54
695.05	13.54
695.079	15.54
695.108	6.54
695.137	16.54
695.166	-4.46
695.195	-4.46
695.224	-0.46
695.253	11.54
695.282	4.54
695.311	13.54
695.34	13.54
695.369	13.54
695.398	7.54
695.427	9.54
695.456	6.54
695.485	10.54
695.513	18.54
695.542	19.54
695.571	-0.46
695.6	3.54
695.629	15.54
695.658	9.54
695.687	0.54
695.716	9.54
695.745	39.54
695.774	-0.46
695.802	-2.46
695.831	1.54
695.86	11.54
695.889	13.54
695.918	15.54
695.947	-6.46
695.976	-2.46
696.005	11.54
696.033	8.54
696.062	7.54
696.091	-2.46
696.12	3.54
696.149	8.54
696.178	4.54
696.207	3.54
696.235	4.54
696.264	8.54
696.293	6.54
696.322	-4.46
696.351	16.54
696.38	0.54
696.408	-6.46
696.437	-11.46
696.466	16.54
696.495	-13.46
696.524	31.54
696.553	12.54
696.581	14.54
696.61	-5.46
696.639	-6.46
696.668	10.54
696.697	12.54
696.725	1.54
696.754	12.54
696.783	-5.46
696.812	-9.46
696.84	2.54
696.869	19.54
696.898	8.54
696.927	15.54
696.956	17.54
696.984	-9.46
697.013	7.54
697.042	13.54
697.071	12.54
697.099	20.54
697.128	12.54
697.157	5.54
697.186	-1.46
697.214	8.54
697.243	4.54
697.272	8.54
697.301	4.54
697.329	19.54
697.358	24.54
697.387	19.54
697.415	11.54
697.444	16.54
697.473	8.54
697.502	-6.46
697.53	19.54
697.559	-5.46
697.588	6.54
697.616	6.54
697.645	1.54
697.674	17.54
697.703	-9.46
697.731	17.54
697.76	3.54
697.789	9.54
697.817	15.54
697.846	46.54
697.875	15.54
697.903	6.54
697.932	-1.46
697.961	11.54
697.989	14.54
698.018	14.54
698.047	11.54
698.075	31.54
698.104	-0.46
698.133	-4.46
698.161	9.54
698.19	6.54
698.218	0.54
698.247	15.54
698.276	-0.46
698.304	13.54
698.333	8.54
698.362	13.54
698.39	-0.46
698.419	5.54
698.447	6.54
698.476	7.54
698.505	8.54
698.533	3.54
698.562	17.54
698.591	-0.46
698.619	-9.46
698.648	7.54
698.676	-3.46
698.705	-8.46
698.733	-8.46
698.762	-14.46
698.791	-4.46
698.819	19.54
698.848	5.54
698.876	3.54
698.905	-5.46
698.933	19.54
698.962	18.54
698.991	9.54
699.019	24.54
699.048	17.54
699.076	7.54
699.105	-5.46
699.133	-2.46
699.162	13.54
699.19	31.54
699.219	11.54
699.248	14.54
699.276	8.54
699.305	-10.46
699.333	15.54
699.362	10.54
699.39	16.54
699.419	-0.46
699.447	15.54
699.476	5.54
699.504	0.54
699.533	9.54
699.561	-6.46
699.59	8.54
699.618	-2.46
699.647	-3.46
699.675	11.54
699.704	19.54
699.732	17.54
699.761	3.54
699.789	-2.46
699.818	6.54
699.846	3.54
699.874	6.54
699.903	-30.46
699.931	-16.46
699.96	7.54
699.988	-6.46
700.017	0.54
700.045	25.54
700.074	-4.46
700.102	0.54
700.13	-19.46
700.159	-2.46
700.187	-0.46
700.216	-5.46
700.244	-7.46
700.273	-2.46
700.301	6.54
700.329	5.54
700.358	16.54
700.386	-12.46
700.415	15.54
700.443	17.54
700.472	8.54
700.5	8.54
700.528	2.54
700.557	14.54
700.585	12.54
700.614	2.54
700.642	20.54
700.67	33.54
700.699	23.54
700.727	7.54
700.755	17.54
700.784	12.54
700.812	6.54
700.841	16.54
700.869	-3.46
700.897	-8.46
700.926	6.54
700.954	22.54
700.982	8.54
701.011	1.54
701.039	3.54
701.067	1.54
701.096	10.54
701.124	-10.46
701.152	-9.46
701.181	9.54
701.209	-9.46
701.237	-7.46
701.266	-8.46
701.294	-16.46
701.322	9.54
701.351	13.54
701.379	-1.46
701.407	4.54
701.435	-15.46
701.464	26.54
701.492	23.54
701.52	4.54
701.549	1.54
701.577	8.54
701.605	-9.46
701.634	-9.46
701.662	11.54
701.69	-1.46
701.718	-3.46
701.747	12.54
701.775	6.54
701.803	3.54
701.831	22.54
701.86	9.54
701.888	13.54
701.916	4.54
701.944	8.54
701.973	6.54
702.001	-5.46
702.029	0.54
702.057	0.54
702.086	-11.46
702.114	-5.46
702.142	-7.46
702.17	-12.46
702.199	5.54
702.227	2.54
702.255	-0.46
702.283	-6.46
702.311	5.54
702.34	3.54
702.368	4.54
702.396	-2.46
702.424	-1.46
702.452	-2.46
702.481	6.54
702.509	-11.46
702.537	20.54
702.565	10.54
702.593	-6.46
702.621	-0.46
702.65	15.54
702.678	20.54
702.706	23.54
702.734	15.54
702.762	9.54
702.79	-7.46
702.819	11.54
702.847	6.54
702.875	7.54
702.903	30.54
702.931	7.54
702.959	-11.46
702.988	8.54
703.016	6.54
703.044	-5.46
703.072	-6.46
703.1	-3.46
703.128	16.54
703.156	12.54
703.184	16.54
703.212	11.54
703.241	6.54
703.269	5.54
703.297	17.54
703.325	13.54
703.353	-2.46
703.381	9.54
703.409	4.54
703.437	5.54
703.465	8.54
703.493	-5.46
703.522	17.54
703.55	21.54
703.578	10.54
703.606	-3.46
703.634	-13.46
703.662	-4.46
703.69	3.54
703.718	13.54
703.746	21.54
703.774	13.54
703.802	10.54
703.83	1.54
703.858	4.54
703.886	-10.46
703.914	-4.46
703.942	16.54
703.97	4.54
703.998	4.54
704.027	22.54
704.055	6.54
704.083	-7.46
704.111	5.54
704.139	10.54
704.167	-1.46
704.195	3.54
704.223	4.54
704.251	-1.46
704.279	3.54
704.307	1.54
704.335	-2.46
704.363	12.54
704.391	17.54
704.419	4.54
704.447	5.54
704.475	11.54
704.503	1.54
704.531	14.54
704.558	12.54
704.586	6.54
704.614	0.54
704.642	8.54
704.67	-13.46
704.698	-6.46
704.726	12.54
704.754	0.54
704.782	6.54
704.81	3.54
704.838	14.54
704.866	7.54
704.894	-0.46
704.922	-10.46
704.95	6.54
704.978	15.54
705.006	8.54
705.034	15.54
705.061	-6.46
705.089	-2.46
705.117	-1.46
705.145	14.54
705.173	-9.46
705.201	-0.46
705.229	13.54
705.257	3.54
705.285	8.54
705.313	18.54
705.34	7.54
705.368	-4.46
705.396	-2.46
705.424	-0.46
705.452	-6.46
705.48	18.54
705.508	8.54
705.536	-7.46
705.563	-1.46
705.591	2.54
705.619	10.54
705.647	2.54
705.675	-7.46
705.703	19.54
705.731	-8.46
705.758	4.54
705.786	15.54
705.814	4.54
705.842	2.54
705.87	25.54
705.898	13.54
705.925	4.54
705.953	3.54
705.981	-6.46
706.009	-7.46
706.037	-0.46
706.065	6.54
706.092	2.54
706.12	8.54
706.148	-4.46
706.176	8.54
706.204	7.54
706.231	14.54
706.259	-7.46
706.287	-4.46
706.315	6.54
706.342	7.54
706.37	16.54
706.398	-1.46
706.426	-1.46
706.454	-0.46
706.481	11.54
706.509	11.54
706.537	8.54
706.565	12.54
706.592	22.54
706.62	10.54
706.648	-1.46
706.676	-1.46
706.703	2.54
706.731	3.54
706.759	-2.46
706.787	6.54
706.814	5.54
706.842	-0.46
706.87	-15.46
706.897	-1.46
706.925	-0.46
706.953	1.54
706.981	15.54
707.008	12.54
707.036	14.54
707.064	-3.46
707.091	-9.46
707.119	22.54
707.147	5.54
707.174	-3.46
707.202	7.54
707.23	0.54
707.258	11.54
707.285	-5.46
707.313	8.54
707.341	-5.46
707.368	0.54
707.396	6.54
707.424	40.54
707.451	16.54
707.479	15.54
707.507	11.54
707.534	-4.46
707.562	6.54
707.59	7.54
707.617	2.54
707.645	12.54
707.672	7.54
707.7	7.54
707.728	22.54
707.755	-3.46
707.783	-2.46
707.811	9.54
707.838	-1.46
707.866	2.54
707.893	8.54
707.921	-10.46
707.949	5.54
707.976	2.54
708.004	7.54
708.031	0.54
708.059	-2.46
708.087	14.54
708.114	4.54
708.142	6.54
708.169	-1.46
708.197	-10.46
708.225	2.54
708.252	2.54
708.28	7.54
708.307	5.54
708.335	-6.46
708.362	0.54
708.39	-16.46
708.418	6.54
708.445	-2.46
708.473	1.54
708.5	-8.46
708.528	1.54
708.555	3.54
708.583	8.54
708.61	7.54
708.638	12.54
708.665	-0.46
708.693	3.54
708.72	-1.46
708.748	-9.46
708.776	6.54
708.803	16.54
708.831	12.54
708.858	22.54
708.886	13.54
708.913	-12.46
708.941	-16.46
708.968	10.54
708.996	15.54
709.023	27.54
709.051	-14.46
709.078	-6.46
709.105	6.54
709.133	-1.46
709.16	2.54
709.188	10.54
709.215	1.54
709.243	0.54
709.27	1.54
709.298	-9.46
709.325	-0.46
709.353	-0.46
709.38	-3.46
709.408	7.54
709.435	7.54
709.462	13.54
709.49	-5.46
709.517	7.54
709.545	4.54
709.572	-0.46
709.6	0.54
709.627	16.54
709.655	-0.46
709.682	1.54
709.709	0.54
709.737	-5.46
709.764	-8.46
709.792	6.54
709.819	0.54
709.846	-1.46
709.874	6.54
709.901	5.54
709.929	16.54
709.956	7.54
709.983	-3.46
710.011	12.54
710.038	-0.46
710.066	3.54
710.093	13.54
710.12	9.54
710.148	-6.46
710.175	5.54
710.202	-1.46
710.23	3.54
710.257	7.54
710.284	11.54
710.312	-0.46
710.339	7.54
710.366	13.54
710.394	-4.46
710.421	10.54
710.448	3.54
710.476	-12.46
710.503	-1.46
710.53	5.54
710.558	20.54
710.585	16.54
710.612	8.54
710.64	6.54
710.667	4.54
710.694	-15.46
710.722	-5.46
710.749	8.54
710.776	7.54
710.804	27.54
710.831	5.54
710.858	-1.46
710.885	9.54
710.913	0.54
710.94	20.54
710.967	-3.46
710.995	-6.46
711.022	-0.46
711.049	-5.46
711.076	7.54
711.104	8.54
711.131	-7.46
711.158	-2.46
711.185	13.54
711.213	-1.46
711.24	-16.46
711.267	5.54
711.294	-7.46
711.322	6.54
711.349	8.54
711.376	4.54
711.403	7.54
711.431	13.54
711.458	10.54
711.485	-0.46
711.512	6.54
711.54	4.54
711.567	6.54
711.594	-7.46
711.621	1.54
711.648	-0.46
711.676	1.54
711.703	2.54
711.73	-2.46
711.757	0.54
711.784	8.54
711.812	12.54
711.839	8.54
711.866	3.54
711.893	6.54
711.92	7.54
711.947	2.54
711.975	-3.46
712.002	-4.46
712.029	-1.46
712.056	4.54
712.083	-2.46
712.11	-20.46
712.138	0.54
712.165	7.54
712.192	-6.46
712.219	-5.46
712.246	-3.46
712.273	1.54
712.3	-3.46
712.328	0.54
712.355	3.54
712.382	7.54
712.409	10.54
712.436	3.54
712.463	17.54
712.49	11.54
712.517	1.54
712.544	-1.46
712.572	8.54
712.599	9.54
712.626	15.54
712.653	2.54
712.68	10.54
712.707	6.54
712.734	8.54
712.761	7.54
712.788	16.54
712.815	10.54
712.842	11.54
712.87	6.54
712.897	-18.46
712.924	-9.46
712.951	14.54
712.978	12.54
713.005	26.54
713.032	18.54
713.059	9.54
713.086	-2.46
713.113	-3.46
713.14	-1.46
713.167	2.54
713.194	18.54
713.221	0.54
713.248	23.54
713.275	-0.46
713.302	-3.46
713.329	6.54
713.356	27.54
713.383	18.54
713.41	19.54
713.437	10.54
713.464	19.54
713.491	10.54
713.518	6.54
713.545	8.54
713.572	3.54
713.599	16.54
713.626	8.54
713.653	9.54
713.68	-2.46
713.707	-5.46
713.734	14.54
713.761	14.54
713.788	1.54
713.815	4.54
713.842	6.54
713.869	-5.46
713.896	4.54
713.923	13.54
713.95	6.54
713.977	6.54
714.004	3.54
714.031	-1.46
714.058	-9.46
714.085	-3.46
714.112	16.54
714.139	4.54
714.165	-3.46
714.192	5.54
714.219	-3.46
714.246	-2.46
714.273	-12.46
714.3	0.54
714.327	-3.46
714.354	12.54
714.381	3.54
714.408	-6.46
714.435	-1.46
714.461	4.54
714.488	3.54
714.515	-1.46
714.542	-5.46
714.569	-4.46
714.596	-12.46
714.623	7.54
714.65	7.54
714.677	9.54
714.703	5.54
714.73	12.54
714.757	21.54
714.784	8.54
714.811	-16.46
714.838	9.54
714.865	-12.46
714.891	8.54
714.918	14.54
714.945	-9.46
714.972	6.54
714.999	5.54
715.026	6.54
715.052	27.54
715.079	7.54
715.106	-0.46
715.133	19.54
715.16	1.54
715.187	6.54
715.213	23.54
715.24	1.54
715.267	0.54
715.294	4.54
715.321	3.54
715.347	10.54
715.374	-18.46
715.401	-1.46
715.428	-4.46
715.455	-3.46
715.481	-9.46
715.508	9.54
715.535	-5.46
715.562	27.54
715.588	16.54
715.615	4.54
715.642	1.54
715.669	15.54
715.695	-3.46
715.722	5.54
715.749	11.54
715.776	17.54
715.802	9.54
715.829	20.54
715.856	7.54
715.883	12.54
715.909	-0.46
715.936	-0.46
715.963	15.54
715.99	2.54
716.016	3.54
716.043	3.54
716.07	-1.46
716.096	-0.46
716.123	6.54
716.15	4.54
716.177	20.54
716.203	7.54
716.23	2.54
716.257	7.54
716.283	14.54
716.31	15.54
716.337	-0.46
716.363	1.54
716.39	4.54
716.417	7.54
716.443	14.54
716.47	12.54
716.497	19.54
716.523	4.54
716.55	8.54
716.577	6.54
716.603	8.54
716.63	7.54
716.657	11.54
716.683	5.54
716.71	16.54
716.737	-1.46
716.763	8.54
716.79	3.54
716.817	31.54
716.843	8.54
716.87	7.54
716.897	-0.46
716.923	5.54
716.95	-6.46
716.976	-0.46
717.003	8.54
717.03	12.54
717.056	8.54
717.083	-0.46
717.109	2.54
717.136	6.54
717.163	-4.46
717.189	-5.46
717.216	-1.46
717.242	2.54
717.269	1.54
717.296	14.54
717.322	23.54
717.349	26.54
717.375	6.54
717.402	-0.46
717.428	3.54
717.455	19.54
717.481	0.54
717.508	7.54
717.535	17.54
717.561	10.54
717.588	-6.46
717.614	-8.46
717.641	1.54
717.667	11.54
717.694	9.54
717.72	-4.46
717.747	1.54
717.773	9.54
717.8	26.54
717.826	2.54
717.853	14.54
717.88	30.54
717.906	8.54
717.933	18.54
717.959	5.54
717.986	26.54
718.012	-4.46
718.039	20.54
718.065	15.54
718.092	11.54
718.118	-6.46
718.144	12.54
718.171	22.54
718.197	13.54
718.224	10.54
718.25	14.54
718.277	13.54
718.303	4.54
718.33	6.54
718.356	2.54
718.383	-8.46
718.409	12.54
718.436	-5.46
718.462	-8.46
718.489	-0.46
718.515	9.54
718.541	12.54
718.568	18.54
718.594	10.54
718.621	11.54
718.647	12.54
718.674	12.54
718.7	23.54
718.726	-14.46
718.753	6.54
718.779	2.54
718.806	16.54
718.832	-0.46
718.858	20.54
718.885	2.54
718.911	-0.46
718.938	-1.46
718.964	-17.46
718.99	6.54
719.017	0.54
719.043	14.54
719.07	19.54
719.096	-9.46
719.122	18.54
719.149	5.54
719.175	17.54
719.201	0.54
719.228	-2.46
719.254	12.54
719.281	5.54
719.307	10.54
719.333	6.54
719.36	24.54
719.386	-0.46
719.412	-2.46
719.439	-12.46
719.465	10.54
719.491	12.54
719.518	-1.46
719.544	1.54
719.57	16.54
719.597	15.54
719.623	3.54
719.649	18.54
719.675	-4.46
719.702	21.54
719.728	16.54
719.754	-1.46
719.781	1.54
719.807	8.54
719.833	6.54
719.86	10.54
719.886	2.54
719.912	10.54
719.938	0.54
719.965	1.54
719.991	14.54
720.017	2.54
720.044	-1.46
720.07	4.54
720.096	20.54
720.122	6.54
720.149	8.54
720.175	17.54
720.201	2.54
720.227	-6.46
720.254	10.54
720.28	6.54
720.306	-2.46
720.332	13.54
720.359	2.54
720.385	17.54
720.411	14.54
720.437	7.54
720.463	24.54
720.49	8.54
720.516	3.54
720.542	-0.46
720.568	-3.46
720.595	6.54
720.621	9.54
720.647	6.54
720.673	2.54
720.699	-8.46
720.725	6.54
720.752	-6.46
720.778	14.54
720.804	19.54
720.83	0.54
720.856	-14.46
720.883	-5.46
720.909	4.54
720.935	13.54
720.961	20.54
720.987	4.54
721.013	29.54
721.04	16.54
721.066	11.54
721.092	1.54
721.118	8.54
721.144	9.54
721.17	13.54
721.196	7.54
721.223	0.54
721.249	-5.46
721.275	17.54
721.301	-0.46
721.327	11.54
721.353	13.54
721.379	11.54
721.405	9.54
721.432	7.54
721.458	6.54
721.484	10.54
721.51	-7.46
721.536	0.54
721.562	-11.46
721.588	6.54
721.614	3.54
721.64	28.54
721.666	12.54
721.693	10.54
721.719	-1.46
721.745	-1.46
721.771	9.54
721.797	0.54
721.823	-2.46
721.849	25.54
721.875	5.54
721.901	-1.46
721.927	-3.46
721.953	4.54
721.979	17.54
722.005	18.54
722.031	13.54
722.057	20.54
722.083	19.54
722.109	8.54
722.135	15.54
722.161	11.54
722.187	-1.46
722.214	-11.46
722.24	-6.46
722.266	-7.46
722.292	8.54
722.318	15.54
722.344	8.54
722.37	14.54
722.396	27.54
722.422	-12.46
722.448	-6.46
722.474	-26.46
722.5	4.54
722.526	13.54
722.552	10.54
722.578	-7.46
722.603	-3.46
722.629	-16.46
722.655	12.54
722.681	1.54
722.707	1.54
722.733	15.54
722.759	1.54
722.785	-5.46
722.811	2.54
722.837	8.54
722.863	26.54
722.889	20.54
722.915	-5.46
722.941	-0.46
722.967	-0.46
722.993	16.54
723.019	-0.46
723.045	1.54
723.071	6.54
723.097	20.54
723.122	9.54
723.148	-5.46
723.174	-2.46
723.2	8.54
723.226	3.54
723.252	12.54
723.278	0.54
723.304	-9.46
723.33	-2.46
723.356	-0.46
723.381	-7.46
723.407	2.54
723.433	4.54
723.459	11.54
723.485	11.54
723.511	14.54
723.537	-8.46
723.563	3.54
723.588	-1.46
723.614	7.54
723.64	-8.46
723.666	-12.46
723.692	9.54
723.718	16.54
723.744	1.54
723.769	-5.46
723.795	9.54
723.821	8.54
723.847	4.54
723.873	-1.46
723.899	7.54
723.924	18.54
723.95	3.54
723.976	-3.46
724.002	-1.46
724.028	9.54
724.053	6.54
724.079	9.54
724.105	10.54
724.131	2.54
724.157	10.54
724.182	17.54
724.208	16.54
724.234	-3.46
724.26	-6.46
724.286	12.54
724.311	7.54
724.337	13.54
724.363	3.54
724.389	1.54
724.415	4.54
724.44	18.54
724.466	6.54
724.492	15.54
724.518	7.54
724.543	-0.46
724.569	8.54
724.595	-0.46
724.621	11.54
724.646	-7.46
724.672	-3.46
724.698	11.54
724.723	3.54
724.749	12.54
724.775	14.54
724.801	23.54
724.826	-3.46
724.852	-0.46
724.878	3.54
724.904	-13.46
724.929	9.54
724.955	-17.46
724.981	3.54
725.006	7.54
725.032	16.54
725.058	8.54
725.083	0.54
725.109	10.54
725.135	-3.46
725.161	-0.46
725.186	8.54
725.212	7.54
725.238	13.54
725.263	4.54
725.289	2.54
725.315	-7.46
725.34	-21.46
725.366	6.54
725.392	18.54
725.417	17.54
725.443	2.54
725.468	7.54
725.494	17.54
725.52	40.54
725.545	13.54
725.571	-8.46
725.597	9.54
725.622	10.54
725.648	3.54
725.674	8.54
725.699	17.54
725.725	7.54
725.75	17.54
725.776	-1.46
725.802	20.54
725.827	7.54
725.853	9.54
725.878	12.54
725.904	7.54
725.93	10.54
725.955	-12.46
725.981	-2.46
726.006	-12.46
726.032	14.54
726.057	4.54
726.083	9.54
726.109	7.54
726.134	20.54
726.16	6.54
726.185	-7.46
726.211	-1.46
726.236	9.54
726.262	2.54
726.288	10.54
726.313	30.54
726.339	6.54
726.364	0.54
726.39	28.54
726.415	13.54
726.441	-6.46
726.466	-3.46
726.492	-8.46
726.517	12.54
726.543	9.54
726.568	2.54
726.594	13.54
726.619	16.54
726.645	6.54
726.67	1.54
726.696	-3.46
726.721	11.54
726.747	2.54
726.772	2.54
726.798	9.54
726.823	30.54
726.849	-0.46
726.874	2.54
726.9	4.54
726.925	7.54
726.951	-1.46
726.976	14.54
727.002	-1.46
727.027	21.54
727.053	36.54
727.078	3.54
727.104	11.54
727.129	-15.46
727.155	0.54
727.18	4.54
727.205	25.54
727.231	9.54
727.256	3.54
727.282	5.54
727.307	22.54
727.333	-1.46
727.358	-5.46
727.383	-0.46
727.409	-3.46
727.434	9.54
727.46	-9.46
727.485	1.54
727.511	5.54
727.536	-15.46
727.561	5.54
727.587	-1.46
727.612	13.54
727.637	4.54
727.663	3.54
727.688	12.54
727.714	-5.46
727.739	0.54
727.764	-4.46
727.79	-3.46
727.815	-5.46
727.841	10.54
727.866	15.54
727.891	13.54
727.917	2.54
727.942	4.54
727.967	-8.46
727.993	-0.46
728.018	10.54
728.043	8.54
728.069	14.54
728.094	18.54
728.119	-0.46
728.145	20.54
728.17	3.54
728.195	6.54
728.221	20.54
728.246	3.54
728.271	7.54
728.297	9.54
728.322	12.54
728.347	16.54
728.373	7.54
728.398	21.54
728.423	-9.46
728.448	0.54
728.474	7.54
728.499	20.54
728.524	-5.46
728.55	-1.46
728.575	-7.46
728.6	-4.46
728.625	12.54
728.651	6.54
728.676	16.54
728.701	6.54
728.727	9.54
728.752	-0.46
728.777	-15.46
728.802	12.54
728.828	13.54
728.853	19.54
728.878	-3.46
728.903	3.54
728.929	13.54
728.954	12.54
728.979	28.54
729.004	7.54
729.03	-5.46
729.055	8.54
729.08	-7.46
729.105	3.54
729.13	15.54
729.156	2.54
729.181	-6.46
729.206	-7.46
729.231	0.54
729.256	10.54
729.282	13.54
729.307	-9.46
729.332	5.54
729.357	0.54
729.382	11.54
729.408	-0.46
729.433	7.54
729.458	11.54
729.483	21.54
729.508	31.54
729.533	30.54
729.559	17.54
729.584	-4.46
729.609	7.54
729.634	12.54
729.659	-0.46
729.684	-9.46
729.71	20.54
729.735	10.54
729.76	8.54
729.785	0.54
729.81	19.54
729.835	7.54
729.86	-2.46
729.886	7.54
729.911	12.54
729.936	-6.46
729.961	-2.46
729.986	-14.46
730.011	21.54
730.036	6.54
730.061	12.54
730.086	13.54
730.112	11.54
730.137	15.54
730.162	23.54
730.187	-19.46
730.212	6.54
730.237	-15.46
730.262	0.54
730.287	-2.46
730.312	20.54
730.337	1.54
730.362	22.54
730.387	5.54
730.413	-6.46
730.438	2.54
730.463	2.54
730.488	-7.46
730.513	-0.46
730.538	0.54
730.563	14.54
730.588	3.54
730.613	10.54
730.638	8.54
730.663	10.54
730.688	15.54
730.713	4.54
730.738	8.54
730.763	1.54
730.788	7.54
730.813	8.54
730.838	4.54
730.863	3.54
730.888	7.54
730.913	0.54
730.938	-11.46
730.963	2.54
730.988	16.54
731.013	8.54
731.038	5.54
731.063	17.54
731.088	4.54
731.113	4.54
731.138	-3.46
731.163	4.54
731.188	-5.46
731.213	1.54
731.238	10.54
731.263	12.54
731.288	1.54
731.313	4.54
731.338	19.54
731.363	-1.46
731.388	3.54
731.413	21.54
731.438	31.54
731.463	6.54
731.487	11.54
731.512	0.54
731.537	-12.46
731.562	3.54
731.587	7.54
731.612	0.54
731.637	-6.46
731.662	8.54
731.687	14.54
731.712	-20.46
731.737	3.54
731.762	13.54
731.786	15.54
731.811	9.54
731.836	-7.46
731.861	-8.46
731.886	-4.46
731.911	23.54
731.936	18.54
731.961	-4.46
731.986	-4.46
732.01	30.54
732.035	1.54
732.06	12.54
732.085	8.54
732.11	-1.46
732.135	-5.46
732.16	2.54
732.184	12.54
732.209	4.54
732.234	10.54
732.259	15.54
732.284	9.54
732.309	1.54
732.334	5.54
732.358	-11.46
732.383	-5.46
732.408	-15.46
732.433	-2.46
732.458	-6.46
732.482	-6.46
732.507	11.54
732.532	5.54
732.557	12.54
732.582	8.54
732.607	0.54
732.631	-8.46
732.656	-3.46
732.681	-5.46
732.706	4.54
732.73	12.54
732.755	3.54
732.78	2.54
732.805	8.54
732.83	1.54
732.854	0.54
732.879	10.54
732.904	-6.46
732.929	10.54
732.953	11.54
732.978	-5.46
733.003	-4.46
733.028	2.54
733.052	8.54
733.077	1.54
733.102	16.54
733.127	-7.46
733.151	2.54
733.176	17.54
733.201	7.54
733.226	-0.46
733.25	10.54
733.275	-0.46
733.3	10.54
733.324	23.54
733.349	11.54
733.374	15.54
733.399	9.54
733.423	3.54
733.448	0.54
733.473	7.54
733.497	-3.46
733.522	7.54
733.547	23.54
733.571	22.54
733.596	8.54
733.621	-0.46
733.646	-3.46
733.67	15.54
733.695	7.54
733.72	9.54
733.744	4.54
733.769	8.54
733.794	20.54
733.818	1.54
733.843	-9.46
733.867	-6.46
733.892	-3.46
733.917	-14.46
733.941	6.54
733.966	-13.46
733.991	0.54
734.015	27.54
734.04	-1.46
734.065	8.54
734.089	20.54
734.114	-5.46
734.138	-1.46
734.163	-0.46
734.188	-1.46
734.212	18.54
734.237	12.54
734.261	10.54
734.286	3.54
734.311	6.54
734.335	0.54
734.36	-2.46
734.384	6.54
734.409	8.54
734.434	-10.46
734.458	3.54
734.483	5.54
734.507	12.54
734.532	1.54
734.556	14.54
734.581	20.54
734.606	14.54
734.63	4.54
734.655	9.54
734.679	10.54
734.704	6.54
734.728	4.54
734.753	1.54
734.777	11.54
734.802	13.54
734.826	0.54
734.851	6.54
734.876	14.54
734.9	24.54
734.925	-1.46
734.949	28.54
734.974	7.54
734.998	-0.46
735.023	8.54
735.047	-12.46
735.072	21.54
735.096	-11.46
735.121	3.54
735.145	15.54
735.17	15.54
735.194	19.54
735.219	12.54
735.243	-0.46
735.268	2.54
735.292	3.54
735.317	7.54
735.341	11.54
735.365	-0.46
735.39	31.54
735.414	20.54
735.439	7.54
735.463	8.54
735.488	1.54
735.512	2.54
735.537	10.54
735.561	7.54
735.586	-10.46
735.61	0.54
735.634	2.54
735.659	7.54
735.683	27.54
735.708	6.54
735.732	-4.46
735.757	2.54
735.781	3.54
735.805	20.54
735.83	7.54
735.854	13.54
735.879	20.54
735.903	21.54
735.927	23.54
735.952	18.54
735.976	3.54
736.001	10.54
736.025	24.54
736.049	2.54
736.074	4.54
736.098	12.54
736.123	-1.46
736.147	-2.46
736.171	14.54
736.196	4.54
736.22	0.54
736.244	8.54
736.269	9.54
736.293	2.54
736.317	-1.46
736.342	0.54
736.366	9.54
736.39	13.54
736.415	-2.46
736.439	17.54
736.463	21.54
736.488	12.54
736.512	2.54
736.536	9.54
736.561	15.54
736.585	1.54
736.609	6.54
736.634	-4.46
736.658	0.54
736.682	0.54
736.707	-5.46
736.731	-4.46
736.755	13.54
736.78	12.54
736.804	14.54
736.828	15.54
736.852	0.54
736.877	1.54
736.901	13.54
736.925	8.54
736.949	21.54
736.974	-3.46
736.998	-11.46
737.022	7.54
737.047	3.54
737.071	8.54
737.095	18.54
737.119	26.54
737.144	22.54
737.168	-15.46
737.192	-0.46
737.216	2.54
737.241	4.54
737.265	16.54
737.289	4.54
737.313	12.54
737.337	7.54
737.362	19.54
737.386	9.54
737.41	-0.46
737.434	3.54
737.459	6.54
737.483	23.54
737.507	1.54
737.531	18.54
737.555	26.54
737.58	17.54
737.604	14.54
737.628	-5.46
737.652	-16.46
737.676	8.54
737.701	1.54
737.725	5.54
737.749	8.54
737.773	18.54
737.797	16.54
737.821	9.54
737.846	-0.46
737.87	14.54
737.894	-3.46
737.918	4.54
737.942	0.54
737.966	15.54
737.99	14.54
738.015	3.54
738.039	10.54
738.063	-5.46
738.087	19.54
738.111	1.54
738.135	0.54
738.159	-6.46
738.184	10.54
738.208	13.54
738.232	2.54
738.256	11.54
738.28	9.54
738.304	-0.46
738.328	9.54
738.352	7.54
738.376	6.54
738.4	-2.46
738.425	11.54
738.449	-1.46
738.473	27.54
738.497	7.54
738.521	14.54
738.545	17.54
738.569	19.54
738.593	21.54
738.617	4.54
738.641	1.54
738.665	6.54
738.689	2.54
738.713	-6.46
738.737	11.54
738.762	-1.46
738.786	7.54
738.81	-0.46
738.834	8.54
738.858	-5.46
738.882	2.54
738.906	3.54
738.93	-8.46
738.954	5.54
738.978	14.54
739.002	-5.46
739.026	6.54
739.05	18.54
739.074	4.54
739.098	28.54
739.122	16.54
739.146	10.54
739.17	18.54
739.194	22.54
739.218	8.54
739.242	5.54
739.266	3.54
739.29	-2.46
739.314	0.54
739.338	14.54
739.362	12.54
739.386	10.54
739.41	-0.46
739.434	2.54
739.458	17.54
739.482	6.54
739.506	6.54
739.53	14.54
739.554	25.54
739.577	20.54
739.601	14.54
739.625	8.54
739.649	11.54
739.673	3.54
739.697	33.54
739.721	17.54
739.745	-0.46
739.769	0.54
739.793	-0.46
739.817	6.54
739.841	-3.46
739.865	4.54
739.889	12.54
739.912	10.54
739.936	-1.46
739.96	-9.46
739.984	11.54
740.008	2.54
740.032	-5.46
740.056	11.54
740.08	13.54
740.104	4.54
740.127	4.54
740.151	1.54
740.175	7.54
740.199	15.54
740.223	47.54
740.247	7.54
740.271	1.54
740.295	2.54
740.318	7.54
740.342	7.54
740.366	12.54
740.39	14.54
740.414	8.54
740.438	-6.46
740.461	26.54
740.485	7.54
740.509	1.54
740.533	-13.46
740.557	-4.46
740.581	6.54
740.604	0.54
740.628	-0.46
740.652	2.54
740.676	17.54
740.7	8.54
740.723	13.54
740.747	8.54
740.771	7.54
740.795	12.54
740.819	6.54
740.842	0.54
740.866	20.54
740.89	11.54
740.914	16.54
740.938	-6.46
740.961	12.54
740.985	24.54
741.009	0.54
741.033	17.54
741.056	15.54
741.08	2.54
741.104	-3.46
741.128	-1.46
741.151	14.54
741.175	4.54
741.199	19.54
741.223	17.54
741.246	-7.46
741.27	12.54
741.294	-2.46
741.318	-7.46
741.341	0.54
741.365	18.54
741.389	9.54
741.413	23.54
741.436	33.54
741.46	13.54
741.484	18.54
741.507	0.54
741.531	15.54
741.555	10.54
741.579	18.54
741.602	10.54
741.626	11.54
741.65	18.54
741.673	-0.46
741.697	4.54
741.721	3.54
741.744	3.54
741.768	3.54
741.792	-0.46
741.815	-0.46
741.839	20.54
741.863	28.54
741.886	20.54
741.91	18.54
741.934	8.54
741.957	-2.46
741.981	7.54
742.005	2.54
742.028	4.54
742.052	3.54
742.075	4.54
742.099	7.54
742.123	3.54
742.146	10.54
742.17	9.54
742.194	-9.46
742.217	-3.46
742.241	1.54
742.264	11.54
742.288	32.54
742.312	25.54
742.335	12.54
742.359	12.54
742.382	10.54
742.406	10.54
742.43	-4.46
742.453	11.54
742.477	3.54
742.5	-6.46
742.524	3.54
742.548	1.54
742.571	-2.46
742.595	3.54
742.618	2.54
742.642	-8.46
742.665	2.54
742.689	-11.46
742.712	12.54
742.736	18.54
742.76	3.54
742.783	4.54
742.807	25.54
742.83	7.54
742.854	4.54
742.877	5.54
742.901	-4.46
742.924	-12.46
742.948	-6.46
742.971	12.54
742.995	-1.46
743.018	2.54
743.042	-0.46
743.065	-7.46
743.089	-5.46
743.112	19.54
743.136	-5.46
743.159	-8.46
743.183	-0.46
743.206	19.54
743.23	-0.46
743.253	2.54
743.277	2.54
743.3	-15.46
743.324	-2.46
743.347	-2.46
743.371	14.54
743.394	23.54
743.418	24.54
743.441	12.54
743.465	10.54
743.488	9.54
743.512	-5.46
743.535	13.54
743.558	19.54
743.582	8.54
743.605	7.54
743.629	14.54
743.652	3.54
743.676	1.54
743.699	4.54
743.723	12.54
743.746	15.54
743.769	9.54
743.793	20.54
743.816	-2.46
743.84	8.54
743.863	2.54
743.886	-3.46
743.91	19.54
743.933	10.54
743.957	7.54
743.98	-7.46
744.003	-13.46
744.027	3.54
744.05	-12.46
744.074	4.54
744.097	-1.46
744.12	7.54
744.144	4.54
744.167	10.54
744.19	4.54
744.214	-8.46
744.237	6.54
744.26	25.54
744.284	-2.46
744.307	-4.46
744.331	3.54
744.354	-2.46
744.377	3.54
744.401	8.54
744.424	1.54
744.447	-8.46
744.471	11.54
