Data from HighRes_H2D2_15_04_11_07_2024_HR4C61891__53__15-05-39-743.txt Node

Date: Thu Nov 07 15:05:39 EST 2024
User: crc00042
Spectrometer: HR4C6189
Trigger mode: 4
Integration Time (sec): 1.000000E-1
Scans to average: 1
Electric dark correction enabled: true
Nonlinearity correction enabled: false
Boxcar width: 0
XAxis mode: Wavelengths
Number of Pixels in Spectrum: 3648
>>>>>Begin Spectral Data<<<<<
639.567	-53.38
639.602	-53.38
639.636	-53.38
639.67	-33.38
639.704	-10.38
639.738	2.62
639.773	-1.38
639.807	1.62
639.841	7.62
639.875	12.62
639.909	-12.38
639.943	-18.38
639.978	4.62
640.012	3.62
640.046	9.62
640.08	3.62
640.114	-1.38
640.148	-12.38
640.182	2.62
640.217	-6.38
640.251	2.62
640.285	3.62
640.319	-12.38
640.353	-16.38
640.387	-6.38
640.421	8.62
640.455	-9.38
640.49	-1.38
640.524	-5.38
640.558	5.62
640.592	-3.38
640.626	1.62
640.66	5.62
640.694	-9.38
640.728	4.62
640.762	5.62
640.796	15.62
640.83	4.62
640.865	2.62
640.899	-4.38
640.933	-5.38
640.967	3.62
641.001	6.62
641.035	9.62
641.069	-5.38
641.103	-18.38
641.137	-9.38
641.171	-13.38
641.205	-9.38
641.239	-3.38
641.273	18.62
641.307	0.62
641.341	12.62
641.375	-6.38
641.409	3.62
641.443	-5.38
641.477	11.62
641.511	13.62
641.545	-1.38
641.579	3.62
641.614	16.62
641.648	11.62
641.682	-4.38
641.716	6.62
641.75	14.62
641.784	-1.38
641.818	-5.38
641.852	-10.38
641.886	-35.38
641.919	10.62
641.953	-12.38
641.987	1.62
642.021	-17.38
642.055	-9.38
642.089	-0.38
642.123	-3.38
642.157	3.62
642.191	11.62
642.225	0.62
642.259	-7.38
642.293	11.62
642.327	-2.38
642.361	-10.38
642.395	-6.38
642.429	12.62
642.463	18.62
642.497	14.62
642.531	-2.38
642.565	-10.38
642.599	14.62
642.633	-13.38
642.666	4.62
642.7	1.62
642.734	-4.38
642.768	-5.38
642.802	-1.38
642.836	3.62
642.87	12.62
642.904	19.62
642.938	4.62
642.972	-8.38
643.005	-3.38
643.039	11.62
643.073	2.62
643.107	5.62
643.141	-1.38
643.175	-2.38
643.209	-15.38
643.243	3.62
643.276	5.62
643.31	-1.38
643.344	-14.38
643.378	-13.38
643.412	3.62
643.446	-4.38
643.48	-0.38
643.513	-2.38
643.547	-1.38
643.581	-1.38
643.615	2.62
643.649	-1.38
643.683	8.62
643.716	2.62
643.75	13.62
643.784	-10.38
643.818	-10.38
643.852	-1.38
643.886	16.62
643.919	5.62
643.953	-10.38
643.987	-7.38
644.021	-2.38
644.055	8.62
644.088	4.62
644.122	-1.38
644.156	-7.38
644.19	7.62
644.224	-29.38
644.257	-7.38
644.291	2.62
644.325	-1.38
644.359	-11.38
644.392	5.62
644.426	15.62
644.46	-1.38
644.494	4.62
644.527	-7.38
644.561	-0.38
644.595	-12.38
644.629	-10.38
644.662	-6.38
644.696	7.62
644.73	11.62
644.764	3.62
644.797	-12.38
644.831	7.62
644.865	4.62
644.899	-11.38
644.932	28.62
644.966	-6.38
645	6.62
645.033	7.62
645.067	-4.38
645.101	6.62
645.135	1.62
645.168	-4.38
645.202	-22.38
645.236	-16.38
645.269	6.62
645.303	-6.38
645.337	-16.38
645.37	-5.38
645.404	8.62
645.438	-1.38
645.471	-2.38
645.505	13.62
645.539	-12.38
645.572	-20.38
645.606	-0.38
645.64	-8.38
645.673	2.62
645.707	23.62
645.741	11.62
645.774	-21.38
645.808	3.62
645.842	-12.38
645.875	6.62
645.909	-6.38
645.943	-4.38
645.976	-6.38
646.01	1.62
646.043	15.62
646.077	5.62
646.111	-8.38
646.144	12.62
646.178	16.62
646.212	-12.38
646.245	-2.38
646.279	14.62
646.312	8.62
646.346	15.62
646.38	-7.38
646.413	-1.38
646.447	-20.38
646.48	-2.38
646.514	5.62
646.547	-3.38
646.581	-8.38
646.615	-1.38
646.648	-8.38
646.682	-4.38
646.715	12.62
646.749	18.62
646.782	-12.38
646.816	-10.38
646.85	-8.38
646.883	-12.38
646.917	7.62
646.95	-12.38
646.984	-6.38
647.017	-17.38
647.051	-5.38
647.084	-5.38
647.118	-2.38
647.151	-9.38
647.185	-10.38
647.218	-15.38
647.252	-3.38
647.285	-10.38
647.319	-8.38
647.353	2.62
647.386	12.62
647.42	-1.38
647.453	6.62
647.487	14.62
647.52	-0.38
647.553	0.62
647.587	-5.38
647.62	-0.38
647.654	-0.38
647.687	-1.38
647.721	5.62
647.754	14.62
647.788	7.62
647.821	-0.38
647.855	9.62
647.888	12.62
647.922	11.62
647.955	10.62
647.989	0.62
648.022	1.62
648.055	1.62
648.089	-0.38
648.122	20.62
648.156	6.62
648.189	-13.38
648.223	3.62
648.256	8.62
648.29	16.62
648.323	-4.38
648.356	16.62
648.39	9.62
648.423	12.62
648.457	4.62
648.49	18.62
648.523	18.62
648.557	1.62
648.59	-8.38
648.624	-9.38
648.657	-0.38
648.69	6.62
648.724	2.62
648.757	5.62
648.791	5.62
648.824	12.62
648.857	-8.38
648.891	-1.38
648.924	-4.38
648.957	29.62
648.991	6.62
649.024	28.62
649.057	4.62
649.091	-3.38
649.124	2.62
649.158	6.62
649.191	37.62
649.224	6.62
649.258	11.62
649.291	-6.38
649.324	-3.38
649.358	0.62
649.391	2.62
649.424	-6.38
649.458	-16.38
649.491	13.62
649.524	-10.38
649.557	-5.38
649.591	-24.38
649.624	8.62
649.657	7.62
649.691	11.62
649.724	-19.38
649.757	-11.38
649.791	7.62
649.824	14.62
649.857	10.62
649.89	9.62
649.924	-9.38
649.957	10.62
649.99	-20.38
650.023	18.62
650.057	0.62
650.09	4.62
650.123	-17.38
650.157	4.62
650.19	13.62
650.223	-17.38
650.256	-11.38
650.29	-5.38
650.323	-7.38
650.356	8.62
650.389	-20.38
650.423	-9.38
650.456	4.62
650.489	11.62
650.522	7.62
650.555	16.62
650.589	15.62
650.622	2.62
650.655	10.62
650.688	4.62
650.721	-11.38
650.755	2.62
650.788	16.62
650.821	-9.38
650.854	12.62
650.887	8.62
650.921	-4.38
650.954	-13.38
650.987	-27.38
651.02	-0.38
651.053	-5.38
651.087	-13.38
651.12	25.62
651.153	6.62
651.186	0.62
651.219	1.62
651.252	19.62
651.286	-2.38
651.319	-11.38
651.352	6.62
651.385	13.62
651.418	6.62
651.451	8.62
651.484	5.62
651.518	-17.38
651.551	18.62
651.584	-1.38
651.617	8.62
651.65	3.62
651.683	12.62
651.716	2.62
651.749	-2.38
651.783	3.62
651.816	-0.38
651.849	-0.38
651.882	-3.38
651.915	13.62
651.948	16.62
651.981	4.62
652.014	-11.38
652.047	-22.38
652.08	-12.38
652.114	4.62
652.147	8.62
652.18	1.62
652.213	24.62
652.246	2.62
652.279	-4.38
652.312	3.62
652.345	-12.38
652.378	-11.38
652.411	9.62
652.444	2.62
652.477	5.62
652.51	-14.38
652.543	-31.38
652.576	10.62
652.609	11.62
652.642	-5.38
652.675	11.62
652.709	-9.38
652.742	-1.38
652.775	3.62
652.808	20.62
652.841	7.62
652.874	5.62
652.907	-1.38
652.94	3.62
652.973	-11.38
653.006	6.62
653.039	4.62
653.072	-16.38
653.105	-6.38
653.138	-15.38
653.171	-7.38
653.204	2.62
653.237	-5.38
653.27	-8.38
653.303	3.62
653.336	8.62
653.368	-1.38
653.401	-2.38
653.434	-3.38
653.467	15.62
653.5	-14.38
653.533	-11.38
653.566	-17.38
653.599	-4.38
653.632	5.62
653.665	18.62
653.698	2.62
653.731	-10.38
653.764	3.62
653.797	3.62
653.83	5.62
653.863	0.62
653.896	-2.38
653.929	-5.38
653.961	7.62
653.994	6.62
654.027	-4.38
654.06	8.62
654.093	-7.38
654.126	3.62
654.159	-5.38
654.192	-3.38
654.225	8.62
654.258	9.62
654.29	4.62
654.323	14.62
654.356	6.62
654.389	4.62
654.422	4.62
654.455	4.62
654.488	8.62
654.521	-25.38
654.553	-22.38
654.586	1.62
654.619	2.62
654.652	-10.38
654.685	5.62
654.718	0.62
654.751	6.62
654.783	-12.38
654.816	13.62
654.849	1.62
654.882	-1.38
654.915	-23.38
654.948	2.62
654.98	-9.38
655.013	-7.38
655.046	-7.38
655.079	-1.38
655.112	2.62
655.144	-19.38
655.177	4.62
655.21	19.62
655.243	22.62
655.276	2.62
655.308	-18.38
655.341	-4.38
655.374	18.62
655.407	-6.38
655.44	10.62
655.472	13.62
655.505	-0.38
655.538	-0.38
655.571	15.62
655.603	-2.38
655.636	1.62
655.669	-2.38
655.702	2.62
655.734	-4.38
655.767	5.62
655.8	2.62
655.833	13.62
655.865	16.62
655.898	-3.38
655.931	9.62
655.964	19.62
655.996	13.62
656.029	20.62
656.062	31.62
656.095	36.62
656.127	77.62
656.16	212.62
656.193	631.62
656.225	970.62
656.258	556.62
656.291	215.62
656.324	198.62
656.356	364.62
656.389	765.62
656.422	688.62
656.454	246.62
656.487	87.62
656.52	29.62
656.552	13.62
656.585	7.62
656.618	7.62
656.65	13.62
656.683	12.62
656.716	5.62
656.748	-8.38
656.781	-7.38
656.814	-13.38
656.846	9.62
656.879	9.62
656.912	20.62
656.944	-8.38
656.977	-5.38
657.01	9.62
657.042	16.62
657.075	3.62
657.108	-13.38
657.14	6.62
657.173	3.62
657.205	11.62
657.238	6.62
657.271	9.62
657.303	-13.38
657.336	5.62
657.369	3.62
657.401	-8.38
657.434	11.62
657.466	27.62
657.499	-13.38
657.532	-7.38
657.564	11.62
657.597	8.62
657.629	-2.38
657.662	-0.38
657.694	0.62
657.727	-9.38
657.76	5.62
657.792	5.62
657.825	-6.38
657.857	-20.38
657.89	-20.38
657.922	11.62
657.955	2.62
657.987	5.62
658.02	5.62
658.053	24.62
658.085	10.62
658.118	-10.38
658.15	10.62
658.183	19.62
658.215	-5.38
658.248	-5.38
658.28	-16.38
658.313	-0.38
658.345	7.62
658.378	-9.38
658.41	4.62
658.443	15.62
658.475	-1.38
658.508	1.62
658.54	-4.38
658.573	-5.38
658.605	3.62
658.638	-4.38
658.67	-7.38
658.703	2.62
658.735	-18.38
658.768	10.62
658.8	-7.38
658.833	10.62
658.865	-4.38
658.898	1.62
658.93	-11.38
658.963	-9.38
658.995	-16.38
659.028	10.62
659.06	-1.38
659.092	-3.38
659.125	5.62
659.157	7.62
659.19	-3.38
659.222	15.62
659.255	6.62
659.287	-1.38
659.32	0.62
659.352	-5.38
659.384	-2.38
659.417	-11.38
659.449	3.62
659.482	3.62
659.514	-19.38
659.546	-2.38
659.579	1.62
659.611	2.62
659.644	6.62
659.676	-12.38
659.708	-15.38
659.741	-2.38
659.773	6.62
659.806	6.62
659.838	-1.38
659.87	-16.38
659.903	-9.38
659.935	-2.38
659.967	-11.38
660	3.62
660.032	-19.38
660.065	1.62
660.097	-0.38
660.129	-5.38
660.162	-8.38
660.194	20.62
660.226	13.62
660.259	17.62
660.291	1.62
660.323	-7.38
660.356	-5.38
660.388	-0.38
660.42	-1.38
660.453	2.62
660.485	10.62
660.517	18.62
660.55	25.62
660.582	6.62
660.614	6.62
660.647	5.62
660.679	-5.38
660.711	4.62
660.743	-9.38
660.776	-15.38
660.808	-4.38
660.84	-18.38
660.873	-10.38
660.905	0.62
660.937	11.62
660.969	5.62
661.002	-0.38
661.034	-4.38
661.066	-16.38
661.099	16.62
661.131	8.62
661.163	2.62
661.195	-2.38
661.228	6.62
661.26	-22.38
661.292	-10.38
661.324	9.62
661.357	3.62
661.389	-0.38
661.421	-5.38
661.453	-0.38
661.485	9.62
661.518	12.62
661.55	2.62
661.582	-11.38
661.614	-7.38
661.647	4.62
661.679	-2.38
661.711	3.62
661.743	4.62
661.775	7.62
661.808	16.62
661.84	-19.38
661.872	-1.38
661.904	4.62
661.936	-8.38
661.969	-4.38
662.001	7.62
662.033	-0.38
662.065	-10.38
662.097	9.62
662.129	15.62
662.162	-18.38
662.194	-2.38
662.226	0.62
662.258	-7.38
662.29	-14.38
662.322	-22.38
662.355	-20.38
662.387	20.62
662.419	12.62
662.451	3.62
662.483	0.62
662.515	2.62
662.547	-11.38
662.58	5.62
662.612	-2.38
662.644	-8.38
662.676	-1.38
662.708	7.62
662.74	0.62
662.772	-14.38
662.804	-12.38
662.836	7.62
662.869	-7.38
662.901	-10.38
662.933	-12.38
662.965	14.62
662.997	2.62
663.029	-10.38
663.061	11.62
663.093	-1.38
663.125	5.62
663.157	11.62
663.189	-10.38
663.221	-10.38
663.254	-14.38
663.286	15.62
663.318	-1.38
663.35	-16.38
663.382	-15.38
663.414	5.62
663.446	2.62
663.478	-18.38
663.51	25.62
663.542	0.62
663.574	-8.38
663.606	1.62
663.638	0.62
663.67	-5.38
663.702	0.62
663.734	-16.38
663.766	3.62
663.798	-4.38
663.83	-4.38
663.862	3.62
663.894	16.62
663.926	3.62
663.958	10.62
663.99	-8.38
664.022	-7.38
664.054	-10.38
664.086	-16.38
664.118	-5.38
664.15	-16.38
664.182	-8.38
664.214	-15.38
664.246	2.62
664.278	4.62
664.31	5.62
664.342	3.62
664.374	-0.38
664.406	-0.38
664.438	-6.38
664.47	10.62
664.502	8.62
664.534	-4.38
664.566	-6.38
664.598	0.62
664.63	-10.38
664.662	-13.38
664.693	-9.38
664.725	-5.38
664.757	2.62
664.789	-10.38
664.821	4.62
664.853	4.62
664.885	-0.38
664.917	-23.38
664.949	3.62
664.981	3.62
665.013	-2.38
665.045	-0.38
665.076	2.62
665.108	4.62
665.14	-2.38
665.172	-2.38
665.204	-8.38
665.236	-12.38
665.268	10.62
665.3	5.62
665.331	-7.38
665.363	19.62
665.395	-1.38
665.427	-6.38
665.459	-1.38
665.491	6.62
665.523	10.62
665.555	0.62
665.586	-13.38
665.618	-16.38
665.65	-13.38
665.682	11.62
665.714	7.62
665.746	-17.38
665.777	4.62
665.809	-5.38
665.841	-0.38
665.873	-5.38
665.905	6.62
665.937	20.62
665.968	-15.38
666	-4.38
666.032	6.62
666.064	0.62
666.096	-0.38
666.127	13.62
666.159	3.62
666.191	12.62
666.223	3.62
666.255	17.62
666.286	4.62
666.318	-12.38
666.35	13.62
666.382	3.62
666.413	-16.38
666.445	-18.38
666.477	-18.38
666.509	-3.38
666.54	-3.38
666.572	-7.38
666.604	-12.38
666.636	14.62
666.667	16.62
666.699	17.62
666.731	1.62
666.763	-11.38
666.794	-4.38
666.826	-12.38
666.858	-6.38
666.89	-0.38
666.921	6.62
666.953	14.62
666.985	17.62
667.017	23.62
667.048	4.62
667.08	4.62
667.112	-4.38
667.143	-16.38
667.175	-2.38
667.207	2.62
667.238	2.62
667.27	2.62
667.302	-4.38
667.334	-5.38
667.365	8.62
667.397	-9.38
667.429	-20.38
667.46	4.62
667.492	-4.38
667.524	1.62
667.555	-0.38
667.587	-11.38
667.619	-3.38
667.65	6.62
667.682	6.62
667.714	14.62
667.745	4.62
667.777	-8.38
667.808	11.62
667.84	16.62
667.872	7.62
667.903	29.62
667.935	-1.38
667.967	-11.38
667.998	-9.38
668.03	-13.38
668.061	-8.38
668.093	-8.38
668.125	15.62
668.156	8.62
668.188	-12.38
668.22	-9.38
668.251	10.62
668.283	7.62
668.314	5.62
668.346	-3.38
668.377	10.62
668.409	5.62
668.441	6.62
668.472	6.62
668.504	11.62
668.535	11.62
668.567	7.62
668.599	3.62
668.63	-0.38
668.662	-13.38
668.693	5.62
668.725	5.62
668.756	3.62
668.788	-6.38
668.819	-2.38
668.851	11.62
668.882	1.62
668.914	-16.38
668.946	-18.38
668.977	-8.38
669.009	-7.38
669.04	-12.38
669.072	5.62
669.103	16.62
669.135	-11.38
669.166	4.62
669.198	7.62
669.229	0.62
669.261	-8.38
669.292	-10.38
669.324	-0.38
669.355	-7.38
669.387	-19.38
669.418	6.62
669.45	-12.38
669.481	-1.38
669.513	7.62
669.544	2.62
669.576	0.62
669.607	16.62
669.639	10.62
669.67	-23.38
669.701	8.62
669.733	-14.38
669.764	8.62
669.796	-7.38
669.827	-14.38
669.859	19.62
669.89	11.62
669.922	7.62
669.953	9.62
669.985	5.62
670.016	6.62
670.047	-3.38
670.079	-5.38
670.11	-3.38
670.142	-8.38
670.173	12.62
670.204	-4.38
670.236	-1.38
670.267	-3.38
670.299	3.62
670.33	-3.38
670.362	5.62
670.393	-16.38
670.424	13.62
670.456	-5.38
670.487	-10.38
670.518	-17.38
670.55	8.62
670.581	5.62
670.613	4.62
670.644	-13.38
670.675	-22.38
670.707	-4.38
670.738	3.62
670.769	-5.38
670.801	-8.38
670.832	-1.38
670.864	-3.38
670.895	9.62
670.926	-1.38
670.958	-12.38
670.989	-0.38
671.02	-4.38
671.052	-9.38
671.083	-0.38
671.114	-24.38
671.146	-13.38
671.177	-8.38
671.208	-16.38
671.24	-16.38
671.271	8.62
671.302	20.62
671.333	8.62
671.365	3.62
671.396	-10.38
671.427	4.62
671.459	4.62
671.49	-7.38
671.521	4.62
671.553	10.62
671.584	20.62
671.615	-0.38
671.646	2.62
671.678	10.62
671.709	-3.38
671.74	-18.38
671.771	-4.38
671.803	-20.38
671.834	-19.38
671.865	-13.38
671.896	2.62
671.928	0.62
671.959	-3.38
671.99	-16.38
672.021	-18.38
672.053	-12.38
672.084	11.62
672.115	2.62
672.146	2.62
672.178	-20.38
672.209	2.62
672.24	6.62
672.271	14.62
672.303	-13.38
672.334	-2.38
672.365	-12.38
672.396	-12.38
672.427	6.62
672.459	5.62
672.49	1.62
672.521	-1.38
672.552	13.62
672.583	-14.38
672.615	-6.38
672.646	4.62
672.677	-2.38
672.708	4.62
672.739	10.62
672.77	7.62
672.802	0.62
672.833	-12.38
672.864	-0.38
672.895	-8.38
672.926	8.62
672.957	-9.38
672.989	-15.38
673.02	15.62
673.051	-12.38
673.082	7.62
673.113	1.62
673.144	2.62
673.175	2.62
673.206	-6.38
673.238	-21.38
673.269	2.62
673.3	-8.38
673.331	17.62
673.362	-0.38
673.393	4.62
673.424	8.62
673.455	12.62
673.487	7.62
673.518	12.62
673.549	7.62
673.58	-5.38
673.611	-8.38
673.642	-14.38
673.673	-12.38
673.704	6.62
673.735	-2.38
673.766	2.62
673.797	6.62
673.828	0.62
673.86	-2.38
673.891	-21.38
673.922	-16.38
673.953	-24.38
673.984	1.62
674.015	10.62
674.046	-13.38
674.077	-6.38
674.108	-6.38
674.139	-0.38
674.17	-2.38
674.201	-21.38
674.232	-13.38
674.263	-19.38
674.294	1.62
674.325	-2.38
674.356	1.62
674.387	6.62
674.418	11.62
674.449	-1.38
674.48	-28.38
674.511	-3.38
674.542	-9.38
674.573	-23.38
674.604	18.62
674.635	-6.38
674.666	11.62
674.697	20.62
674.728	10.62
674.759	2.62
674.79	-8.38
674.821	-8.38
674.852	2.62
674.883	-7.38
674.914	3.62
674.945	-4.38
674.976	7.62
675.007	-14.38
675.038	-13.38
675.069	-23.38
675.1	-4.38
675.131	0.62
675.162	-11.38
675.193	0.62
675.224	-3.38
675.254	7.62
675.285	-6.38
675.316	12.62
675.347	-4.38
675.378	-5.38
675.409	-13.38
675.44	5.62
675.471	-1.38
675.502	6.62
675.533	-13.38
675.564	-9.38
675.595	-5.38
675.625	21.62
675.656	15.62
675.687	9.62
675.718	-11.38
675.749	5.62
675.78	8.62
675.811	0.62
675.842	7.62
675.873	2.62
675.903	-8.38
675.934	-7.38
675.965	-5.38
675.996	-5.38
676.027	2.62
676.058	2.62
676.089	-16.38
676.119	-11.38
676.15	-9.38
676.181	-19.38
676.212	1.62
676.243	16.62
676.274	-8.38
676.304	16.62
676.335	-13.38
676.366	5.62
676.397	-9.38
676.428	5.62
676.459	3.62
676.489	6.62
676.52	8.62
676.551	6.62
676.582	-1.38
676.613	-3.38
676.643	-6.38
676.674	14.62
676.705	2.62
676.736	-18.38
676.767	10.62
676.797	7.62
676.828	1.62
676.859	9.62
676.89	-3.38
676.92	0.62
676.951	-0.38
676.982	13.62
677.013	-5.38
677.044	10.62
677.074	-5.38
677.105	-4.38
677.136	-1.38
677.167	-17.38
677.197	-4.38
677.228	-18.38
677.259	-6.38
677.289	-7.38
677.32	-21.38
677.351	-12.38
677.382	-8.38
677.412	-7.38
677.443	-15.38
677.474	-10.38
677.505	-11.38
677.535	3.62
677.566	-17.38
677.597	-10.38
677.627	-9.38
677.658	-14.38
677.689	-9.38
677.72	-5.38
677.75	-6.38
677.781	-2.38
677.812	9.62
677.842	7.62
677.873	8.62
677.904	3.62
677.934	2.62
677.965	-0.38
677.996	-19.38
678.026	-1.38
678.057	-9.38
678.088	-25.38
678.118	2.62
678.149	-17.38
678.18	-6.38
678.21	5.62
678.241	2.62
678.272	-9.38
678.302	0.62
678.333	5.62
678.363	9.62
678.394	13.62
678.425	5.62
678.455	1.62
678.486	19.62
678.517	-9.38
678.547	10.62
678.578	7.62
678.608	-9.38
678.639	7.62
678.67	6.62
678.7	0.62
678.731	1.62
678.761	9.62
678.792	7.62
678.823	7.62
678.853	-1.38
678.884	-11.38
678.914	3.62
678.945	-2.38
678.975	-13.38
679.006	-26.38
679.037	-10.38
679.067	29.62
679.098	15.62
679.128	-1.38
679.159	-7.38
679.189	8.62
679.22	8.62
679.25	10.62
679.281	9.62
679.312	0.62
679.342	12.62
679.373	25.62
679.403	-3.38
679.434	12.62
679.464	8.62
679.495	-10.38
679.525	1.62
679.556	4.62
679.586	20.62
679.617	16.62
679.647	0.62
679.678	10.62
679.708	7.62
679.739	6.62
679.769	2.62
679.8	-2.38
679.83	12.62
679.861	11.62
679.891	-24.38
679.922	-14.38
679.952	-21.38
679.983	-13.38
680.013	-2.38
680.044	-1.38
680.074	4.62
680.105	-5.38
680.135	-4.38
680.165	8.62
680.196	5.62
680.226	3.62
680.257	-1.38
680.287	-10.38
680.318	-3.38
680.348	-8.38
680.379	-1.38
680.409	-11.38
680.439	-12.38
680.47	2.62
680.5	7.62
680.531	-2.38
680.561	-3.38
680.592	4.62
680.622	15.62
680.652	-5.38
680.683	18.62
680.713	15.62
680.744	-15.38
680.774	-13.38
680.804	16.62
680.835	4.62
680.865	-18.38
680.896	10.62
680.926	15.62
680.956	9.62
680.987	9.62
681.017	-0.38
681.047	2.62
681.078	-13.38
681.108	-9.38
681.139	-8.38
681.169	-6.38
681.199	-8.38
681.23	-0.38
681.26	6.62
681.29	-2.38
681.321	-14.38
681.351	6.62
681.381	-3.38
681.412	4.62
681.442	16.62
681.472	-2.38
681.503	2.62
681.533	-9.38
681.563	-11.38
681.594	6.62
681.624	1.62
681.654	-5.38
681.685	3.62
681.715	11.62
681.745	6.62
681.775	-4.38
681.806	1.62
681.836	9.62
681.866	-0.38
681.897	0.62
681.927	-8.38
681.957	-16.38
681.987	8.62
682.018	10.62
682.048	1.62
682.078	0.62
682.109	5.62
682.139	16.62
682.169	13.62
682.199	2.62
682.23	-23.38
682.26	-3.38
682.29	7.62
682.32	-1.38
682.351	-10.38
682.381	0.62
682.411	-3.38
682.441	-7.38
682.472	-12.38
682.502	-12.38
682.532	-5.38
682.562	-6.38
682.592	7.62
682.623	15.62
682.653	5.62
682.683	-5.38
682.713	-12.38
682.743	6.62
682.774	-3.38
682.804	6.62
682.834	3.62
682.864	-13.38
682.894	-11.38
682.925	10.62
682.955	-9.38
682.985	-10.38
683.015	16.62
683.045	18.62
683.076	6.62
683.106	-3.38
683.136	-7.38
683.166	-24.38
683.196	-7.38
683.226	-8.38
683.257	-10.38
683.287	-4.38
683.317	-4.38
683.347	-9.38
683.377	-7.38
683.407	4.62
683.437	11.62
683.468	9.62
683.498	-10.38
683.528	-6.38
683.558	7.62
683.588	-4.38
683.618	-6.38
683.648	-9.38
683.678	1.62
683.708	5.62
683.739	-5.38
683.769	-5.38
683.799	-13.38
683.829	9.62
683.859	-0.38
683.889	-3.38
683.919	2.62
683.949	-1.38
683.979	-20.38
684.009	-1.38
684.039	0.62
684.07	-7.38
684.1	19.62
684.13	9.62
684.16	2.62
684.19	-8.38
684.22	-9.38
684.25	9.62
684.28	-3.38
684.31	12.62
684.34	5.62
684.37	-4.38
684.4	-7.38
684.43	11.62
684.46	-3.38
684.49	-3.38
684.52	4.62
684.55	14.62
684.58	15.62
684.61	6.62
684.64	-6.38
684.67	10.62
684.7	5.62
684.73	6.62
684.76	-19.38
684.79	1.62
684.82	2.62
684.85	-10.38
684.88	3.62
684.91	9.62
684.94	2.62
684.97	-7.38
685	1.62
685.03	-9.38
685.06	-12.38
685.09	-8.38
685.12	13.62
685.15	1.62
685.18	2.62
685.21	6.62
685.24	18.62
685.27	7.62
685.3	-3.38
685.33	5.62
685.36	7.62
685.39	7.62
685.42	-6.38
685.45	-0.38
685.48	0.62
685.51	-5.38
685.54	2.62
685.569	4.62
685.599	19.62
685.629	6.62
685.659	8.62
685.689	-6.38
685.719	-10.38
685.749	4.62
685.779	13.62
685.809	15.62
685.839	11.62
685.869	5.62
685.898	0.62
685.928	-9.38
685.958	-5.38
685.988	14.62
686.018	5.62
686.048	-0.38
686.078	10.62
686.108	24.62
686.137	17.62
686.167	19.62
686.197	8.62
686.227	0.62
686.257	7.62
686.287	4.62
686.317	5.62
686.346	-5.38
686.376	-8.38
686.406	-3.38
686.436	-3.38
686.466	-5.38
686.496	3.62
686.525	-4.38
686.555	4.62
686.585	11.62
686.615	14.62
686.645	4.62
686.675	3.62
686.704	6.62
686.734	-9.38
686.764	-12.38
686.794	1.62
686.824	-9.38
686.853	7.62
686.883	15.62
686.913	11.62
686.943	-3.38
686.973	-0.38
687.002	8.62
687.032	15.62
687.062	-13.38
687.092	2.62
687.121	-10.38
687.151	-8.38
687.181	-7.38
687.211	3.62
687.24	-3.38
687.27	2.62
687.3	11.62
687.33	-0.38
687.359	-20.38
687.389	-3.38
687.419	-11.38
687.449	-7.38
687.478	-12.38
687.508	7.62
687.538	6.62
687.568	17.62
687.597	-10.38
687.627	4.62
687.657	15.62
687.686	14.62
687.716	10.62
687.746	-3.38
687.776	-9.38
687.805	-2.38
687.835	5.62
687.865	19.62
687.894	11.62
687.924	6.62
687.954	-13.38
687.983	-7.38
688.013	8.62
688.043	-0.38
688.072	0.62
688.102	6.62
688.132	-2.38
688.161	3.62
688.191	7.62
688.221	8.62
688.25	-12.38
688.28	-3.38
688.31	-7.38
688.339	-3.38
688.369	-18.38
688.399	-11.38
688.428	-5.38
688.458	5.62
688.488	0.62
688.517	6.62
688.547	-1.38
688.576	22.62
688.606	2.62
688.636	-5.38
688.665	14.62
688.695	5.62
688.725	4.62
688.754	5.62
688.784	-3.38
688.813	-2.38
688.843	3.62
688.873	6.62
688.902	-1.38
688.932	-13.38
688.961	-4.38
688.991	9.62
689.02	9.62
689.05	-8.38
689.08	2.62
689.109	1.62
689.139	2.62
689.168	13.62
689.198	2.62
689.227	-1.38
689.257	2.62
689.287	7.62
689.316	-1.38
689.346	-13.38
689.375	-10.38
689.405	0.62
689.434	3.62
689.464	8.62
689.493	10.62
689.523	-13.38
689.552	-4.38
689.582	1.62
689.611	-1.38
689.641	10.62
689.67	8.62
689.7	14.62
689.73	11.62
689.759	-1.38
689.789	2.62
689.818	8.62
689.848	-3.38
689.877	20.62
689.906	-2.38
689.936	1.62
689.965	9.62
689.995	10.62
690.024	4.62
690.054	0.62
690.083	9.62
690.113	2.62
690.142	-2.38
690.172	-9.38
690.201	6.62
690.231	-1.38
690.26	8.62
690.29	6.62
690.319	16.62
690.348	-3.38
690.378	1.62
690.407	13.62
690.437	2.62
690.466	-5.38
690.496	-7.38
690.525	6.62
690.555	-13.38
690.584	-2.38
690.613	-10.38
690.643	19.62
690.672	7.62
690.702	12.62
690.731	8.62
690.76	1.62
690.79	3.62
690.819	-8.38
690.849	6.62
690.878	-18.38
690.907	1.62
690.937	22.62
690.966	-4.38
690.996	2.62
691.025	4.62
691.054	7.62
691.084	2.62
691.113	5.62
691.142	-2.38
691.172	-11.38
691.201	1.62
691.23	6.62
691.26	-1.38
691.289	14.62
691.319	-1.38
691.348	0.62
691.377	15.62
691.407	1.62
691.436	5.62
691.465	2.62
691.495	-14.38
691.524	2.62
691.553	2.62
691.583	1.62
691.612	14.62
691.641	0.62
691.67	3.62
691.7	3.62
691.729	-11.38
691.758	5.62
691.788	2.62
691.817	-9.38
691.846	-7.38
691.876	13.62
691.905	2.62
691.934	-5.38
691.963	18.62
691.993	2.62
692.022	-5.38
692.051	-11.38
692.081	10.62
692.11	16.62
692.139	14.62
692.168	7.62
692.198	13.62
692.227	5.62
692.256	0.62
692.285	-2.38
692.315	3.62
692.344	22.62
692.373	10.62
692.402	-25.38
692.432	-1.38
692.461	2.62
692.49	-1.38
692.519	5.62
692.548	11.62
692.578	9.62
692.607	-8.38
692.636	-21.38
692.665	9.62
692.694	23.62
692.724	3.62
692.753	14.62
692.782	21.62
692.811	3.62
692.84	-3.38
692.87	4.62
692.899	-13.38
692.928	-4.38
692.957	3.62
692.986	17.62
693.016	9.62
693.045	-2.38
693.074	5.62
693.103	8.62
693.132	6.62
693.161	8.62
693.191	5.62
693.22	-19.38
693.249	1.62
693.278	-1.38
693.307	14.62
693.336	-9.38
693.365	-0.38
693.395	4.62
693.424	6.62
693.453	25.62
693.482	10.62
693.511	13.62
693.54	7.62
693.569	12.62
693.598	2.62
693.628	6.62
693.657	14.62
693.686	10.62
693.715	-0.38
693.744	3.62
693.773	18.62
693.802	13.62
693.831	6.62
693.86	14.62
693.889	3.62
693.919	10.62
693.948	-3.38
693.977	-13.38
694.006	-3.38
694.035	-9.38
694.064	-7.38
694.093	4.62
694.122	5.62
694.151	-4.38
694.18	9.62
694.209	32.62
694.238	8.62
694.267	16.62
694.296	7.62
694.325	12.62
694.354	7.62
694.383	9.62
694.412	2.62
694.441	5.62
694.471	-9.38
694.5	-12.38
694.529	13.62
694.558	16.62
694.587	6.62
694.616	-5.38
694.645	5.62
694.674	8.62
694.703	0.62
694.732	-15.38
694.761	1.62
694.79	6.62
694.819	-11.38
694.848	6.62
694.877	22.62
694.906	19.62
694.935	13.62
694.963	26.62
694.992	4.62
695.021	12.62
695.05	13.62
695.079	13.62
695.108	-8.38
695.137	18.62
695.166	14.62
695.195	-1.38
695.224	9.62
695.253	3.62
695.282	20.62
695.311	8.62
695.34	20.62
695.369	15.62
695.398	12.62
695.427	34.62
695.456	-1.38
695.485	7.62
695.513	-6.38
695.542	7.62
695.571	3.62
695.6	20.62
695.629	3.62
695.658	14.62
695.687	3.62
695.716	-7.38
695.745	18.62
695.774	-2.38
695.802	-5.38
695.831	4.62
695.86	12.62
695.889	17.62
695.918	-2.38
695.947	-12.38
695.976	-1.38
696.005	20.62
696.033	25.62
696.062	6.62
696.091	-4.38
696.12	-0.38
696.149	11.62
696.178	4.62
696.207	5.62
696.235	-8.38
696.264	7.62
696.293	-2.38
696.322	6.62
696.351	18.62
696.38	-4.38
696.408	5.62
696.437	11.62
696.466	-3.38
696.495	7.62
696.524	8.62
696.553	14.62
696.581	18.62
696.61	-10.38
696.639	-9.38
696.668	5.62
696.697	-4.38
696.725	4.62
696.754	9.62
696.783	-2.38
696.812	-4.38
696.84	19.62
696.869	9.62
696.898	-7.38
696.927	-2.38
696.956	20.62
696.984	3.62
697.013	-4.38
697.042	4.62
697.071	5.62
697.099	11.62
697.128	-0.38
697.157	10.62
697.186	11.62
697.214	-1.38
697.243	-3.38
697.272	-4.38
697.301	-4.38
697.329	6.62
697.358	8.62
697.387	20.62
697.415	2.62
697.444	4.62
697.473	-10.38
697.502	-2.38
697.53	-13.38
697.559	-9.38
697.588	11.62
697.616	0.62
697.645	-5.38
697.674	10.62
697.703	20.62
697.731	2.62
697.76	10.62
697.789	14.62
697.817	1.62
697.846	8.62
697.875	1.62
697.903	11.62
697.932	16.62
697.961	3.62
697.989	10.62
698.018	6.62
698.047	2.62
698.075	12.62
698.104	8.62
698.133	-3.38
698.161	-2.38
698.19	1.62
698.218	2.62
698.247	3.62
698.276	-1.38
698.304	2.62
698.333	15.62
698.362	6.62
698.39	12.62
698.419	5.62
698.447	-5.38
698.476	5.62
698.505	15.62
698.533	2.62
698.562	6.62
698.591	-1.38
698.619	-5.38
698.648	3.62
698.676	-4.38
698.705	-1.38
698.733	-18.38
698.762	6.62
698.791	-6.38
698.819	-6.38
698.848	1.62
698.876	10.62
698.905	7.62
698.933	1.62
698.962	-11.38
698.991	1.62
699.019	7.62
699.048	4.62
699.076	6.62
699.105	-3.38
699.133	-8.38
699.162	5.62
699.19	26.62
699.219	5.62
699.248	-1.38
699.276	-4.38
699.305	-14.38
699.333	3.62
699.362	-1.38
699.39	-1.38
699.419	-12.38
699.447	5.62
699.476	10.62
699.504	-20.38
699.533	-7.38
699.561	2.62
699.59	8.62
699.618	1.62
699.647	6.62
699.675	1.62
699.704	1.62
699.732	1.62
699.761	6.62
699.789	14.62
699.818	8.62
699.846	7.62
699.874	3.62
699.903	0.62
699.931	-2.38
699.96	-12.38
699.988	-16.38
700.017	-9.38
700.045	0.62
700.074	9.62
700.102	-9.38
700.13	-9.38
700.159	5.62
700.187	10.62
700.216	-7.38
700.244	-10.38
700.273	-4.38
700.301	0.62
700.329	-5.38
700.358	11.62
700.386	-1.38
700.415	4.62
700.443	6.62
700.472	0.62
700.5	9.62
700.528	15.62
700.557	0.62
700.585	-0.38
700.614	1.62
700.642	5.62
700.67	21.62
700.699	1.62
700.727	-0.38
700.755	12.62
700.784	-1.38
700.812	-5.38
700.841	3.62
700.869	-5.38
700.897	-6.38
700.926	-1.38
700.954	3.62
700.982	1.62
701.011	-2.38
701.039	1.62
701.067	-8.38
701.096	7.62
701.124	-7.38
701.152	5.62
701.181	-2.38
701.209	-14.38
701.237	13.62
701.266	3.62
701.294	-5.38
701.322	-16.38
701.351	3.62
701.379	4.62
701.407	-5.38
701.435	8.62
701.464	11.62
701.492	9.62
701.52	9.62
701.549	-0.38
701.577	4.62
701.605	-1.38
701.634	-3.38
701.662	6.62
701.69	-12.38
701.718	-5.38
701.747	10.62
701.775	3.62
701.803	3.62
701.831	3.62
701.86	2.62
701.888	13.62
701.916	5.62
701.944	1.62
701.973	-2.38
702.001	-5.38
702.029	-14.38
702.057	-5.38
702.086	-12.38
702.114	-6.38
702.142	12.62
702.17	2.62
702.199	-5.38
702.227	1.62
702.255	18.62
702.283	-6.38
702.311	13.62
702.34	3.62
702.368	4.62
702.396	-13.38
702.424	-19.38
702.452	-7.38
702.481	-5.38
702.509	-5.38
702.537	8.62
702.565	7.62
702.593	-22.38
702.621	-5.38
702.65	4.62
702.678	8.62
702.706	6.62
702.734	-12.38
702.762	14.62
702.79	7.62
702.819	2.62
702.847	-13.38
702.875	5.62
702.903	18.62
702.931	6.62
702.959	12.62
702.988	11.62
703.016	-16.38
703.044	24.62
703.072	12.62
703.1	-14.38
703.128	-1.38
703.156	-8.38
703.184	-9.38
703.212	8.62
703.241	-2.38
703.269	-1.38
703.297	3.62
703.325	-2.38
703.353	-0.38
703.381	-8.38
703.409	9.62
703.437	-8.38
703.465	-5.38
703.493	10.62
703.522	5.62
703.55	11.62
703.578	-1.38
703.606	1.62
703.634	18.62
703.662	-6.38
703.69	-0.38
703.718	7.62
703.746	13.62
703.774	-1.38
703.802	-1.38
703.83	-13.38
703.858	4.62
703.886	3.62
703.914	-5.38
703.942	6.62
703.97	-3.38
703.998	-16.38
704.027	8.62
704.055	9.62
704.083	-6.38
704.111	-5.38
704.139	3.62
704.167	-8.38
704.195	-1.38
704.223	-5.38
704.251	-17.38
704.279	-6.38
704.307	-2.38
704.335	-13.38
704.363	0.62
704.391	2.62
704.419	-5.38
704.447	-8.38
704.475	3.62
704.503	-4.38
704.531	5.62
704.558	4.62
704.586	8.62
704.614	1.62
704.642	4.62
704.67	-7.38
704.698	-10.38
704.726	-10.38
704.754	-8.38
704.782	-6.38
704.81	0.62
704.838	28.62
704.866	18.62
704.894	-7.38
704.922	-14.38
704.95	5.62
704.978	21.62
705.006	5.62
705.034	8.62
705.061	4.62
705.089	-1.38
705.117	2.62
705.145	-0.38
705.173	-6.38
705.201	-15.38
705.229	2.62
705.257	7.62
705.285	11.62
705.313	13.62
705.34	-2.38
705.368	-8.38
705.396	-0.38
705.424	7.62
705.452	1.62
705.48	-2.38
705.508	-6.38
705.536	-7.38
705.563	1.62
705.591	3.62
705.619	13.62
705.647	-2.38
705.675	10.62
705.703	8.62
705.731	-12.38
705.758	5.62
705.786	10.62
705.814	13.62
705.842	8.62
705.87	0.62
705.898	12.62
705.925	-2.38
705.953	4.62
705.981	1.62
706.009	-5.38
706.037	4.62
706.065	10.62
706.092	-18.38
706.12	9.62
706.148	-0.38
706.176	-1.38
706.204	-3.38
706.231	1.62
706.259	-8.38
706.287	-8.38
706.315	11.62
706.342	5.62
706.37	16.62
706.398	17.62
706.426	1.62
706.454	18.62
706.481	11.62
706.509	5.62
706.537	10.62
706.565	2.62
706.592	17.62
706.62	-1.38
706.648	3.62
706.676	-13.38
706.703	13.62
706.731	3.62
706.759	-6.38
706.787	-0.38
706.814	-1.38
706.842	-8.38
706.87	-1.38
706.897	2.62
706.925	17.62
706.953	19.62
706.981	6.62
707.008	11.62
707.036	4.62
707.064	-2.38
707.091	-28.38
707.119	12.62
707.147	-3.38
707.174	-4.38
707.202	2.62
707.23	-19.38
707.258	-2.38
707.285	-9.38
707.313	3.62
707.341	-4.38
707.368	3.62
707.396	14.62
707.424	29.62
707.451	0.62
707.479	9.62
707.507	-1.38
707.534	-2.38
707.562	-5.38
707.59	-0.38
707.617	-4.38
707.645	1.62
707.672	2.62
707.7	2.62
707.728	25.62
707.755	13.62
707.783	1.62
707.811	-5.38
707.838	4.62
707.866	6.62
707.893	1.62
707.921	-2.38
707.949	-4.38
707.976	0.62
708.004	3.62
708.031	-16.38
708.059	-3.38
708.087	-17.38
708.114	-7.38
708.142	-6.38
708.169	-7.38
708.197	-16.38
708.225	-5.38
708.252	-5.38
708.28	9.62
708.307	3.62
708.335	-8.38
708.362	1.62
708.39	-3.38
708.418	-2.38
708.445	-13.38
708.473	-8.38
708.5	-12.38
708.528	-2.38
708.555	-1.38
708.583	10.62
708.61	7.62
708.638	5.62
708.665	0.62
708.693	2.62
708.72	-5.38
708.748	-8.38
708.776	-4.38
708.803	2.62
708.831	-0.38
708.858	2.62
708.886	-4.38
708.913	12.62
708.941	-5.38
708.968	2.62
708.996	-14.38
709.023	16.62
709.051	2.62
709.078	-14.38
709.105	-5.38
709.133	4.62
709.16	1.62
709.188	12.62
709.215	4.62
709.243	-1.38
709.27	-29.38
709.298	-5.38
709.325	-26.38
709.353	1.62
709.38	-2.38
709.408	-1.38
709.435	4.62
709.462	7.62
709.49	12.62
709.517	-2.38
709.545	-6.38
709.572	-12.38
709.6	7.62
709.627	-9.38
709.655	0.62
709.682	-12.38
709.709	6.62
709.737	-3.38
709.764	-9.38
709.792	2.62
709.819	-6.38
709.846	1.62
709.874	3.62
709.901	14.62
709.929	5.62
709.956	-1.38
709.983	-8.38
710.011	5.62
710.038	2.62
710.066	13.62
710.093	9.62
710.12	-9.38
710.148	-9.38
710.175	-10.38
710.202	-17.38
710.23	1.62
710.257	5.62
710.284	5.62
710.312	10.62
710.339	1.62
710.366	1.62
710.394	-14.38
710.421	-0.38
710.448	-1.38
710.476	-4.38
710.503	8.62
710.53	8.62
710.558	14.62
710.585	9.62
710.612	-1.38
710.64	-15.38
710.667	-16.38
710.694	-17.38
710.722	-7.38
710.749	-3.38
710.776	1.62
710.804	38.62
710.831	7.62
710.858	-2.38
710.885	-5.38
710.913	1.62
710.94	32.62
710.967	-1.38
710.995	-1.38
711.022	6.62
711.049	10.62
711.076	-2.38
711.104	7.62
711.131	-16.38
711.158	-10.38
711.185	10.62
711.213	-9.38
711.24	-0.38
711.267	-8.38
711.294	-5.38
711.322	-1.38
711.349	4.62
711.376	-7.38
711.403	2.62
711.431	-2.38
711.458	-13.38
711.485	-9.38
711.512	9.62
711.54	-5.38
711.567	4.62
711.594	5.62
711.621	-13.38
711.648	-7.38
711.676	-0.38
711.703	5.62
711.73	-12.38
711.757	10.62
711.784	6.62
711.812	7.62
711.839	-0.38
711.866	-5.38
711.893	-21.38
711.92	-7.38
711.947	-5.38
711.975	6.62
712.002	5.62
712.029	19.62
712.056	-3.38
712.083	6.62
712.11	-18.38
712.138	2.62
712.165	7.62
712.192	6.62
712.219	-7.38
712.246	7.62
712.273	-14.38
712.3	-9.38
712.328	-0.38
712.355	-9.38
712.382	1.62
712.409	8.62
712.436	-16.38
712.463	11.62
712.49	-4.38
712.517	3.62
712.544	5.62
712.572	0.62
712.599	-3.38
712.626	11.62
712.653	-8.38
712.68	-18.38
712.707	-9.38
712.734	-0.38
712.761	-6.38
712.788	-0.38
712.815	2.62
712.842	10.62
712.87	-7.38
712.897	11.62
712.924	-6.38
712.951	15.62
712.978	16.62
713.005	4.62
713.032	-2.38
713.059	-4.38
713.086	-5.38
713.113	-5.38
713.14	-2.38
713.167	-7.38
713.194	19.62
713.221	-7.38
713.248	24.62
713.275	12.62
713.302	-1.38
713.329	-11.38
713.356	3.62
713.383	6.62
713.41	5.62
713.437	-7.38
713.464	5.62
713.491	5.62
713.518	7.62
713.545	1.62
713.572	9.62
713.599	21.62
713.626	5.62
713.653	13.62
713.68	-0.38
713.707	17.62
713.734	-0.38
713.761	-2.38
713.788	-2.38
713.815	12.62
713.842	12.62
713.869	-0.38
713.896	4.62
713.923	-3.38
713.95	0.62
713.977	-0.38
714.004	-12.38
714.031	-4.38
714.058	2.62
714.085	9.62
714.112	21.62
714.139	-0.38
714.165	-2.38
714.192	-11.38
714.219	5.62
714.246	1.62
714.273	-5.38
714.3	-2.38
714.327	7.62
714.354	6.62
714.381	-7.38
714.408	10.62
714.435	-4.38
714.461	-1.38
714.488	19.62
714.515	-2.38
714.542	-10.38
714.569	-9.38
714.596	-3.38
714.623	5.62
714.65	-11.38
714.677	-1.38
714.703	-2.38
714.73	-7.38
714.757	2.62
714.784	-0.38
714.811	-11.38
714.838	2.62
714.865	12.62
714.891	6.62
714.918	-18.38
714.945	-15.38
714.972	-5.38
714.999	15.62
715.026	4.62
715.052	14.62
715.079	-9.38
715.106	-0.38
715.133	-1.38
715.16	-25.38
715.187	-1.38
715.213	4.62
715.24	1.62
715.267	-14.38
715.294	-9.38
715.321	-1.38
715.347	2.62
715.374	-4.38
715.401	-5.38
715.428	11.62
715.455	-0.38
715.481	-9.38
715.508	-1.38
715.535	1.62
715.562	22.62
715.588	3.62
715.615	-3.38
715.642	-2.38
715.669	9.62
715.695	-6.38
715.722	-18.38
715.749	-2.38
715.776	3.62
715.802	-7.38
715.829	-4.38
715.856	-10.38
715.883	-7.38
715.909	-6.38
715.936	-4.38
715.963	-3.38
715.99	-6.38
716.016	1.62
716.043	7.62
716.07	-3.38
716.096	-10.38
716.123	-8.38
716.15	-5.38
716.177	8.62
716.203	8.62
716.23	5.62
716.257	-5.38
716.283	13.62
716.31	9.62
716.337	-1.38
716.363	-10.38
716.39	-13.38
716.417	2.62
716.443	3.62
716.47	18.62
716.497	3.62
716.523	13.62
716.55	2.62
716.577	13.62
716.603	-0.38
716.63	3.62
716.657	10.62
716.683	-6.38
716.71	-0.38
716.737	-14.38
716.763	2.62
716.79	7.62
716.817	7.62
716.843	6.62
716.87	-9.38
716.897	-3.38
716.923	2.62
716.95	5.62
716.976	-6.38
717.003	-5.38
717.03	2.62
717.056	2.62
717.083	-2.38
717.109	14.62
717.136	-3.38
717.163	-23.38
717.189	1.62
717.216	-5.38
717.242	-6.38
717.269	-2.38
717.296	8.62
717.322	5.62
717.349	9.62
717.375	11.62
717.402	-4.38
717.428	-1.38
717.455	4.62
717.481	-11.38
717.508	5.62
717.535	15.62
717.561	9.62
717.588	2.62
717.614	-4.38
717.641	-10.38
717.667	-5.38
717.694	1.62
717.72	-10.38
717.747	7.62
717.773	-0.38
717.8	14.62
717.826	18.62
717.853	-6.38
717.88	7.62
717.906	3.62
717.933	2.62
717.959	5.62
717.986	5.62
718.012	-1.38
718.039	6.62
718.065	12.62
718.092	9.62
718.118	0.62
718.144	-13.38
718.171	-3.38
718.197	9.62
718.224	-13.38
718.25	-0.38
718.277	4.62
718.303	-4.38
718.33	-12.38
718.356	-2.38
718.383	-7.38
718.409	-3.38
718.436	-2.38
718.462	-3.38
718.489	7.62
718.515	10.62
718.541	10.62
718.568	3.62
718.594	8.62
718.621	5.62
718.647	-9.38
718.674	1.62
718.7	13.62
718.726	0.62
718.753	-1.38
718.779	11.62
718.806	-9.38
718.832	-0.38
718.858	1.62
718.885	-23.38
718.911	-2.38
718.938	11.62
718.964	-14.38
718.99	-6.38
719.017	1.62
719.043	3.62
719.07	2.62
719.096	-8.38
719.122	-4.38
719.149	-3.38
719.175	4.62
719.201	-0.38
719.228	-0.38
719.254	-0.38
719.281	-3.38
719.307	1.62
719.333	-6.38
719.36	16.62
719.386	5.62
719.412	-1.38
719.439	-3.38
719.465	-0.38
719.491	-1.38
719.518	4.62
719.544	-4.38
719.57	12.62
719.597	10.62
719.623	3.62
719.649	3.62
719.675	-3.38
719.702	5.62
719.728	11.62
719.754	0.62
719.781	-10.38
719.807	-6.38
719.833	-0.38
719.86	3.62
719.886	-7.38
719.912	-2.38
719.938	-4.38
719.965	-0.38
719.991	9.62
720.017	2.62
720.044	-2.38
720.07	10.62
720.096	18.62
720.122	10.62
720.149	6.62
720.175	11.62
720.201	8.62
720.227	-0.38
720.254	4.62
720.28	3.62
720.306	-3.38
720.332	8.62
720.359	1.62
720.385	20.62
720.411	-10.38
720.437	-3.38
720.463	-16.38
720.49	2.62
720.516	-1.38
720.542	-1.38
720.568	-1.38
720.595	4.62
720.621	5.62
720.647	-5.38
720.673	7.62
720.699	-10.38
720.725	13.62
720.752	7.62
720.778	16.62
720.804	10.62
720.83	-1.38
720.856	-6.38
720.883	-20.38
720.909	-10.38
720.935	3.62
720.961	8.62
720.987	14.62
721.013	6.62
721.04	-16.38
721.066	-21.38
721.092	1.62
721.118	-1.38
721.144	5.62
721.17	-10.38
721.196	9.62
721.223	-4.38
721.249	4.62
721.275	10.62
721.301	5.62
721.327	-1.38
721.353	-5.38
721.379	-5.38
721.405	0.62
721.432	2.62
721.458	-1.38
721.484	6.62
721.51	-13.38
721.536	9.62
721.562	-4.38
721.588	-6.38
721.614	-5.38
721.64	-10.38
721.666	-4.38
721.693	-1.38
721.719	0.62
721.745	5.62
721.771	-7.38
721.797	-3.38
721.823	-0.38
721.849	17.62
721.875	5.62
721.901	7.62
721.927	-9.38
721.953	11.62
721.979	8.62
722.005	7.62
722.031	1.62
722.057	3.62
722.083	1.62
722.109	1.62
722.135	3.62
722.161	11.62
722.187	3.62
722.214	6.62
722.24	-12.38
722.266	-25.38
722.292	-1.38
722.318	12.62
722.344	5.62
722.37	2.62
722.396	1.62
722.422	-10.38
722.448	-3.38
722.474	-13.38
722.5	11.62
722.526	-0.38
722.552	3.62
722.578	-10.38
722.603	13.62
722.629	-0.38
722.655	13.62
722.681	-8.38
722.707	-2.38
722.733	-23.38
722.759	-20.38
722.785	-7.38
722.811	-3.38
722.837	-1.38
722.863	1.62
722.889	15.62
722.915	15.62
722.941	4.62
722.967	10.62
722.993	13.62
723.019	-2.38
723.045	-6.38
723.071	-4.38
723.097	2.62
723.122	-3.38
723.148	-2.38
723.174	-2.38
723.2	7.62
723.226	-9.38
723.252	-0.38
723.278	-5.38
723.304	-10.38
723.33	10.62
723.356	-20.38
723.381	-3.38
723.407	-1.38
723.433	-9.38
723.459	-12.38
723.485	5.62
723.511	14.62
723.537	3.62
723.563	8.62
723.588	7.62
723.614	8.62
723.64	2.62
723.666	-0.38
723.692	8.62
723.718	-22.38
723.744	-9.38
723.769	4.62
723.795	-4.38
723.821	-8.38
723.847	-14.38
723.873	2.62
723.899	2.62
723.924	-4.38
723.95	0.62
723.976	-9.38
724.002	6.62
724.028	3.62
724.053	-0.38
724.079	-11.38
724.105	2.62
724.131	3.62
724.157	-1.38
724.182	5.62
724.208	-3.38
724.234	13.62
724.26	-16.38
724.286	8.62
724.311	-5.38
724.337	-0.38
724.363	5.62
724.389	2.62
724.415	-13.38
724.44	3.62
724.466	2.62
724.492	-3.38
724.518	-2.38
724.543	-1.38
724.569	11.62
724.595	3.62
724.621	1.62
724.646	-3.38
724.672	0.62
724.698	-9.38
724.723	-1.38
724.749	2.62
724.775	11.62
724.801	-3.38
724.826	-6.38
724.852	4.62
724.878	-11.38
724.904	-26.38
724.929	-1.38
724.955	-18.38
724.981	-11.38
725.006	-2.38
725.032	-2.38
725.058	7.62
725.083	-7.38
725.109	1.62
725.135	-3.38
725.161	11.62
725.186	18.62
725.212	2.62
725.238	1.62
725.263	-1.38
725.289	-16.38
725.315	-1.38
725.34	-14.38
725.366	1.62
725.392	-0.38
725.417	4.62
725.443	3.62
725.468	19.62
725.494	3.62
725.52	-5.38
725.545	-3.38
725.571	-14.38
725.597	1.62
725.622	-9.38
725.648	-5.38
725.674	15.62
725.699	2.62
725.725	-16.38
725.75	24.62
725.776	-3.38
725.802	7.62
725.827	-2.38
725.853	-6.38
725.878	7.62
725.904	-1.38
725.93	4.62
725.955	-2.38
725.981	-8.38
726.006	-10.38
726.032	0.62
726.057	-1.38
726.083	19.62
726.109	4.62
726.134	-14.38
726.16	-1.38
726.185	-7.38
726.211	-3.38
726.236	10.62
726.262	4.62
726.288	11.62
726.313	10.62
726.339	4.62
726.364	-0.38
726.39	21.62
726.415	-4.38
726.441	1.62
726.466	-7.38
726.492	13.62
726.517	13.62
726.543	-3.38
726.568	-8.38
726.594	-10.38
726.619	-2.38
726.645	11.62
726.67	5.62
726.696	2.62
726.721	0.62
726.747	0.62
726.772	-1.38
726.798	2.62
726.823	0.62
726.849	4.62
726.874	11.62
726.9	7.62
726.925	9.62
726.951	-5.38
726.976	-2.38
727.002	-5.38
727.027	-5.38
727.053	4.62
727.078	-10.38
727.104	4.62
727.129	-9.38
727.155	-10.38
727.18	12.62
727.205	7.62
727.231	-0.38
727.256	7.62
727.282	0.62
727.307	0.62
727.333	-11.38
727.358	0.62
727.383	-14.38
727.409	-16.38
727.434	15.62
727.46	-1.38
727.485	-9.38
727.511	10.62
727.536	-17.38
727.561	-2.38
727.587	0.62
727.612	-13.38
727.637	-8.38
727.663	-12.38
727.688	12.62
727.714	-12.38
727.739	-6.38
727.764	-8.38
727.79	-5.38
727.815	-3.38
727.841	4.62
727.866	4.62
727.891	20.62
727.917	-9.38
727.942	3.62
727.967	1.62
727.993	-9.38
728.018	-1.38
728.043	-8.38
728.069	6.62
728.094	15.62
728.119	1.62
728.145	-2.38
728.17	6.62
728.195	-2.38
728.221	4.62
728.246	2.62
728.271	-3.38
728.297	9.62
728.322	-4.38
728.347	2.62
728.373	7.62
728.398	17.62
728.423	-5.38
728.448	-2.38
728.474	2.62
728.499	5.62
728.524	0.62
728.55	-16.38
728.575	1.62
728.6	12.62
728.625	-1.38
728.651	8.62
728.676	3.62
728.701	-2.38
728.727	-8.38
728.752	-3.38
728.777	-0.38
728.802	2.62
728.828	5.62
728.853	-3.38
728.878	-2.38
728.903	-5.38
728.929	-8.38
728.954	3.62
728.979	2.62
729.004	6.62
729.03	-2.38
729.055	6.62
729.08	-9.38
729.105	-11.38
729.13	4.62
729.156	5.62
729.181	1.62
729.206	-5.38
729.231	4.62
729.256	16.62
729.282	-4.38
729.307	-18.38
729.332	6.62
729.357	8.62
729.382	-2.38
729.408	1.62
729.433	6.62
729.458	3.62
729.483	7.62
729.508	13.62
729.533	7.62
729.559	13.62
729.584	2.62
729.609	-1.38
729.634	5.62
729.659	4.62
729.684	2.62
729.71	5.62
729.735	16.62
729.76	12.62
729.785	2.62
729.81	5.62
729.835	1.62
729.86	2.62
729.886	6.62
729.911	1.62
729.936	-9.38
729.961	14.62
729.986	-11.38
730.011	-0.38
730.036	13.62
730.061	8.62
730.086	-8.38
730.112	-2.38
730.137	10.62
730.162	-1.38
730.187	-8.38
730.212	7.62
730.237	-6.38
730.262	7.62
730.287	-17.38
730.312	25.62
730.337	1.62
730.362	15.62
730.387	-6.38
730.413	-12.38
730.438	-2.38
730.463	-0.38
730.488	-7.38
730.513	-2.38
730.538	-20.38
730.563	10.62
730.588	19.62
730.613	22.62
730.638	-2.38
730.663	10.62
730.688	24.62
730.713	2.62
730.738	1.62
730.763	7.62
730.788	-7.38
730.813	-3.38
730.838	-5.38
730.863	-6.38
730.888	-5.38
730.913	-16.38
730.938	-30.38
730.963	-11.38
730.988	1.62
731.013	12.62
731.038	0.62
731.063	-1.38
731.088	15.62
731.113	2.62
731.138	-3.38
731.163	-1.38
731.188	-18.38
731.213	-3.38
731.238	5.62
731.263	5.62
731.288	6.62
731.313	-6.38
731.338	2.62
731.363	4.62
731.388	4.62
731.413	-2.38
731.438	21.62
731.463	8.62
731.487	10.62
731.512	-9.38
731.537	-0.38
731.562	2.62
731.587	7.62
731.612	-9.38
731.637	-4.38
731.662	6.62
731.687	5.62
731.712	-1.38
731.737	6.62
731.762	-0.38
731.786	14.62
731.811	9.62
731.836	-9.38
731.861	0.62
731.886	-8.38
731.911	3.62
731.936	6.62
731.961	1.62
731.986	-4.38
732.01	10.62
732.035	5.62
732.06	2.62
732.085	1.62
732.11	-9.38
732.135	1.62
732.16	-2.38
732.184	-3.38
732.209	1.62
732.234	5.62
732.259	-14.38
732.284	8.62
732.309	-13.38
732.334	12.62
732.358	-4.38
732.383	-31.38
732.408	-12.38
732.433	-4.38
732.458	4.62
732.482	17.62
732.507	-0.38
732.532	1.62
732.557	22.62
732.582	7.62
732.607	2.62
732.631	4.62
732.656	7.62
732.681	7.62
732.706	4.62
732.73	8.62
732.755	-10.38
732.78	-10.38
732.805	6.62
732.83	-6.38
732.854	7.62
732.879	13.62
732.904	-4.38
732.929	-17.38
732.953	-10.38
732.978	2.62
733.003	-6.38
733.028	-5.38
733.052	18.62
733.077	7.62
733.102	23.62
733.127	-0.38
733.151	6.62
733.176	12.62
733.201	-6.38
733.226	-5.38
733.25	-1.38
733.275	8.62
733.3	-4.38
733.324	16.62
733.349	-3.38
733.374	15.62
733.399	17.62
733.423	-4.38
733.448	-19.38
733.473	-7.38
733.497	2.62
733.522	2.62
733.547	3.62
733.571	3.62
733.596	9.62
733.621	4.62
733.646	9.62
733.67	10.62
733.695	-17.38
733.72	6.62
733.744	15.62
733.769	8.62
733.794	11.62
733.818	-8.38
733.843	1.62
733.867	-4.38
733.892	2.62
733.917	5.62
733.941	2.62
733.966	-1.38
733.991	-0.38
734.015	19.62
734.04	-2.38
734.065	4.62
734.089	18.62
734.114	-2.38
734.138	2.62
734.163	-1.38
734.188	10.62
734.212	6.62
734.237	21.62
734.261	4.62
734.286	2.62
734.311	-2.38
734.335	-4.38
734.36	-3.38
734.384	-1.38
734.409	3.62
734.434	-4.38
734.458	-7.38
734.483	-8.38
734.507	-16.38
734.532	-13.38
734.556	-3.38
734.581	1.62
734.606	-11.38
734.63	5.62
734.655	-2.38
734.679	11.62
734.704	2.62
734.728	-5.38
734.753	-12.38
734.777	-9.38
734.802	3.62
734.826	-6.38
734.851	11.62
734.876	12.62
734.9	7.62
734.925	15.62
734.949	3.62
734.974	-2.38
734.998	-3.38
735.023	1.62
735.047	-16.38
735.072	3.62
735.096	9.62
735.121	7.62
735.145	-10.38
735.17	3.62
735.194	13.62
735.219	2.62
735.243	-5.38
735.268	1.62
735.292	7.62
735.317	3.62
735.341	2.62
735.365	-5.38
735.39	15.62
735.414	3.62
735.439	-0.38
735.463	9.62
735.488	1.62
735.512	-4.38
735.537	-5.38
735.561	0.62
735.586	-8.38
735.61	1.62
735.634	7.62
735.659	16.62
735.683	21.62
735.708	-7.38
735.732	-12.38
735.757	-1.38
735.781	5.62
735.805	5.62
735.83	-2.38
735.854	6.62
735.879	-1.38
735.903	16.62
735.927	5.62
735.952	0.62
735.976	4.62
736.001	1.62
736.025	-9.38
736.049	2.62
736.074	1.62
736.098	5.62
736.123	-1.38
736.147	-2.38
736.171	2.62
736.196	13.62
736.22	1.62
736.244	-0.38
736.269	5.62
736.293	-0.38
736.317	0.62
736.342	-6.38
736.366	18.62
736.39	4.62
736.415	-8.38
736.439	2.62
736.463	13.62
736.488	5.62
736.512	-3.38
736.536	5.62
736.561	16.62
736.585	5.62
736.609	4.62
736.634	-5.38
736.658	-9.38
736.682	-1.38
736.707	-3.38
736.731	-6.38
736.755	-5.38
736.78	12.62
736.804	21.62
736.828	21.62
736.852	1.62
736.877	-6.38
736.901	2.62
736.925	3.62
736.949	-3.38
736.974	-4.38
736.998	-4.38
737.022	-2.38
737.047	8.62
737.071	6.62
737.095	15.62
737.119	14.62
737.144	3.62
737.168	-13.38
737.192	-4.38
737.216	-8.38
737.241	-10.38
737.265	-2.38
737.289	-5.38
737.313	-2.38
737.337	6.62
737.362	-3.38
737.386	1.62
737.41	-3.38
737.434	5.62
737.459	6.62
737.483	-0.38
737.507	-2.38
737.531	-4.38
737.555	6.62
737.58	12.62
737.604	4.62
737.628	-10.38
737.652	-2.38
737.676	7.62
737.701	-11.38
737.725	-3.38
737.749	25.62
737.773	9.62
737.797	-10.38
737.821	0.62
737.846	-3.38
737.87	33.62
737.894	-5.38
737.918	-5.38
737.942	-8.38
737.966	6.62
737.99	7.62
738.015	2.62
738.039	3.62
738.063	-7.38
738.087	15.62
738.111	5.62
738.135	10.62
738.159	-6.38
738.184	2.62
738.208	5.62
738.232	1.62
738.256	22.62
738.28	1.62
738.304	6.62
738.328	-5.38
738.352	6.62
738.376	-2.38
738.4	0.62
738.425	-0.38
738.449	1.62
738.473	11.62
738.497	-6.38
738.521	-1.38
738.545	11.62
738.569	2.62
738.593	24.62
738.617	-4.38
738.641	-5.38
738.665	7.62
738.689	7.62
738.713	2.62
738.737	-10.38
738.762	19.62
738.786	-4.38
738.81	-16.38
738.834	10.62
738.858	-7.38
738.882	10.62
738.906	-0.38
738.93	-1.38
738.954	-1.38
738.978	9.62
739.002	-6.38
739.026	21.62
739.05	10.62
739.074	-8.38
739.098	13.62
739.122	7.62
739.146	5.62
739.17	11.62
739.194	8.62
739.218	-12.38
739.242	-6.38
739.266	-17.38
739.29	6.62
739.314	22.62
739.338	6.62
739.362	5.62
739.386	10.62
739.41	2.62
739.434	4.62
739.458	23.62
739.482	7.62
739.506	13.62
739.53	1.62
739.554	-0.38
739.577	-17.38
739.601	10.62
739.625	4.62
739.649	-2.38
739.673	-17.38
739.697	9.62
739.721	7.62
739.745	19.62
739.769	15.62
739.793	8.62
739.817	13.62
739.841	-12.38
739.865	10.62
739.889	-12.38
739.912	6.62
739.936	6.62
739.96	-1.38
739.984	14.62
740.008	-0.38
740.032	-1.38
740.056	-16.38
740.08	-0.38
740.104	-6.38
740.127	-5.38
740.151	12.62
740.175	7.62
740.199	-2.38
740.223	39.62
740.247	-2.38
740.271	14.62
740.295	1.62
740.318	-4.38
740.342	13.62
740.366	5.62
740.39	5.62
740.414	10.62
740.438	1.62
740.461	16.62
740.485	6.62
740.509	-11.38
740.533	-3.38
740.557	-11.38
740.581	-3.38
740.604	-14.38
740.628	-1.38
740.652	-8.38
740.676	2.62
740.7	13.62
740.723	-22.38
740.747	-10.38
740.771	1.62
740.795	-10.38
740.819	17.62
740.842	11.62
740.866	11.62
740.89	-11.38
740.914	-6.38
740.938	-5.38
740.961	1.62
740.985	1.62
741.009	4.62
741.033	7.62
741.056	4.62
741.08	-14.38
741.104	-6.38
741.128	-5.38
741.151	5.62
741.175	-2.38
741.199	4.62
741.223	11.62
741.246	-11.38
741.27	5.62
741.294	6.62
741.318	-3.38
741.341	4.62
741.365	-5.38
741.389	-6.38
741.413	13.62
741.436	14.62
741.46	-1.38
741.484	9.62
741.507	2.62
741.531	18.62
741.555	15.62
741.579	22.62
741.602	11.62
741.626	6.62
741.65	-1.38
741.673	15.62
741.697	15.62
741.721	1.62
741.744	-8.38
741.768	-1.38
741.792	0.62
741.815	2.62
741.839	15.62
741.863	12.62
741.886	10.62
741.91	7.62
741.934	-16.38
741.957	-26.38
741.981	0.62
742.005	-1.38
742.028	-1.38
742.052	-13.38
742.075	9.62
742.099	10.62
742.123	5.62
742.146	-1.38
742.17	14.62
742.194	-11.38
742.217	-5.38
742.241	-10.38
742.264	2.62
742.288	9.62
742.312	13.62
742.335	6.62
742.359	-0.38
742.382	7.62
742.406	8.62
742.43	-8.38
742.453	-3.38
742.477	-14.38
742.5	-1.38
742.524	1.62
742.548	-7.38
742.571	7.62
742.595	-2.38
742.618	5.62
742.642	-3.38
742.665	7.62
742.689	-13.38
742.712	-9.38
742.736	4.62
742.76	-4.38
742.783	-3.38
742.807	4.62
742.83	5.62
742.854	-6.38
742.877	-17.38
742.901	4.62
742.924	9.62
742.948	8.62
742.971	2.62
742.995	4.62
743.018	-20.38
743.042	-9.38
743.065	3.62
743.089	-6.38
743.112	20.62
743.136	8.62
743.159	-2.38
743.183	-5.38
743.206	8.62
743.23	-12.38
743.253	-1.38
743.277	0.62
743.3	-13.38
743.324	-4.38
743.347	-17.38
743.371	15.62
743.394	-1.38
743.418	16.62
743.441	8.62
743.465	5.62
743.488	-7.38
743.512	-19.38
743.535	1.62
743.558	10.62
743.582	-3.38
743.605	-9.38
743.629	16.62
743.652	17.62
743.676	6.62
743.699	0.62
743.723	3.62
743.746	16.62
743.769	-2.38
743.793	-1.38
743.816	1.62
743.84	1.62
743.863	-7.38
743.886	1.62
743.91	5.62
743.933	11.62
743.957	6.62
743.98	-9.38
744.003	4.62
744.027	-1.38
744.05	4.62
744.074	-1.38
744.097	-17.38
744.12	-1.38
744.144	-13.38
744.167	2.62
744.19	-5.38
744.214	3.62
744.237	-11.38
744.26	-1.38
744.284	-9.38
744.307	-10.38
744.331	-3.38
744.354	-10.38
744.377	-8.38
744.401	-10.38
744.424	1.62
744.447	-21.38
744.471	-11.38
