Data from HighRes_H2D2_15_04_11_07_2024_HR4C61891__99__15-05-44-342.txt Node

Date: Thu Nov 07 15:05:44 EST 2024
User: crc00042
Spectrometer: HR4C6189
Trigger mode: 4
Integration Time (sec): 1.000000E-1
Scans to average: 1
Electric dark correction enabled: true
Nonlinearity correction enabled: false
Boxcar width: 0
XAxis mode: Wavelengths
Number of Pixels in Spectrum: 3648
>>>>>Begin Spectral Data<<<<<
639.567	-53.54
639.602	-53.54
639.636	-53.54
639.67	-48.54
639.704	-34.54
639.738	-10.54
639.773	-1.54
639.807	-6.54
639.841	-0.54
639.875	2.46
639.909	7.46
639.943	-1.54
639.978	3.46
640.012	-2.54
640.046	1.46
640.08	0.46
640.114	-0.54
640.148	8.46
640.182	-17.54
640.217	-6.54
640.251	9.46
640.285	11.46
640.319	-6.54
640.353	0.46
640.387	7.46
640.421	-3.54
640.455	-3.54
640.49	-8.54
640.524	-4.54
640.558	3.46
640.592	11.46
640.626	-4.54
640.66	4.46
640.694	-9.54
640.728	-1.54
640.762	3.46
640.796	5.46
640.83	2.46
640.865	-12.54
640.899	-19.54
640.933	-8.54
640.967	-3.54
641.001	0.46
641.035	5.46
641.069	6.46
641.103	-7.54
641.137	-9.54
641.171	-3.54
641.205	10.46
641.239	11.46
641.273	8.46
641.307	2.46
641.341	-9.54
641.375	-3.54
641.409	-10.54
641.443	-9.54
641.477	2.46
641.511	5.46
641.545	9.46
641.579	-0.54
641.614	5.46
641.648	20.46
641.682	0.46
641.716	-6.54
641.75	2.46
641.784	-7.54
641.818	0.46
641.852	12.46
641.886	-17.54
641.919	18.46
641.953	7.46
641.987	-5.54
642.021	1.46
642.055	11.46
642.089	-5.54
642.123	-10.54
642.157	-20.54
642.191	-2.54
642.225	5.46
642.259	-10.54
642.293	-9.54
642.327	-25.54
642.361	7.46
642.395	14.46
642.429	18.46
642.463	-4.54
642.497	15.46
642.531	-5.54
642.565	4.46
642.599	3.46
642.633	-8.54
642.666	-1.54
642.7	5.46
642.734	7.46
642.768	-0.54
642.802	-2.54
642.836	16.46
642.87	-8.54
642.904	-5.54
642.938	8.46
642.972	-5.54
643.005	6.46
643.039	14.46
643.073	15.46
643.107	4.46
643.141	-11.54
643.175	-7.54
643.209	-9.54
643.243	1.46
643.276	-6.54
643.31	-8.54
643.344	-0.54
643.378	7.46
643.412	11.46
643.446	6.46
643.48	-6.54
643.513	9.46
643.547	-7.54
643.581	-9.54
643.615	-10.54
643.649	1.46
643.683	7.46
643.716	8.46
643.75	-14.54
643.784	-12.54
643.818	-0.54
643.852	-11.54
643.886	3.46
643.919	17.46
643.953	8.46
643.987	8.46
644.021	14.46
644.055	14.46
644.088	3.46
644.122	1.46
644.156	-5.54
644.19	15.46
644.224	-1.54
644.257	3.46
644.291	8.46
644.325	4.46
644.359	-5.54
644.392	11.46
644.426	15.46
644.46	-2.54
644.494	0.46
644.527	-6.54
644.561	-5.54
644.595	-11.54
644.629	-3.54
644.662	1.46
644.696	26.46
644.73	15.46
644.764	-3.54
644.797	-3.54
644.831	8.46
644.865	23.46
644.899	-2.54
644.932	22.46
644.966	3.46
645	12.46
645.033	14.46
645.067	15.46
645.101	-8.54
645.135	-1.54
645.168	-0.54
645.202	-17.54
645.236	-7.54
645.269	10.46
645.303	-9.54
645.337	-18.54
645.37	-8.54
645.404	5.46
645.438	-5.54
645.471	-8.54
645.505	6.46
645.539	1.46
645.572	-7.54
645.606	-2.54
645.64	16.46
645.673	6.46
645.707	19.46
645.741	-2.54
645.774	-12.54
645.808	9.46
645.842	-5.54
645.875	-1.54
645.909	-9.54
645.943	-3.54
645.976	-1.54
646.01	4.46
646.043	13.46
646.077	12.46
646.111	11.46
646.144	12.46
646.178	-0.54
646.212	-8.54
646.245	-3.54
646.279	-0.54
646.312	2.46
646.346	21.46
646.38	-7.54
646.413	-1.54
646.447	20.46
646.48	9.46
646.514	3.46
646.547	-22.54
646.581	-23.54
646.615	-17.54
646.648	-9.54
646.682	-8.54
646.715	-3.54
646.749	-4.54
646.782	3.46
646.816	1.46
646.85	10.46
646.883	3.46
646.917	7.46
646.95	4.46
646.984	8.46
647.017	5.46
647.051	2.46
647.084	2.46
647.118	-12.54
647.151	2.46
647.185	1.46
647.218	-4.54
647.252	10.46
647.285	-9.54
647.319	7.46
647.353	11.46
647.386	19.46
647.42	13.46
647.453	22.46
647.487	-2.54
647.52	10.46
647.553	-0.54
647.587	5.46
647.62	3.46
647.654	1.46
647.687	1.46
647.721	14.46
647.754	-0.54
647.788	-9.54
647.821	-7.54
647.855	22.46
647.888	-1.54
647.922	0.46
647.955	-1.54
647.989	0.46
648.022	12.46
648.055	5.46
648.089	-5.54
648.122	-1.54
648.156	5.46
648.189	4.46
648.223	3.46
648.256	10.46
648.29	19.46
648.323	1.46
648.356	11.46
648.39	4.46
648.423	18.46
648.457	-8.54
648.49	22.46
648.523	4.46
648.557	-6.54
648.59	8.46
648.624	-1.54
648.657	6.46
648.69	-4.54
648.724	1.46
648.757	14.46
648.791	-0.54
648.824	8.46
648.857	8.46
648.891	2.46
648.924	3.46
648.957	23.46
648.991	-0.54
649.024	22.46
649.057	-0.54
649.091	-9.54
649.124	3.46
649.158	8.46
649.191	14.46
649.224	6.46
649.258	15.46
649.291	5.46
649.324	-7.54
649.358	6.46
649.391	3.46
649.424	3.46
649.458	-13.54
649.491	0.46
649.524	-6.54
649.557	-16.54
649.591	-13.54
649.624	10.46
649.657	-12.54
649.691	-1.54
649.724	2.46
649.757	10.46
649.791	-2.54
649.824	24.46
649.857	9.46
649.89	1.46
649.924	-24.54
649.957	-4.54
649.99	-13.54
650.023	-5.54
650.057	10.46
650.09	-3.54
650.123	0.46
650.157	11.46
650.19	15.46
650.223	-5.54
650.256	-11.54
650.29	-5.54
650.323	0.46
650.356	2.46
650.389	-5.54
650.423	-22.54
650.456	-14.54
650.489	4.46
650.522	3.46
650.555	17.46
650.589	20.46
650.622	12.46
650.655	14.46
650.688	8.46
650.721	-3.54
650.755	-15.54
650.788	5.46
650.821	0.46
650.854	-2.54
650.887	7.46
650.921	-0.54
650.954	-13.54
650.987	4.46
651.02	1.46
651.053	-8.54
651.087	-5.54
651.12	26.46
651.153	7.46
651.186	-12.54
651.219	-5.54
651.252	11.46
651.286	10.46
651.319	-6.54
651.352	-11.54
651.385	0.46
651.418	-7.54
651.451	12.46
651.484	5.46
651.518	-5.54
651.551	15.46
651.584	7.46
651.617	4.46
651.65	-0.54
651.683	15.46
651.716	-1.54
651.749	-15.54
651.783	3.46
651.816	10.46
651.849	19.46
651.882	-3.54
651.915	-25.54
651.948	-6.54
651.981	2.46
652.014	-5.54
652.047	0.46
652.08	-10.54
652.114	7.46
652.147	-9.54
652.18	7.46
652.213	34.46
652.246	7.46
652.279	-15.54
652.312	14.46
652.345	-2.54
652.378	7.46
652.411	15.46
652.444	-6.54
652.477	6.46
652.51	-11.54
652.543	-13.54
652.576	10.46
652.609	-18.54
652.642	7.46
652.675	15.46
652.709	10.46
652.742	8.46
652.775	7.46
652.808	4.46
652.841	11.46
652.874	-5.54
652.907	-1.54
652.94	2.46
652.973	-5.54
653.006	-8.54
653.039	-4.54
653.072	-2.54
653.105	0.46
653.138	-10.54
653.171	-4.54
653.204	-3.54
653.237	-5.54
653.27	6.46
653.303	2.46
653.336	7.46
653.368	-7.54
653.401	-4.54
653.434	0.46
653.467	0.46
653.5	-20.54
653.533	-12.54
653.566	10.46
653.599	-7.54
653.632	1.46
653.665	8.46
653.698	-6.54
653.731	-8.54
653.764	-0.54
653.797	5.46
653.83	13.46
653.863	11.46
653.896	-4.54
653.929	8.46
653.961	11.46
653.994	2.46
654.027	-22.54
654.06	-1.54
654.093	0.46
654.126	-7.54
654.159	-6.54
654.192	1.46
654.225	8.46
654.258	-10.54
654.29	0.46
654.323	8.46
654.356	-6.54
654.389	13.46
654.422	-4.54
654.455	-2.54
654.488	-6.54
654.521	-14.54
654.553	-8.54
654.586	-10.54
654.619	-4.54
654.652	7.46
654.685	15.46
654.718	4.46
654.751	7.46
654.783	2.46
654.816	16.46
654.849	-9.54
654.882	-19.54
654.915	-18.54
654.948	-16.54
654.98	-19.54
655.013	1.46
655.046	0.46
655.079	-9.54
655.112	-2.54
655.144	-6.54
655.177	5.46
655.21	14.46
655.243	12.46
655.276	7.46
655.308	-3.54
655.341	-8.54
655.374	4.46
655.407	-5.54
655.44	1.46
655.472	12.46
655.505	4.46
655.538	15.46
655.571	11.46
655.603	11.46
655.636	-2.54
655.669	-1.54
655.702	-7.54
655.734	-0.54
655.767	2.46
655.8	11.46
655.833	5.46
655.865	15.46
655.898	2.46
655.931	18.46
655.964	6.46
655.996	13.46
656.029	39.46
656.062	20.46
656.095	38.46
656.127	77.46
656.16	220.46
656.193	626.46
656.225	976.46
656.258	579.46
656.291	221.46
656.324	182.46
656.356	323.46
656.389	773.46
656.422	687.46
656.454	240.46
656.487	84.46
656.52	41.46
656.552	11.46
656.585	11.46
656.618	1.46
656.65	5.46
656.683	-8.54
656.716	19.46
656.748	3.46
656.781	-12.54
656.814	-16.54
656.846	7.46
656.879	0.46
656.912	0.46
656.944	-7.54
656.977	1.46
657.01	7.46
657.042	10.46
657.075	12.46
657.108	-2.54
657.14	4.46
657.173	6.46
657.205	14.46
657.238	-9.54
657.271	-2.54
657.303	-11.54
657.336	7.46
657.369	-8.54
657.401	-0.54
657.434	7.46
657.466	0.46
657.499	3.46
657.532	-1.54
657.564	-7.54
657.597	-12.54
657.629	7.46
657.662	0.46
657.694	-0.54
657.727	-14.54
657.76	10.46
657.792	-13.54
657.825	8.46
657.857	-4.54
657.89	-12.54
657.922	5.46
657.955	9.46
657.987	-4.54
658.02	16.46
658.053	8.46
658.085	9.46
658.118	-2.54
658.15	14.46
658.183	20.46
658.215	-5.54
658.248	3.46
658.28	11.46
658.313	14.46
658.345	8.46
658.378	-2.54
658.41	8.46
658.443	10.46
658.475	6.46
658.508	1.46
658.54	12.46
658.573	0.46
658.605	-2.54
658.638	-22.54
658.67	-8.54
658.703	8.46
658.735	-19.54
658.768	-2.54
658.8	-16.54
658.833	-4.54
658.865	1.46
658.898	-1.54
658.93	4.46
658.963	-4.54
658.995	-5.54
659.028	1.46
659.06	-1.54
659.092	-3.54
659.125	10.46
659.157	16.46
659.19	-23.54
659.222	-7.54
659.255	2.46
659.287	-2.54
659.32	-11.54
659.352	-1.54
659.384	10.46
659.417	-6.54
659.449	5.46
659.482	-3.54
659.514	-18.54
659.546	-10.54
659.579	-11.54
659.611	7.46
659.644	-3.54
659.676	-21.54
659.708	-6.54
659.741	-5.54
659.773	-5.54
659.806	8.46
659.838	-12.54
659.87	5.46
659.903	-2.54
659.935	16.46
659.967	-4.54
660	1.46
660.032	-28.54
660.065	1.46
660.097	-9.54
660.129	13.46
660.162	-3.54
660.194	1.46
660.226	-7.54
660.259	-1.54
660.291	-11.54
660.323	4.46
660.356	-17.54
660.388	-19.54
660.42	-17.54
660.453	9.46
660.485	9.46
660.517	6.46
660.55	10.46
660.582	16.46
660.614	0.46
660.647	9.46
660.679	7.46
660.711	22.46
660.743	3.46
660.776	-7.54
660.808	-13.54
660.84	-11.54
660.873	-10.54
660.905	3.46
660.937	-5.54
660.969	0.46
661.002	6.46
661.034	12.46
661.066	-8.54
661.099	2.46
661.131	8.46
661.163	-4.54
661.195	7.46
661.228	15.46
661.26	-4.54
661.292	4.46
661.324	-4.54
661.357	4.46
661.389	5.46
661.421	17.46
661.453	3.46
661.485	14.46
661.518	2.46
661.55	-8.54
661.582	-22.54
661.614	-8.54
661.647	-3.54
661.679	4.46
661.711	-7.54
661.743	-4.54
661.775	7.46
661.808	32.46
661.84	-9.54
661.872	-4.54
661.904	-22.54
661.936	-1.54
661.969	14.46
662.001	-0.54
662.033	5.46
662.065	-21.54
662.097	17.46
662.129	9.46
662.162	3.46
662.194	1.46
662.226	-10.54
662.258	-2.54
662.29	-0.54
662.322	-19.54
662.355	-16.54
662.387	12.46
662.419	-7.54
662.451	2.46
662.483	4.46
662.515	-10.54
662.547	-16.54
662.58	-7.54
662.612	-15.54
662.644	-9.54
662.676	7.46
662.708	22.46
662.74	-7.54
662.772	13.46
662.804	10.46
662.836	4.46
662.869	-1.54
662.901	10.46
662.933	-19.54
662.965	0.46
662.997	10.46
663.029	-7.54
663.061	0.46
663.093	4.46
663.125	7.46
663.157	12.46
663.189	4.46
663.221	-0.54
663.254	15.46
663.286	13.46
663.318	-6.54
663.35	-5.54
663.382	-3.54
663.414	-3.54
663.446	5.46
663.478	-4.54
663.51	35.46
663.542	-6.54
663.574	2.46
663.606	8.46
663.638	-0.54
663.67	-12.54
663.702	-3.54
663.734	10.46
663.766	5.46
663.798	-8.54
663.83	11.46
663.862	8.46
663.894	8.46
663.926	-6.54
663.958	14.46
663.99	14.46
664.022	-1.54
664.054	-3.54
664.086	-14.54
664.118	-11.54
664.15	-20.54
664.182	-2.54
664.214	3.46
664.246	12.46
664.278	-12.54
664.31	-7.54
664.342	-7.54
664.374	-9.54
664.406	3.46
664.438	6.46
664.47	5.46
664.502	-8.54
664.534	-5.54
664.566	9.46
664.598	3.46
664.63	-9.54
664.662	-3.54
664.693	-11.54
664.725	-6.54
664.757	-12.54
664.789	-7.54
664.821	6.46
664.853	11.46
664.885	4.46
664.917	-4.54
664.949	14.46
664.981	8.46
665.013	13.46
665.045	-5.54
665.076	-11.54
665.108	4.46
665.14	-0.54
665.172	-6.54
665.204	-15.54
665.236	-4.54
665.268	3.46
665.3	-5.54
665.331	-2.54
665.363	-3.54
665.395	-16.54
665.427	0.46
665.459	8.46
665.491	3.46
665.523	-4.54
665.555	4.46
665.586	7.46
665.618	-10.54
665.65	-3.54
665.682	7.46
665.714	9.46
665.746	-13.54
665.777	-18.54
665.809	4.46
665.841	8.46
665.873	4.46
665.905	3.46
665.937	14.46
665.968	11.46
666	11.46
666.032	-0.54
666.064	-7.54
666.096	-15.54
666.127	11.46
666.159	-2.54
666.191	9.46
666.223	-13.54
666.255	4.46
666.286	-7.54
666.318	-8.54
666.35	-8.54
666.382	1.46
666.413	-6.54
666.445	-17.54
666.477	1.46
666.509	6.46
666.54	-10.54
666.572	-4.54
666.604	15.46
666.636	-7.54
666.667	17.46
666.699	29.46
666.731	-6.54
666.763	-16.54
666.794	0.46
666.826	1.46
666.858	-22.54
666.89	-5.54
666.921	1.46
666.953	5.46
666.985	23.46
667.017	-0.54
667.048	-0.54
667.08	3.46
667.112	-2.54
667.143	-3.54
667.175	-8.54
667.207	7.46
667.238	10.46
667.27	7.46
667.302	2.46
667.334	11.46
667.365	24.46
667.397	11.46
667.429	-9.54
667.46	8.46
667.492	11.46
667.524	-17.54
667.555	-15.54
667.587	-8.54
667.619	-0.54
667.65	-28.54
667.682	-8.54
667.714	16.46
667.745	4.46
667.777	4.46
667.808	7.46
667.84	18.46
667.872	-12.54
667.903	20.46
667.935	0.46
667.967	-2.54
667.998	-8.54
668.03	-7.54
668.061	1.46
668.093	-5.54
668.125	-15.54
668.156	6.46
668.188	6.46
668.22	-0.54
668.251	16.46
668.283	0.46
668.314	14.46
668.346	-9.54
668.377	-3.54
668.409	-20.54
668.441	18.46
668.472	10.46
668.504	20.46
668.535	6.46
668.567	0.46
668.599	-2.54
668.63	7.46
668.662	4.46
668.693	1.46
668.725	10.46
668.756	12.46
668.788	-15.54
668.819	-1.54
668.851	11.46
668.882	-7.54
668.914	6.46
668.946	2.46
668.977	2.46
669.009	9.46
669.04	-22.54
669.072	-10.54
669.103	-6.54
669.135	-10.54
669.166	-1.54
669.198	-5.54
669.229	1.46
669.261	-3.54
669.292	-3.54
669.324	13.46
669.355	-5.54
669.387	-11.54
669.418	-2.54
669.45	-3.54
669.481	2.46
669.513	14.46
669.544	-2.54
669.576	1.46
669.607	10.46
669.639	17.46
669.67	-3.54
669.701	15.46
669.733	2.46
669.764	-6.54
669.796	-16.54
669.827	5.46
669.859	-9.54
669.89	9.46
669.922	6.46
669.953	5.46
669.985	-0.54
670.016	6.46
670.047	10.46
670.079	9.46
670.11	1.46
670.142	-5.54
670.173	-10.54
670.204	-0.54
670.236	-2.54
670.267	-6.54
670.299	6.46
670.33	7.46
670.362	-3.54
670.393	-5.54
670.424	14.46
670.456	-20.54
670.487	-9.54
670.518	0.46
670.55	-0.54
670.581	-9.54
670.613	-9.54
670.644	-20.54
670.675	-2.54
670.707	-0.54
670.738	10.46
670.769	-9.54
670.801	-19.54
670.832	-5.54
670.864	-9.54
670.895	7.46
670.926	-2.54
670.958	-2.54
670.989	-4.54
671.02	-9.54
671.052	4.46
671.083	1.46
671.114	-3.54
671.146	15.46
671.177	-7.54
671.208	-6.54
671.24	-19.54
671.271	-8.54
671.302	-2.54
671.333	7.46
671.365	5.46
671.396	3.46
671.427	0.46
671.459	13.46
671.49	-0.54
671.521	8.46
671.553	-3.54
671.584	12.46
671.615	-11.54
671.646	1.46
671.678	4.46
671.709	-12.54
671.74	-24.54
671.771	-8.54
671.803	6.46
671.834	-8.54
671.865	6.46
671.896	-9.54
671.928	-12.54
671.959	-6.54
671.99	-2.54
672.021	0.46
672.053	-4.54
672.084	-3.54
672.115	8.46
672.146	3.46
672.178	8.46
672.209	-4.54
672.24	4.46
672.271	17.46
672.303	3.46
672.334	1.46
672.365	-1.54
672.396	-3.54
672.427	-7.54
672.459	15.46
672.49	22.46
672.521	7.46
672.552	9.46
672.583	4.46
672.615	4.46
672.646	9.46
672.677	-4.54
672.708	-8.54
672.739	6.46
672.77	18.46
672.802	2.46
672.833	-5.54
672.864	-8.54
672.895	-8.54
672.926	3.46
672.957	-10.54
672.989	0.46
673.02	-3.54
673.051	-23.54
673.082	14.46
673.113	3.46
673.144	9.46
673.175	-2.54
673.206	7.46
673.238	-2.54
673.269	-17.54
673.3	-5.54
673.331	1.46
673.362	-4.54
673.393	-7.54
673.424	-2.54
673.455	19.46
673.487	-7.54
673.518	3.46
673.549	-0.54
673.58	-13.54
673.611	6.46
673.642	3.46
673.673	-7.54
673.704	4.46
673.735	8.46
673.766	5.46
673.797	2.46
673.828	-4.54
673.86	-6.54
673.891	-16.54
673.922	-25.54
673.953	-18.54
673.984	-17.54
674.015	1.46
674.046	1.46
674.077	2.46
674.108	-1.54
674.139	-4.54
674.17	-5.54
674.201	-4.54
674.232	-8.54
674.263	-27.54
674.294	-8.54
674.325	-13.54
674.356	-12.54
674.387	15.46
674.418	-3.54
674.449	-5.54
674.48	-7.54
674.511	0.46
674.542	4.46
674.573	-2.54
674.604	8.46
674.635	-9.54
674.666	1.46
674.697	4.46
674.728	-1.54
674.759	-9.54
674.79	-9.54
674.821	14.46
674.852	-2.54
674.883	-17.54
674.914	-21.54
674.945	3.46
674.976	7.46
675.007	-12.54
675.038	-19.54
675.069	-28.54
675.1	6.46
675.131	-12.54
675.162	-27.54
675.193	0.46
675.224	-5.54
675.254	8.46
675.285	11.46
675.316	33.46
675.347	-2.54
675.378	-12.54
675.409	-25.54
675.44	3.46
675.471	4.46
675.502	-18.54
675.533	1.46
675.564	-2.54
675.595	1.46
675.625	11.46
675.656	15.46
675.687	-10.54
675.718	-5.54
675.749	-11.54
675.78	-1.54
675.811	-9.54
675.842	-15.54
675.873	7.46
675.903	1.46
675.934	-5.54
675.965	-1.54
675.996	-6.54
676.027	14.46
676.058	9.46
676.089	-8.54
676.119	0.46
676.15	10.46
676.181	7.46
676.212	3.46
676.243	24.46
676.274	-12.54
676.304	20.46
676.335	-20.54
676.366	1.46
676.397	-18.54
676.428	-5.54
676.459	3.46
676.489	-3.54
676.52	10.46
676.551	2.46
676.582	2.46
676.613	2.46
676.643	-10.54
676.674	-9.54
676.705	-17.54
676.736	-1.54
676.767	13.46
676.797	4.46
676.828	0.46
676.859	-13.54
676.89	7.46
676.92	4.46
676.951	7.46
676.982	8.46
677.013	-0.54
677.044	25.46
677.074	1.46
677.105	-2.54
677.136	7.46
677.167	-1.54
677.197	-3.54
677.228	5.46
677.259	-24.54
677.289	-11.54
677.32	-11.54
677.351	-6.54
677.382	2.46
677.412	3.46
677.443	-8.54
677.474	-5.54
677.505	-11.54
677.535	-5.54
677.566	-0.54
677.597	-25.54
677.627	-2.54
677.658	-15.54
677.689	-7.54
677.72	-6.54
677.75	0.46
677.781	-8.54
677.812	0.46
677.842	2.46
677.873	6.46
677.904	2.46
677.934	-3.54
677.965	-8.54
677.996	-10.54
678.026	4.46
678.057	12.46
678.088	2.46
678.118	-7.54
678.149	-16.54
678.18	-8.54
678.21	0.46
678.241	7.46
678.272	-7.54
678.302	4.46
678.333	-8.54
678.363	1.46
678.394	2.46
678.425	7.46
678.455	6.46
678.486	8.46
678.517	-0.54
678.547	9.46
678.578	12.46
678.608	1.46
678.639	11.46
678.67	8.46
678.7	22.46
678.731	1.46
678.761	-5.54
678.792	10.46
678.823	1.46
678.853	5.46
678.884	-19.54
678.914	5.46
678.945	9.46
678.975	3.46
679.006	7.46
679.037	-5.54
679.067	18.46
679.098	-0.54
679.128	-0.54
679.159	-14.54
679.189	8.46
679.22	-1.54
679.25	-0.54
679.281	5.46
679.312	-8.54
679.342	2.46
679.373	30.46
679.403	14.46
679.434	27.46
679.464	-8.54
679.495	-1.54
679.525	17.46
679.556	0.46
679.586	-4.54
679.617	10.46
679.647	9.46
679.678	13.46
679.708	2.46
679.739	1.46
679.769	-4.54
679.8	0.46
679.83	6.46
679.861	10.46
679.891	-4.54
679.922	-10.54
679.952	3.46
679.983	0.46
680.013	5.46
680.044	-14.54
680.074	-13.54
680.105	5.46
680.135	5.46
680.165	10.46
680.196	2.46
680.226	4.46
680.257	-8.54
680.287	-9.54
680.318	-5.54
680.348	-11.54
680.379	3.46
680.409	7.46
680.439	-7.54
680.47	-3.54
680.5	-8.54
680.531	3.46
680.561	11.46
680.592	3.46
680.622	14.46
680.652	7.46
680.683	3.46
680.713	-8.54
680.744	-2.54
680.774	-14.54
680.804	17.46
680.835	-10.54
680.865	-8.54
680.896	8.46
680.926	18.46
680.956	7.46
680.987	6.46
681.017	6.46
681.047	2.46
681.078	-10.54
681.108	3.46
681.139	-7.54
681.169	2.46
681.199	-2.54
681.23	-5.54
681.26	15.46
681.29	6.46
681.321	-6.54
681.351	-0.54
681.381	-11.54
681.412	16.46
681.442	-2.54
681.472	4.46
681.503	12.46
681.533	1.46
681.563	-6.54
681.594	-6.54
681.624	11.46
681.654	7.46
681.685	7.46
681.715	-9.54
681.745	8.46
681.775	3.46
681.806	8.46
681.836	-6.54
681.866	-4.54
681.897	-5.54
681.927	-8.54
681.957	-17.54
681.987	-3.54
682.018	1.46
682.048	11.46
682.078	12.46
682.109	21.46
682.139	13.46
682.169	14.46
682.199	-0.54
682.23	-6.54
682.26	8.46
682.29	-0.54
682.32	-2.54
682.351	-2.54
682.381	-0.54
682.411	-17.54
682.441	-3.54
682.472	-9.54
682.502	-1.54
682.532	1.46
682.562	-2.54
682.592	16.46
682.623	8.46
682.653	7.46
682.683	-4.54
682.713	11.46
682.743	-5.54
682.774	-5.54
682.804	0.46
682.834	11.46
682.864	-8.54
682.894	-17.54
682.925	3.46
682.955	-9.54
682.985	-5.54
683.015	0.46
683.045	11.46
683.076	-5.54
683.106	-2.54
683.136	0.46
683.166	-12.54
683.196	-8.54
683.226	1.46
683.257	-3.54
683.287	-8.54
683.317	-8.54
683.347	-1.54
683.377	2.46
683.407	0.46
683.437	7.46
683.468	1.46
683.498	-11.54
683.528	-8.54
683.558	-5.54
683.588	7.46
683.618	-4.54
683.648	-9.54
683.678	-0.54
683.708	10.46
683.739	-0.54
683.769	5.46
683.799	3.46
683.829	-0.54
683.859	2.46
683.889	-1.54
683.919	-20.54
683.949	-3.54
683.979	-13.54
684.009	7.46
684.039	5.46
684.07	-10.54
684.1	17.46
684.13	-1.54
684.16	4.46
684.19	-7.54
684.22	-8.54
684.25	-1.54
684.28	-11.54
684.31	28.46
684.34	2.46
684.37	-0.54
684.4	-4.54
684.43	24.46
684.46	16.46
684.49	0.46
684.52	12.46
684.55	8.46
684.58	5.46
684.61	2.46
684.64	17.46
684.67	10.46
684.7	3.46
684.73	14.46
684.76	-1.54
684.79	22.46
684.82	0.46
684.85	1.46
684.88	7.46
684.91	-6.54
684.94	13.46
684.97	-12.54
685	1.46
685.03	9.46
685.06	1.46
685.09	10.46
685.12	18.46
685.15	-2.54
685.18	7.46
685.21	14.46
685.24	13.46
685.27	12.46
685.3	-2.54
685.33	9.46
685.36	7.46
685.39	10.46
685.42	-3.54
685.45	3.46
685.48	-3.54
685.51	3.46
685.54	14.46
685.569	7.46
685.599	17.46
685.629	7.46
685.659	-9.54
685.689	0.46
685.719	4.46
685.749	4.46
685.779	11.46
685.809	13.46
685.839	14.46
685.869	22.46
685.898	11.46
685.928	13.46
685.958	3.46
685.988	20.46
686.018	-0.54
686.048	-5.54
686.078	26.46
686.108	19.46
686.137	7.46
686.167	15.46
686.197	-5.54
686.227	8.46
686.257	10.46
686.287	17.46
686.317	10.46
686.346	-8.54
686.376	-1.54
686.406	-3.54
686.436	22.46
686.466	-0.54
686.496	6.46
686.525	-0.54
686.555	2.46
686.585	29.46
686.615	31.46
686.645	22.46
686.675	-9.54
686.704	-8.54
686.734	-11.54
686.764	-6.54
686.794	11.46
686.824	5.46
686.853	11.46
686.883	2.46
686.913	6.46
686.943	6.46
686.973	-1.54
687.002	-19.54
687.032	6.46
687.062	6.46
687.092	15.46
687.121	0.46
687.151	11.46
687.181	3.46
687.211	17.46
687.24	-5.54
687.27	-8.54
687.3	-12.54
687.33	5.46
687.359	-6.54
687.389	9.46
687.419	0.46
687.449	-4.54
687.478	8.46
687.508	-12.54
687.538	13.46
687.568	6.46
687.597	-2.54
687.627	19.46
687.657	6.46
687.686	-3.54
687.716	14.46
687.746	-17.54
687.776	4.46
687.805	15.46
687.835	0.46
687.865	24.46
687.894	8.46
687.924	3.46
687.954	7.46
687.983	-0.54
688.013	14.46
688.043	9.46
688.072	8.46
688.102	17.46
688.132	5.46
688.161	10.46
688.191	5.46
688.221	11.46
688.25	2.46
688.28	9.46
688.31	5.46
688.339	3.46
688.369	-7.54
688.399	-1.54
688.428	-9.54
688.458	4.46
688.488	0.46
688.517	4.46
688.547	-13.54
688.576	22.46
688.606	4.46
688.636	-8.54
688.665	1.46
688.695	-6.54
688.725	21.46
688.754	12.46
688.784	5.46
688.813	14.46
688.843	16.46
688.873	5.46
688.902	-1.54
688.932	-8.54
688.961	3.46
688.991	8.46
689.02	10.46
689.05	-17.54
689.08	3.46
689.109	8.46
689.139	7.46
689.168	5.46
689.198	7.46
689.227	-13.54
689.257	11.46
689.287	0.46
689.316	3.46
689.346	-11.54
689.375	-9.54
689.405	3.46
689.434	4.46
689.464	10.46
689.493	3.46
689.523	0.46
689.552	-3.54
689.582	-4.54
689.611	2.46
689.641	21.46
689.67	6.46
689.7	6.46
689.73	7.46
689.759	-0.54
689.789	16.46
689.818	-3.54
689.848	9.46
689.877	25.46
689.906	1.46
689.936	-9.54
689.965	21.46
689.995	8.46
690.024	12.46
690.054	-1.54
690.083	7.46
690.113	-1.54
690.142	3.46
690.172	9.46
690.201	7.46
690.231	-4.54
690.26	0.46
690.29	4.46
690.319	19.46
690.348	5.46
690.378	-3.54
690.407	0.46
690.437	16.46
690.466	6.46
690.496	-4.54
690.525	13.46
690.555	-11.54
690.584	3.46
690.613	-1.54
690.643	0.46
690.672	6.46
690.702	7.46
690.731	1.46
690.76	-4.54
690.79	-1.54
690.819	-8.54
690.849	-2.54
690.878	-5.54
690.907	1.46
690.937	5.46
690.966	7.46
690.996	6.46
691.025	-1.54
691.054	-4.54
691.084	-4.54
691.113	1.46
691.142	5.46
691.172	-8.54
691.201	3.46
691.23	-8.54
691.26	4.46
691.289	26.46
691.319	19.46
691.348	-15.54
691.377	25.46
691.407	2.46
691.436	11.46
691.465	-1.54
691.495	6.46
691.524	-6.54
691.553	0.46
691.583	-2.54
691.612	-2.54
691.641	3.46
691.67	1.46
691.7	-10.54
691.729	-12.54
691.758	8.46
691.788	-1.54
691.817	11.46
691.846	2.46
691.876	5.46
691.905	5.46
691.934	-12.54
691.963	9.46
691.993	14.46
692.022	6.46
692.051	-11.54
692.081	3.46
692.11	17.46
692.139	20.46
692.168	16.46
692.198	-1.54
692.227	2.46
692.256	6.46
692.285	7.46
692.315	-4.54
692.344	-2.54
692.373	4.46
692.402	-13.54
692.432	-7.54
692.461	-4.54
692.49	-11.54
692.519	-2.54
692.548	8.46
692.578	26.46
692.607	-6.54
692.636	-23.54
692.665	13.46
692.694	10.46
692.724	6.46
692.753	4.46
692.782	20.46
692.811	2.46
692.84	5.46
692.87	24.46
692.899	-3.54
692.928	6.46
692.957	13.46
692.986	21.46
693.016	9.46
693.045	13.46
693.074	8.46
693.103	-1.54
693.132	-0.54
693.161	16.46
693.191	-8.54
693.22	5.46
693.249	5.46
693.278	9.46
693.307	13.46
693.336	-4.54
693.365	-12.54
693.395	-1.54
693.424	11.46
693.453	17.46
693.482	-6.54
693.511	10.46
693.54	16.46
693.569	9.46
693.598	1.46
693.628	5.46
693.657	11.46
693.686	9.46
693.715	12.46
693.744	25.46
693.773	32.46
693.802	13.46
693.831	11.46
693.86	3.46
693.889	-5.54
693.919	-0.54
693.948	0.46
693.977	8.46
694.006	-2.54
694.035	-7.54
694.064	0.46
694.093	10.46
694.122	6.46
694.151	5.46
694.18	27.46
694.209	17.46
694.238	6.46
694.267	12.46
694.296	6.46
694.325	11.46
694.354	6.46
694.383	2.46
694.412	1.46
694.441	-6.54
694.471	-18.54
694.5	-5.54
694.529	1.46
694.558	22.46
694.587	18.46
694.616	8.46
694.645	-0.54
694.674	2.46
694.703	17.46
694.732	7.46
694.761	19.46
694.79	15.46
694.819	-7.54
694.848	-1.54
694.877	28.46
694.906	17.46
694.935	-7.54
694.963	16.46
694.992	14.46
695.021	0.46
695.05	5.46
695.079	17.46
695.108	4.46
695.137	15.46
695.166	13.46
695.195	-12.54
695.224	9.46
695.253	4.46
695.282	5.46
695.311	11.46
695.34	2.46
695.369	14.46
695.398	-4.54
695.427	23.46
695.456	-5.54
695.485	6.46
695.513	0.46
695.542	-3.54
695.571	7.46
695.6	13.46
695.629	19.46
695.658	8.46
695.687	-2.54
695.716	14.46
695.745	14.46
695.774	0.46
695.802	-4.54
695.831	2.46
695.86	8.46
695.889	7.46
695.918	2.46
695.947	-4.54
695.976	3.46
696.005	1.46
696.033	18.46
696.062	10.46
696.091	-5.54
696.12	4.46
696.149	9.46
696.178	-5.54
696.207	7.46
696.235	-15.54
696.264	-4.54
696.293	1.46
696.322	6.46
696.351	19.46
696.38	-1.54
696.408	2.46
696.437	-1.54
696.466	0.46
696.495	3.46
696.524	0.46
696.553	14.46
696.581	-3.54
696.61	-1.54
696.639	-6.54
696.668	10.46
696.697	15.46
696.725	9.46
696.754	14.46
696.783	-4.54
696.812	-9.54
696.84	14.46
696.869	2.46
696.898	1.46
696.927	-2.54
696.956	24.46
696.984	12.46
697.013	4.46
697.042	6.46
697.071	3.46
697.099	24.46
697.128	7.46
697.157	4.46
697.186	-16.54
697.214	-14.54
697.243	0.46
697.272	10.46
697.301	-0.54
697.329	2.46
697.358	11.46
697.387	30.46
697.415	14.46
697.444	7.46
697.473	-2.54
697.502	3.46
697.53	4.46
697.559	7.46
697.588	1.46
697.616	-7.54
697.645	-4.54
697.674	3.46
697.703	5.46
697.731	18.46
697.76	-1.54
697.789	0.46
697.817	1.46
697.846	30.46
697.875	5.46
697.903	10.46
697.932	4.46
697.961	8.46
697.989	6.46
698.018	-2.54
698.047	6.46
698.075	11.46
698.104	4.46
698.133	0.46
698.161	-5.54
698.19	3.46
698.218	-0.54
698.247	3.46
698.276	5.46
698.304	15.46
698.333	11.46
698.362	3.46
698.39	6.46
698.419	7.46
698.447	-2.54
698.476	3.46
698.505	4.46
698.533	1.46
698.562	10.46
698.591	-3.54
698.619	-11.54
698.648	7.46
698.676	0.46
698.705	4.46
698.733	0.46
698.762	-10.54
698.791	3.46
698.819	-4.54
698.848	-5.54
698.876	24.46
698.905	8.46
698.933	12.46
698.962	0.46
698.991	4.46
699.019	21.46
699.048	2.46
699.076	1.46
699.105	6.46
699.133	1.46
699.162	7.46
699.19	17.46
699.219	-3.54
699.248	-0.54
699.276	2.46
699.305	-1.54
699.333	11.46
699.362	-2.54
699.39	15.46
699.419	-4.54
699.447	8.46
699.476	16.46
699.504	7.46
699.533	9.46
699.561	1.46
699.59	9.46
699.618	-3.54
699.647	8.46
699.675	5.46
699.704	12.46
699.732	4.46
699.761	-1.54
699.789	-8.54
699.818	19.46
699.846	2.46
699.874	0.46
699.903	2.46
699.931	-8.54
699.96	4.46
699.988	10.46
700.017	-5.54
700.045	-2.54
700.074	-12.54
700.102	-0.54
700.13	-0.54
700.159	11.46
700.187	23.46
700.216	7.46
700.244	-14.54
700.273	-8.54
700.301	-10.54
700.329	5.46
700.358	-3.54
700.386	-9.54
700.415	17.46
700.443	26.46
700.472	5.46
700.5	7.46
700.528	2.46
700.557	9.46
700.585	5.46
700.614	-3.54
700.642	11.46
700.67	2.46
700.699	28.46
700.727	7.46
700.755	2.46
700.784	19.46
700.812	3.46
700.841	5.46
700.869	4.46
700.897	-21.54
700.926	-11.54
700.954	8.46
700.982	-0.54
701.011	5.46
701.039	7.46
701.067	-16.54
701.096	3.46
701.124	-4.54
701.152	-1.54
701.181	-3.54
701.209	-18.54
701.237	1.46
701.266	-15.54
701.294	-2.54
701.322	2.46
701.351	10.46
701.379	5.46
701.407	-7.54
701.435	6.46
701.464	5.46
701.492	10.46
701.52	-17.54
701.549	0.46
701.577	-7.54
701.605	6.46
701.634	7.46
701.662	12.46
701.69	-9.54
701.718	5.46
701.747	21.46
701.775	3.46
701.803	-2.54
701.831	19.46
701.86	0.46
701.888	11.46
701.916	-5.54
701.944	9.46
701.973	-8.54
702.001	-16.54
702.029	-13.54
702.057	-4.54
702.086	-0.54
702.114	-12.54
702.142	-10.54
702.17	-0.54
702.199	-0.54
702.227	-4.54
702.255	-0.54
702.283	-11.54
702.311	10.46
702.34	-13.54
702.368	-12.54
702.396	-20.54
702.424	-9.54
702.452	-0.54
702.481	-0.54
702.509	3.46
702.537	-11.54
702.565	3.46
702.593	-7.54
702.621	-5.54
702.65	16.46
702.678	16.46
702.706	5.46
702.734	3.46
702.762	16.46
702.79	15.46
702.819	4.46
702.847	4.46
702.875	22.46
702.903	5.46
702.931	-7.54
702.959	7.46
702.988	-1.54
703.016	-12.54
703.044	5.46
703.072	-7.54
703.1	-6.54
703.128	-4.54
703.156	6.46
703.184	-10.54
703.212	9.46
703.241	8.46
703.269	4.46
703.297	-1.54
703.325	2.46
703.353	-3.54
703.381	-19.54
703.409	-1.54
703.437	-1.54
703.465	-16.54
703.493	2.46
703.522	9.46
703.55	10.46
703.578	3.46
703.606	-8.54
703.634	-1.54
703.662	-3.54
703.69	-11.54
703.718	11.46
703.746	16.46
703.774	-2.54
703.802	10.46
703.83	11.46
703.858	0.46
703.886	-3.54
703.914	1.46
703.942	10.46
703.97	-4.54
703.998	-1.54
704.027	26.46
704.055	11.46
704.083	9.46
704.111	15.46
704.139	8.46
704.167	-16.54
704.195	6.46
704.223	-6.54
704.251	5.46
704.279	14.46
704.307	15.46
704.335	-9.54
704.363	10.46
704.391	-1.54
704.419	8.46
704.447	0.46
704.475	-0.54
704.503	-4.54
704.531	17.46
704.558	8.46
704.586	-2.54
704.614	-1.54
704.642	10.46
704.67	-21.54
704.698	-2.54
704.726	6.46
704.754	2.46
704.782	-7.54
704.81	-12.54
704.838	17.46
704.866	2.46
704.894	-0.54
704.922	-0.54
704.95	14.46
704.978	9.46
705.006	14.46
705.034	17.46
705.061	-16.54
705.089	-7.54
705.117	-32.54
705.145	-9.54
705.173	2.46
705.201	6.46
705.229	11.46
705.257	17.46
705.285	28.46
705.313	17.46
705.34	-3.54
705.368	-10.54
705.396	7.46
705.424	1.46
705.452	-7.54
705.48	5.46
705.508	-4.54
705.536	-15.54
705.563	-10.54
705.591	-3.54
705.619	2.46
705.647	-15.54
705.675	-18.54
705.703	6.46
705.731	-8.54
705.758	0.46
705.786	2.46
705.814	19.46
705.842	14.46
705.87	11.46
705.898	8.46
705.925	-12.54
705.953	3.46
705.981	2.46
706.009	9.46
706.037	12.46
706.065	6.46
706.092	-1.54
706.12	2.46
706.148	2.46
706.176	-5.54
706.204	11.46
706.231	-6.54
706.259	-17.54
706.287	-14.54
706.315	3.46
706.342	14.46
706.37	11.46
706.398	-3.54
706.426	3.46
706.454	-8.54
706.481	14.46
706.509	2.46
706.537	-7.54
706.565	-7.54
706.592	0.46
706.62	0.46
706.648	-8.54
706.676	-10.54
706.703	5.46
706.731	6.46
706.759	5.46
706.787	2.46
706.814	4.46
706.842	11.46
706.87	2.46
706.897	6.46
706.925	6.46
706.953	-0.54
706.981	15.46
707.008	14.46
707.036	-2.54
707.064	-9.54
707.091	-31.54
707.119	19.46
707.147	2.46
707.174	-7.54
707.202	14.46
707.23	-12.54
707.258	12.46
707.285	-3.54
707.313	-20.54
707.341	-25.54
707.368	-4.54
707.396	6.46
707.424	4.46
707.451	-7.54
707.479	-2.54
707.507	-2.54
707.534	-0.54
707.562	14.46
707.59	-1.54
707.617	3.46
707.645	-13.54
707.672	4.46
707.7	-2.54
707.728	11.46
707.755	9.46
707.783	10.46
707.811	11.46
707.838	10.46
707.866	10.46
707.893	-1.54
707.921	-3.54
707.949	-2.54
707.976	8.46
708.004	5.46
708.031	-1.54
708.059	-7.54
708.087	4.46
708.114	1.46
708.142	3.46
708.169	3.46
708.197	-20.54
708.225	-11.54
708.252	-8.54
708.28	1.46
708.307	-7.54
708.335	-14.54
708.362	-11.54
708.39	-8.54
708.418	4.46
708.445	-7.54
708.473	-6.54
708.5	-16.54
708.528	-4.54
708.555	6.46
708.583	7.46
708.61	0.46
708.638	-11.54
708.665	-7.54
708.693	-3.54
708.72	-11.54
708.748	-22.54
708.776	-7.54
708.803	10.46
708.831	19.46
708.858	12.46
708.886	-3.54
708.913	4.46
708.941	4.46
708.968	2.46
708.996	-13.54
709.023	21.46
709.051	-5.54
709.078	-1.54
709.105	-3.54
709.133	9.46
709.16	2.46
709.188	4.46
709.215	8.46
709.243	-2.54
709.27	-11.54
709.298	-10.54
709.325	-2.54
709.353	-7.54
709.38	-18.54
709.408	3.46
709.435	1.46
709.462	7.46
709.49	7.46
709.517	-4.54
709.545	10.46
709.572	5.46
709.6	-14.54
709.627	-1.54
709.655	-3.54
709.682	-3.54
709.709	8.46
709.737	8.46
709.764	-21.54
709.792	21.46
709.819	7.46
709.846	-2.54
709.874	3.46
709.901	20.46
709.929	28.46
709.956	1.46
709.983	-4.54
710.011	-4.54
710.038	-14.54
710.066	3.46
710.093	17.46
710.12	7.46
710.148	-9.54
710.175	-18.54
710.202	-22.54
710.23	-0.54
710.257	-2.54
710.284	11.46
710.312	11.46
710.339	-2.54
710.366	0.46
710.394	-7.54
710.421	2.46
710.448	7.46
710.476	-20.54
710.503	13.46
710.53	16.46
710.558	13.46
710.585	20.46
710.612	-10.54
710.64	0.46
710.667	2.46
710.694	-0.54
710.722	0.46
710.749	6.46
710.776	-4.54
710.804	17.46
710.831	-0.54
710.858	6.46
710.885	17.46
710.913	11.46
710.94	10.46
710.967	12.46
710.995	12.46
711.022	3.46
711.049	12.46
711.076	-2.54
711.104	-7.54
711.131	-9.54
711.158	16.46
711.185	0.46
711.213	-8.54
711.24	-21.54
711.267	3.46
711.294	5.46
711.322	12.46
711.349	2.46
711.376	-7.54
711.403	6.46
711.431	9.46
711.458	7.46
711.485	4.46
711.512	-0.54
711.54	0.46
711.567	-0.54
711.594	-6.54
711.621	-14.54
711.648	11.46
711.676	8.46
711.703	-8.54
711.73	-13.54
711.757	4.46
711.784	-4.54
711.812	4.46
711.839	-1.54
711.866	2.46
711.893	-8.54
711.92	-2.54
711.947	-0.54
711.975	-6.54
712.002	9.46
712.029	-1.54
712.056	0.46
712.083	16.46
712.11	-10.54
712.138	11.46
712.165	1.46
712.192	-1.54
712.219	-8.54
712.246	3.46
712.273	-13.54
712.3	-10.54
712.328	8.46
712.355	-9.54
712.382	-1.54
712.409	12.46
712.436	-6.54
712.463	8.46
712.49	10.46
712.517	5.46
712.544	-9.54
712.572	5.46
712.599	-16.54
712.626	3.46
712.653	6.46
712.68	-2.54
712.707	2.46
712.734	12.46
712.761	-10.54
712.788	12.46
712.815	-9.54
712.842	-8.54
712.87	-3.54
712.897	-5.54
712.924	10.46
712.951	11.46
712.978	8.46
713.005	7.46
713.032	11.46
713.059	-6.54
713.086	7.46
713.113	0.46
713.14	5.46
713.167	-0.54
713.194	12.46
713.221	25.46
713.248	10.46
713.275	7.46
713.302	8.46
713.329	4.46
713.356	4.46
713.383	11.46
713.41	11.46
713.437	-4.54
713.464	-1.54
713.491	4.46
713.518	-0.54
713.545	-20.54
713.572	-3.54
713.599	6.46
713.626	1.46
713.653	7.46
713.68	-1.54
713.707	3.46
713.734	11.46
713.761	-6.54
713.788	-9.54
713.815	16.46
713.842	2.46
713.869	8.46
713.896	9.46
713.923	-0.54
713.95	9.46
713.977	10.46
714.004	0.46
714.031	-2.54
714.058	-6.54
714.085	6.46
714.112	9.46
714.139	7.46
714.165	4.46
714.192	-10.54
714.219	3.46
714.246	2.46
714.273	2.46
714.3	-3.54
714.327	3.46
714.354	0.46
714.381	3.46
714.408	-9.54
714.435	-2.54
714.461	-4.54
714.488	-1.54
714.515	1.46
714.542	-11.54
714.569	0.46
714.596	-15.54
714.623	12.46
714.65	-8.54
714.677	-5.54
714.703	-7.54
714.73	2.46
714.757	9.46
714.784	0.46
714.811	-13.54
714.838	8.46
714.865	-4.54
714.891	13.46
714.918	1.46
714.945	-2.54
714.972	-1.54
714.999	5.46
715.026	-13.54
715.052	-4.54
715.079	11.46
715.106	-5.54
715.133	-8.54
715.16	-14.54
715.187	-1.54
715.213	5.46
715.24	2.46
715.267	-7.54
715.294	1.46
715.321	-12.54
715.347	0.46
715.374	2.46
715.401	-4.54
715.428	-16.54
715.455	3.46
715.481	-19.54
715.508	3.46
715.535	14.46
715.562	28.46
715.588	-4.54
715.615	14.46
715.642	3.46
715.669	4.46
715.695	-11.54
715.722	-4.54
715.749	3.46
715.776	13.46
715.802	1.46
715.829	3.46
715.856	-3.54
715.883	11.46
715.909	1.46
715.936	6.46
715.963	7.46
715.99	-10.54
716.016	5.46
716.043	-3.54
716.07	-1.54
716.096	-6.54
716.123	-3.54
716.15	-0.54
716.177	-3.54
716.203	-2.54
716.23	14.46
716.257	4.46
716.283	6.46
716.31	3.46
716.337	-5.54
716.363	-6.54
716.39	0.46
716.417	4.46
716.443	-2.54
716.47	1.46
716.497	6.46
716.523	8.46
716.55	7.46
716.577	23.46
716.603	1.46
716.63	8.46
716.657	9.46
716.683	-4.54
716.71	3.46
716.737	1.46
716.763	-0.54
716.79	-7.54
716.817	18.46
716.843	2.46
716.87	-6.54
716.897	-13.54
716.923	20.46
716.95	-4.54
716.976	-2.54
717.003	-0.54
717.03	15.46
717.056	12.46
717.083	-3.54
717.109	5.46
717.136	2.46
717.163	-7.54
717.189	3.46
717.216	-0.54
717.242	11.46
717.269	7.46
717.296	-1.54
717.322	-3.54
717.349	2.46
717.375	13.46
717.402	-3.54
717.428	-12.54
717.455	7.46
717.481	-4.54
717.508	1.46
717.535	4.46
717.561	-0.54
717.588	-7.54
717.614	0.46
717.641	16.46
717.667	22.46
717.694	6.46
717.72	-17.54
717.747	8.46
717.773	-8.54
717.8	13.46
717.826	8.46
717.853	-3.54
717.88	0.46
717.906	-8.54
717.933	-1.54
717.959	7.46
717.986	1.46
718.012	-5.54
718.039	13.46
718.065	15.46
718.092	14.46
718.118	-12.54
718.144	-7.54
718.171	5.46
718.197	21.46
718.224	4.46
718.25	8.46
718.277	3.46
718.303	-4.54
718.33	-0.54
718.356	-0.54
718.383	-0.54
718.409	10.46
718.436	5.46
718.462	-3.54
718.489	-2.54
718.515	6.46
718.541	18.46
718.568	4.46
718.594	8.46
718.621	13.46
718.647	-4.54
718.674	8.46
718.7	2.46
718.726	-5.54
718.753	2.46
718.779	9.46
718.806	8.46
718.832	-6.54
718.858	-2.54
718.885	-2.54
718.911	-1.54
718.938	7.46
718.964	-5.54
718.99	2.46
719.017	3.46
719.043	-1.54
719.07	8.46
719.096	-5.54
719.122	8.46
719.149	-12.54
719.175	2.46
719.201	3.46
719.228	0.46
719.254	-12.54
719.281	-9.54
719.307	-6.54
719.333	0.46
719.36	13.46
719.386	-12.54
719.412	4.46
719.439	-25.54
719.465	-2.54
719.491	-10.54
719.518	6.46
719.544	-4.54
719.57	12.46
719.597	10.46
719.623	-4.54
719.649	-3.54
719.675	-12.54
719.702	0.46
719.728	8.46
719.754	1.46
719.781	3.46
719.807	-6.54
719.833	-3.54
719.86	3.46
719.886	-0.54
719.912	11.46
719.938	0.46
719.965	4.46
719.991	8.46
720.017	-0.54
720.044	-13.54
720.07	12.46
720.096	6.46
720.122	-5.54
720.149	-0.54
720.175	18.46
720.201	17.46
720.227	-4.54
720.254	2.46
720.28	4.46
720.306	1.46
720.332	9.46
720.359	-5.54
720.385	6.46
720.411	3.46
720.437	25.46
720.463	6.46
720.49	3.46
720.516	-0.54
720.542	1.46
720.568	6.46
720.595	0.46
720.621	0.46
720.647	6.46
720.673	6.46
720.699	1.46
720.725	8.46
720.752	10.46
720.778	11.46
720.804	4.46
720.83	8.46
720.856	-1.54
720.883	-5.54
720.909	-0.54
720.935	4.46
720.961	13.46
720.987	6.46
721.013	6.46
721.04	2.46
721.066	-1.54
721.092	-6.54
721.118	16.46
721.144	12.46
721.17	-0.54
721.196	3.46
721.223	12.46
721.249	-0.54
721.275	12.46
721.301	-0.54
721.327	4.46
721.353	9.46
721.379	-6.54
721.405	-3.54
721.432	-14.54
721.458	1.46
721.484	6.46
721.51	2.46
721.536	2.46
721.562	-2.54
721.588	6.46
721.614	0.46
721.64	6.46
721.666	-4.54
721.693	-5.54
721.719	-17.54
721.745	-13.54
721.771	-5.54
721.797	3.46
721.823	4.46
721.849	7.46
721.875	-3.54
721.901	3.46
721.927	7.46
721.953	10.46
721.979	17.46
722.005	4.46
722.031	-3.54
722.057	9.46
722.083	5.46
722.109	10.46
722.135	17.46
722.161	6.46
722.187	4.46
722.214	-16.54
722.24	-4.54
722.266	-6.54
722.292	7.46
722.318	6.46
722.344	-3.54
722.37	17.46
722.396	0.46
722.422	4.46
722.448	-4.54
722.474	-1.54
722.5	4.46
722.526	6.46
722.552	4.46
722.578	-2.54
722.603	-5.54
722.629	1.46
722.655	-5.54
722.681	1.46
722.707	-2.54
722.733	-3.54
722.759	-7.54
722.785	7.46
722.811	4.46
722.837	2.46
722.863	3.46
722.889	0.46
722.915	2.46
722.941	3.46
722.967	4.46
722.993	4.46
723.019	-3.54
723.045	13.46
723.071	3.46
723.097	4.46
723.122	4.46
723.148	-12.54
723.174	6.46
723.2	12.46
723.226	-0.54
723.252	5.46
723.278	3.46
723.304	-2.54
723.33	-5.54
723.356	-7.54
723.381	-8.54
723.407	0.46
723.433	3.46
723.459	-19.54
723.485	-3.54
723.511	-6.54
723.537	-3.54
723.563	-19.54
723.588	1.46
723.614	9.46
723.64	0.46
723.666	-1.54
723.692	13.46
723.718	11.46
723.744	3.46
723.769	3.46
723.795	-13.54
723.821	2.46
723.847	0.46
723.873	1.46
723.899	-5.54
723.924	-3.54
723.95	3.46
723.976	-20.54
724.002	6.46
724.028	5.46
724.053	-20.54
724.079	-9.54
724.105	-4.54
724.131	11.46
724.157	3.46
724.182	-3.54
724.208	-7.54
724.234	-2.54
724.26	7.46
724.286	0.46
724.311	3.46
724.337	5.46
724.363	-6.54
724.389	5.46
724.415	-7.54
724.44	42.46
724.466	-6.54
724.492	-2.54
724.518	8.46
724.543	-0.54
724.569	-2.54
724.595	4.46
724.621	-9.54
724.646	-3.54
724.672	-7.54
724.698	-0.54
724.723	-3.54
724.749	-2.54
724.775	-1.54
724.801	-0.54
724.826	-8.54
724.852	11.46
724.878	-17.54
724.904	-18.54
724.929	2.46
724.955	-6.54
724.981	6.46
725.006	4.46
725.032	2.46
725.058	12.46
725.083	-5.54
725.109	6.46
725.135	-6.54
725.161	5.46
725.186	-2.54
725.212	-12.54
725.238	6.46
725.263	-2.54
725.289	-7.54
725.315	-4.54
725.34	-11.54
725.366	11.46
725.392	10.46
725.417	10.46
725.443	19.46
725.468	23.46
725.494	4.46
725.52	6.46
725.545	3.46
725.571	-11.54
725.597	-2.54
725.622	-5.54
725.648	-1.54
725.674	4.46
725.699	-19.54
725.725	0.46
725.75	40.46
725.776	11.46
725.802	11.46
725.827	5.46
725.853	2.46
725.878	-0.54
725.904	-2.54
725.93	7.46
725.955	-4.54
725.981	-0.54
726.006	9.46
726.032	6.46
726.057	-5.54
726.083	-3.54
726.109	8.46
726.134	-4.54
726.16	-3.54
726.185	0.46
726.211	-5.54
726.236	17.46
726.262	6.46
726.288	17.46
726.313	10.46
726.339	0.46
726.364	10.46
726.39	9.46
726.415	-4.54
726.441	3.46
726.466	-12.54
726.492	6.46
726.517	7.46
726.543	1.46
726.568	-4.54
726.594	14.46
726.619	16.46
726.645	16.46
726.67	-4.54
726.696	3.46
726.721	17.46
726.747	4.46
726.772	-2.54
726.798	-1.54
726.823	2.46
726.849	-1.54
726.874	10.46
726.9	19.46
726.925	-4.54
726.951	-0.54
726.976	12.46
727.002	-0.54
727.027	-21.54
727.053	-0.54
727.078	5.46
727.104	5.46
727.129	-8.54
727.155	-0.54
727.18	16.46
727.205	-0.54
727.231	10.46
727.256	9.46
727.282	-5.54
727.307	-2.54
727.333	5.46
727.358	5.46
727.383	-7.54
727.409	-9.54
727.434	20.46
727.46	2.46
727.485	-3.54
727.511	-3.54
727.536	-6.54
727.561	-3.54
727.587	9.46
727.612	-6.54
727.637	7.46
727.663	-3.54
727.688	10.46
727.714	4.46
727.739	0.46
727.764	-3.54
727.79	22.46
727.815	-3.54
727.841	8.46
727.866	13.46
727.891	-6.54
727.917	-11.54
727.942	-4.54
727.967	-1.54
727.993	-10.54
728.018	-6.54
728.043	12.46
728.069	19.46
728.094	8.46
728.119	1.46
728.145	5.46
728.17	-4.54
728.195	-1.54
728.221	-3.54
728.246	2.46
728.271	-1.54
728.297	-1.54
728.322	-0.54
728.347	0.46
728.373	-4.54
728.398	-1.54
728.423	-6.54
728.448	10.46
728.474	-3.54
728.499	6.46
728.524	9.46
728.55	-8.54
728.575	-17.54
728.6	-1.54
728.625	12.46
728.651	-1.54
728.676	-2.54
728.701	-4.54
728.727	-8.54
728.752	-6.54
728.777	-11.54
728.802	-7.54
728.828	-0.54
728.853	1.46
728.878	-2.54
728.903	4.46
728.929	-3.54
728.954	3.46
728.979	18.46
729.004	0.46
729.03	9.46
729.055	20.46
729.08	1.46
729.105	-1.54
729.13	19.46
729.156	14.46
729.181	4.46
729.206	-5.54
729.231	3.46
729.256	11.46
729.282	4.46
729.307	-0.54
729.332	-7.54
729.357	-7.54
729.382	-11.54
729.408	6.46
729.433	0.46
729.458	2.46
729.483	14.46
729.508	16.46
729.533	-1.54
729.559	7.46
729.584	-19.54
729.609	2.46
729.634	-0.54
729.659	-0.54
729.684	0.46
729.71	19.46
729.735	-8.54
729.76	2.46
729.785	-0.54
729.81	10.46
729.835	-4.54
729.86	-2.54
729.886	5.46
729.911	19.46
729.936	2.46
729.961	14.46
729.986	7.46
730.011	-2.54
730.036	-0.54
730.061	-3.54
730.086	-4.54
730.112	1.46
730.137	13.46
730.162	6.46
730.187	0.46
730.212	-1.54
730.237	-5.54
730.262	-3.54
730.287	-13.54
730.312	-2.54
730.337	-8.54
730.362	24.46
730.387	19.46
730.413	-7.54
730.438	-12.54
730.463	3.46
730.488	-9.54
730.513	6.46
730.538	1.46
730.563	10.46
730.588	11.46
730.613	19.46
730.638	3.46
730.663	-0.54
730.688	9.46
730.713	-2.54
730.738	-6.54
730.763	1.46
730.788	-1.54
730.813	2.46
730.838	-4.54
730.863	5.46
730.888	7.46
730.913	-13.54
730.938	-12.54
730.963	-4.54
730.988	5.46
731.013	10.46
731.038	-1.54
731.063	-16.54
731.088	0.46
731.113	4.46
731.138	-4.54
731.163	-8.54
731.188	-7.54
731.213	19.46
731.238	2.46
731.263	2.46
731.288	-5.54
731.313	18.46
731.338	8.46
731.363	16.46
731.388	2.46
731.413	5.46
731.438	6.46
731.463	5.46
731.487	0.46
731.512	-0.54
731.537	-6.54
731.562	-1.54
731.587	-15.54
731.612	-0.54
731.637	-1.54
731.662	0.46
731.687	-3.54
731.712	0.46
731.737	7.46
731.762	6.46
731.786	14.46
731.811	13.46
731.836	1.46
731.861	2.46
731.886	-2.54
731.911	4.46
731.936	25.46
731.961	4.46
731.986	-4.54
732.01	13.46
732.035	14.46
732.06	21.46
732.085	8.46
732.11	9.46
732.135	3.46
732.16	6.46
732.184	5.46
732.209	-3.54
732.234	7.46
732.259	3.46
732.284	1.46
732.309	-0.54
732.334	4.46
732.358	-5.54
732.383	-5.54
732.408	8.46
732.433	-3.54
732.458	1.46
732.482	3.46
732.507	4.46
732.532	-8.54
732.557	12.46
732.582	10.46
732.607	8.46
732.631	-15.54
732.656	-26.54
732.681	-2.54
732.706	4.46
732.73	7.46
732.755	14.46
732.78	-6.54
732.805	-4.54
732.83	-5.54
732.854	10.46
732.879	14.46
732.904	-0.54
732.929	5.46
732.953	11.46
732.978	6.46
733.003	-3.54
733.028	-12.54
733.052	8.46
733.077	2.46
733.102	10.46
733.127	0.46
733.151	7.46
733.176	4.46
733.201	4.46
733.226	-11.54
733.25	0.46
733.275	5.46
733.3	7.46
733.324	21.46
733.349	2.46
733.374	8.46
733.399	-2.54
733.423	-1.54
733.448	8.46
733.473	3.46
733.497	-8.54
733.522	2.46
733.547	16.46
733.571	19.46
733.596	11.46
733.621	8.46
733.646	-2.54
733.67	11.46
733.695	-0.54
733.72	4.46
733.744	8.46
733.769	13.46
733.794	13.46
733.818	9.46
733.843	7.46
733.867	-4.54
733.892	-9.54
733.917	1.46
733.941	-4.54
733.966	2.46
733.991	-2.54
734.015	17.46
734.04	3.46
734.065	4.46
734.089	31.46
734.114	10.46
734.138	7.46
734.163	-0.54
734.188	8.46
734.212	13.46
734.237	5.46
734.261	18.46
734.286	-1.54
734.311	-5.54
734.335	-4.54
734.36	-4.54
734.384	6.46
734.409	-1.54
734.434	-10.54
734.458	-2.54
734.483	-3.54
734.507	-4.54
734.532	10.46
734.556	6.46
734.581	-7.54
734.606	-4.54
734.63	-2.54
734.655	5.46
734.679	13.46
734.704	-12.54
734.728	1.46
734.753	-2.54
734.777	12.46
734.802	5.46
734.826	3.46
734.851	8.46
734.876	14.46
734.9	13.46
734.925	6.46
734.949	27.46
734.974	12.46
734.998	8.46
735.023	-0.54
735.047	-10.54
735.072	23.46
735.096	17.46
735.121	2.46
735.145	0.46
735.17	27.46
735.194	17.46
735.219	-1.54
735.243	16.46
735.268	9.46
735.292	10.46
735.317	-1.54
735.341	15.46
735.365	-3.54
735.39	19.46
735.414	3.46
735.439	6.46
735.463	-5.54
735.488	3.46
735.512	-0.54
735.537	5.46
735.561	3.46
735.586	-2.54
735.61	13.46
735.634	-2.54
735.659	6.46
735.683	15.46
735.708	-10.54
735.732	-5.54
735.757	-8.54
735.781	15.46
735.805	9.46
735.83	-3.54
735.854	-1.54
735.879	1.46
735.903	8.46
735.927	2.46
735.952	-2.54
735.976	6.46
736.001	-0.54
736.025	11.46
736.049	-1.54
736.074	0.46
736.098	10.46
736.123	12.46
736.147	-6.54
736.171	1.46
736.196	0.46
736.22	-12.54
736.244	9.46
736.269	5.46
736.293	6.46
736.317	8.46
736.342	-1.54
736.366	9.46
736.39	13.46
736.415	10.46
736.439	-6.54
736.463	-4.54
736.488	3.46
736.512	6.46
736.536	14.46
736.561	16.46
736.585	-4.54
736.609	10.46
736.634	-14.54
736.658	-1.54
736.682	-6.54
736.707	-12.54
736.731	-12.54
736.755	7.46
736.78	30.46
736.804	4.46
736.828	21.46
736.852	2.46
736.877	9.46
736.901	8.46
736.925	5.46
736.949	15.46
736.974	-8.54
736.998	-20.54
737.022	-3.54
737.047	-16.54
737.071	-13.54
737.095	8.46
737.119	14.46
737.144	12.46
737.168	2.46
737.192	9.46
737.216	9.46
737.241	-8.54
737.265	4.46
737.289	0.46
737.313	7.46
737.337	15.46
737.362	0.46
737.386	10.46
737.41	4.46
737.434	-3.54
737.459	7.46
737.483	3.46
737.507	7.46
737.531	17.46
737.555	-1.54
737.58	17.46
737.604	-0.54
737.628	11.46
737.652	-3.54
737.676	5.46
737.701	4.46
737.725	-11.54
737.749	-2.54
737.773	-1.54
737.797	0.46
737.821	2.46
737.846	10.46
737.87	36.46
737.894	2.46
737.918	6.46
737.942	-9.54
737.966	19.46
737.99	13.46
738.015	4.46
738.039	-3.54
738.063	-0.54
738.087	14.46
738.111	-6.54
738.135	10.46
738.159	-6.54
738.184	-12.54
738.208	-2.54
738.232	-6.54
738.256	8.46
738.28	13.46
738.304	23.46
738.328	-17.54
738.352	9.46
738.376	-7.54
738.4	12.46
738.425	12.46
738.449	3.46
738.473	8.46
738.497	5.46
738.521	-1.54
738.545	11.46
738.569	18.46
738.593	10.46
738.617	0.46
738.641	1.46
738.665	-0.54
738.689	-0.54
738.713	10.46
738.737	7.46
738.762	28.46
738.786	7.46
738.81	-10.54
738.834	-2.54
738.858	-4.54
738.882	4.46
738.906	-12.54
738.93	8.46
738.954	-5.54
738.978	5.46
739.002	4.46
739.026	13.46
739.05	-1.54
739.074	-10.54
739.098	28.46
739.122	24.46
739.146	3.46
739.17	2.46
739.194	13.46
739.218	-14.54
739.242	12.46
739.266	-2.54
739.29	16.46
739.314	-0.54
739.338	-5.54
739.362	5.46
739.386	11.46
739.41	-13.54
739.434	-11.54
739.458	16.46
739.482	18.46
739.506	-0.54
739.53	4.46
739.554	9.46
739.577	7.46
739.601	14.46
739.625	-12.54
739.649	6.46
739.673	0.46
739.697	5.46
739.721	-5.54
739.745	10.46
739.769	22.46
739.793	20.46
739.817	9.46
739.841	-12.54
739.865	8.46
739.889	0.46
739.912	14.46
739.936	2.46
739.96	7.46
739.984	-1.54
740.008	-3.54
740.032	-11.54
740.056	-10.54
740.08	-9.54
740.104	6.46
740.127	12.46
740.151	22.46
740.175	16.46
740.199	11.46
740.223	60.46
740.247	8.46
740.271	5.46
740.295	5.46
740.318	-18.54
740.342	0.46
740.366	9.46
740.39	16.46
740.414	3.46
740.438	2.46
740.461	3.46
740.485	0.46
740.509	-3.54
740.533	11.46
740.557	-3.54
740.581	11.46
740.604	-9.54
740.628	-7.54
740.652	-3.54
740.676	-2.54
740.7	10.46
740.723	2.46
740.747	-0.54
740.771	5.46
740.795	-16.54
740.819	5.46
740.842	1.46
740.866	10.46
740.89	16.46
740.914	-3.54
740.938	-11.54
740.961	16.46
740.985	-1.54
741.009	-7.54
741.033	4.46
741.056	2.46
741.08	0.46
741.104	-4.54
741.128	-7.54
741.151	8.46
741.175	-3.54
741.199	-5.54
741.223	10.46
741.246	-15.54
741.27	2.46
741.294	8.46
741.318	-4.54
741.341	-3.54
741.365	-11.54
741.389	4.46
741.413	3.46
741.436	19.46
741.46	5.46
741.484	-4.54
741.507	-2.54
741.531	30.46
741.555	8.46
741.579	2.46
741.602	6.46
741.626	0.46
741.65	-2.54
741.673	-4.54
741.697	13.46
741.721	4.46
741.744	-16.54
741.768	-0.54
741.792	0.46
741.815	-6.54
741.839	8.46
741.863	9.46
741.886	-7.54
741.91	12.46
741.934	-0.54
741.957	-1.54
741.981	5.46
742.005	8.46
742.028	4.46
742.052	18.46
742.075	5.46
742.099	9.46
742.123	0.46
742.146	-1.54
742.17	3.46
742.194	-17.54
742.217	3.46
742.241	-4.54
742.264	-7.54
742.288	26.46
742.312	8.46
742.335	-11.54
742.359	-5.54
742.382	8.46
742.406	21.46
742.43	-3.54
742.453	14.46
742.477	1.46
742.5	10.46
742.524	-0.54
742.548	-6.54
742.571	-4.54
742.595	-12.54
742.618	2.46
742.642	11.46
742.665	-0.54
742.689	-1.54
742.712	22.46
742.736	0.46
742.76	9.46
742.783	2.46
742.807	15.46
742.83	26.46
742.854	-2.54
742.877	-9.54
742.901	-5.54
742.924	-0.54
742.948	5.46
742.971	8.46
742.995	4.46
743.018	-9.54
743.042	-7.54
743.065	-5.54
743.089	-17.54
743.112	17.46
743.136	2.46
743.159	4.46
743.183	6.46
743.206	7.46
743.23	9.46
743.253	2.46
743.277	15.46
743.3	6.46
743.324	2.46
743.347	-8.54
743.371	16.46
743.394	21.46
743.418	27.46
743.441	14.46
743.465	7.46
743.488	0.46
743.512	-7.54
743.535	-10.54
743.558	-0.54
743.582	1.46
743.605	5.46
743.629	-1.54
743.652	7.46
743.676	9.46
743.699	3.46
743.723	2.46
743.746	10.46
743.769	-2.54
743.793	-3.54
743.816	0.46
743.84	12.46
743.863	10.46
743.886	6.46
743.91	22.46
743.933	-5.54
743.957	4.46
743.98	-6.54
744.003	-11.54
744.027	-4.54
744.05	-5.54
744.074	7.46
744.097	-17.54
744.12	-3.54
744.144	-7.54
744.167	21.46
744.19	-1.54
744.214	6.46
744.237	-4.54
744.26	17.46
744.284	-1.54
744.307	-12.54
744.331	-1.54
744.354	11.46
744.377	2.46
744.401	9.46
744.424	22.46
744.447	-0.54
744.471	5.46
