Data from HighRes_H2D2_15_04_11_07_2024_HR4C61891__76__15-05-42-042.txt Node

Date: Thu Nov 07 15:05:42 EST 2024
User: crc00042
Spectrometer: HR4C6189
Trigger mode: 4
Integration Time (sec): 1.000000E-1
Scans to average: 1
Electric dark correction enabled: true
Nonlinearity correction enabled: false
Boxcar width: 0
XAxis mode: Wavelengths
Number of Pixels in Spectrum: 3648
>>>>>Begin Spectral Data<<<<<
639.567	-80.38
639.602	-80.38
639.636	-80.38
639.67	-62.38
639.704	-26.38
639.738	-9.38
639.773	-0.38
639.807	-30.38
639.841	-2.38
639.875	8.62
639.909	6.62
639.943	-13.38
639.978	2.62
640.012	9.62
640.046	8.62
640.08	2.62
640.114	13.62
640.148	3.62
640.182	-0.38
640.217	-21.38
640.251	-11.38
640.285	-4.38
640.319	-8.38
640.353	-15.38
640.387	9.62
640.421	7.62
640.455	-14.38
640.49	-1.38
640.524	5.62
640.558	-6.38
640.592	17.62
640.626	-2.38
640.66	-3.38
640.694	-8.38
640.728	-6.38
640.762	5.62
640.796	4.62
640.83	0.62
640.865	7.62
640.899	5.62
640.933	-12.38
640.967	-11.38
641.001	-17.38
641.035	-3.38
641.069	9.62
641.103	-7.38
641.137	-10.38
641.171	-4.38
641.205	-6.38
641.239	4.62
641.273	18.62
641.307	7.62
641.341	-6.38
641.375	-1.38
641.409	-8.38
641.443	-4.38
641.477	6.62
641.511	6.62
641.545	4.62
641.579	0.62
641.614	14.62
641.648	3.62
641.682	-7.38
641.716	5.62
641.75	12.62
641.784	5.62
641.818	-9.38
641.852	5.62
641.886	-3.38
641.919	17.62
641.953	0.62
641.987	-14.38
642.021	-2.38
642.055	-11.38
642.089	2.62
642.123	-13.38
642.157	-17.38
642.191	-14.38
642.225	-3.38
642.259	-14.38
642.293	0.62
642.327	2.62
642.361	-7.38
642.395	8.62
642.429	11.62
642.463	1.62
642.497	22.62
642.531	3.62
642.565	-3.38
642.599	8.62
642.633	-21.38
642.666	9.62
642.7	-1.38
642.734	13.62
642.768	-4.38
642.802	4.62
642.836	6.62
642.87	10.62
642.904	-5.38
642.938	8.62
642.972	-10.38
643.005	5.62
643.039	27.62
643.073	-5.38
643.107	-0.38
643.141	-2.38
643.175	-0.38
643.209	-16.38
643.243	-18.38
643.276	9.62
643.31	-11.38
643.344	-3.38
643.378	8.62
643.412	8.62
643.446	-13.38
643.48	-15.38
643.513	6.62
643.547	6.62
643.581	-2.38
643.615	6.62
643.649	-4.38
643.683	-7.38
643.716	0.62
643.75	12.62
643.784	-9.38
643.818	-8.38
643.852	-20.38
643.886	-18.38
643.919	15.62
643.953	-13.38
643.987	-8.38
644.021	0.62
644.055	6.62
644.088	0.62
644.122	-9.38
644.156	-7.38
644.19	-0.38
644.224	-2.38
644.257	2.62
644.291	0.62
644.325	8.62
644.359	-22.38
644.392	11.62
644.426	10.62
644.46	8.62
644.494	-3.38
644.527	6.62
644.561	-14.38
644.595	6.62
644.629	-18.38
644.662	-23.38
644.696	10.62
644.73	-11.38
644.764	-0.38
644.797	-11.38
644.831	8.62
644.865	6.62
644.899	-3.38
644.932	18.62
644.966	-0.38
645	0.62
645.033	0.62
645.067	-7.38
645.101	10.62
645.135	-4.38
645.168	-8.38
645.202	-15.38
645.236	-12.38
645.269	2.62
645.303	-3.38
645.337	-6.38
645.37	-6.38
645.404	-9.38
645.438	-3.38
645.471	-5.38
645.505	1.62
645.539	-6.38
645.572	-7.38
645.606	-19.38
645.64	8.62
645.673	4.62
645.707	5.62
645.741	1.62
645.774	-5.38
645.808	-0.38
645.842	-10.38
645.875	-4.38
645.909	-7.38
645.943	-2.38
645.976	2.62
646.01	-21.38
646.043	11.62
646.077	7.62
646.111	5.62
646.144	19.62
646.178	15.62
646.212	-7.38
646.245	-7.38
646.279	-8.38
646.312	7.62
646.346	-2.38
646.38	-3.38
646.413	6.62
646.447	-4.38
646.48	-5.38
646.514	6.62
646.547	-5.38
646.581	-7.38
646.615	5.62
646.648	-6.38
646.682	-6.38
646.715	-11.38
646.749	-6.38
646.782	-11.38
646.816	-22.38
646.85	-10.38
646.883	-13.38
646.917	-7.38
646.95	15.62
646.984	1.62
647.017	-4.38
647.051	-3.38
647.084	3.62
647.118	-4.38
647.151	-11.38
647.185	0.62
647.218	-8.38
647.252	-11.38
647.285	-15.38
647.319	2.62
647.353	10.62
647.386	14.62
647.42	-1.38
647.453	-13.38
647.487	0.62
647.52	-5.38
647.553	2.62
647.587	-7.38
647.62	-7.38
647.654	-7.38
647.687	3.62
647.721	-0.38
647.754	-7.38
647.788	-11.38
647.821	-5.38
647.855	9.62
647.888	12.62
647.922	1.62
647.955	0.62
647.989	-12.38
648.022	-4.38
648.055	1.62
648.089	-16.38
648.122	9.62
648.156	-4.38
648.189	4.62
648.223	0.62
648.256	19.62
648.29	9.62
648.323	10.62
648.356	4.62
648.39	-3.38
648.423	-1.38
648.457	1.62
648.49	3.62
648.523	2.62
648.557	-10.38
648.59	-15.38
648.624	-5.38
648.657	-7.38
648.69	-6.38
648.724	-11.38
648.757	-0.38
648.791	0.62
648.824	5.62
648.857	12.62
648.891	-3.38
648.924	7.62
648.957	25.62
648.991	-16.38
649.024	-1.38
649.057	-11.38
649.091	-6.38
649.124	4.62
649.158	6.62
649.191	12.62
649.224	7.62
649.258	19.62
649.291	18.62
649.324	1.62
649.358	-9.38
649.391	-2.38
649.424	2.62
649.458	-2.38
649.491	0.62
649.524	-17.38
649.557	-11.38
649.591	-17.38
649.624	5.62
649.657	-4.38
649.691	5.62
649.724	-2.38
649.757	-6.38
649.791	1.62
649.824	27.62
649.857	-1.38
649.89	1.62
649.924	-7.38
649.957	-4.38
649.99	-22.38
650.023	0.62
650.057	-4.38
650.09	4.62
650.123	-14.38
650.157	3.62
650.19	8.62
650.223	-2.38
650.256	-4.38
650.29	-0.38
650.323	17.62
650.356	11.62
650.389	-6.38
650.423	-8.38
650.456	-4.38
650.489	-10.38
650.522	-0.38
650.555	14.62
650.589	12.62
650.622	10.62
650.655	22.62
650.688	-6.38
650.721	-7.38
650.755	0.62
650.788	8.62
650.821	-20.38
650.854	-0.38
650.887	-1.38
650.921	1.62
650.954	-12.38
650.987	-7.38
651.02	-1.38
651.053	-25.38
651.087	-16.38
651.12	8.62
651.153	8.62
651.186	-10.38
651.219	-8.38
651.252	2.62
651.286	4.62
651.319	0.62
651.352	-8.38
651.385	7.62
651.418	-2.38
651.451	6.62
651.484	1.62
651.518	-17.38
651.551	14.62
651.584	-12.38
651.617	8.62
651.65	5.62
651.683	8.62
651.716	-16.38
651.749	-9.38
651.783	8.62
651.816	-2.38
651.849	3.62
651.882	-7.38
651.915	-25.38
651.948	12.62
651.981	-10.38
652.014	-29.38
652.047	-14.38
652.08	-12.38
652.114	0.62
652.147	-3.38
652.18	-0.38
652.213	16.62
652.246	-3.38
652.279	-19.38
652.312	1.62
652.345	-0.38
652.378	-0.38
652.411	22.62
652.444	14.62
652.477	0.62
652.51	-5.38
652.543	-22.38
652.576	-4.38
652.609	-9.38
652.642	3.62
652.675	2.62
652.709	-12.38
652.742	-16.38
652.775	4.62
652.808	19.62
652.841	9.62
652.874	12.62
652.907	-17.38
652.94	-7.38
652.973	-2.38
653.006	-7.38
653.039	-4.38
653.072	4.62
653.105	-15.38
653.138	-14.38
653.171	-4.38
653.204	-8.38
653.237	2.62
653.27	1.62
653.303	1.62
653.336	9.62
653.368	-20.38
653.401	-2.38
653.434	-21.38
653.467	-0.38
653.5	-8.38
653.533	-11.38
653.566	-14.38
653.599	2.62
653.632	4.62
653.665	17.62
653.698	-10.38
653.731	-9.38
653.764	-0.38
653.797	4.62
653.83	7.62
653.863	1.62
653.896	-0.38
653.929	-8.38
653.961	3.62
653.994	5.62
654.027	-13.38
654.06	-1.38
654.093	4.62
654.126	-7.38
654.159	-5.38
654.192	-6.38
654.225	3.62
654.258	2.62
654.29	0.62
654.323	14.62
654.356	16.62
654.389	0.62
654.422	-2.38
654.455	9.62
654.488	-17.38
654.521	-30.38
654.553	-4.38
654.586	-0.38
654.619	-12.38
654.652	4.62
654.685	12.62
654.718	-0.38
654.751	9.62
654.783	3.62
654.816	1.62
654.849	2.62
654.882	-16.38
654.915	-15.38
654.948	-6.38
654.98	0.62
655.013	-3.38
655.046	-23.38
655.079	-13.38
655.112	1.62
655.144	-28.38
655.177	-2.38
655.21	16.62
655.243	13.62
655.276	8.62
655.308	-7.38
655.341	-27.38
655.374	-9.38
655.407	1.62
655.44	-11.38
655.472	6.62
655.505	-2.38
655.538	12.62
655.571	19.62
655.603	12.62
655.636	-10.38
655.669	6.62
655.702	-0.38
655.734	0.62
655.767	-5.38
655.8	15.62
655.833	4.62
655.865	16.62
655.898	5.62
655.931	19.62
655.964	14.62
655.996	1.62
656.029	19.62
656.062	13.62
656.095	33.62
656.127	86.62
656.16	209.62
656.193	599.62
656.225	933.62
656.258	562.62
656.291	226.62
656.324	169.62
656.356	361.62
656.389	782.62
656.422	657.62
656.454	218.62
656.487	79.62
656.52	38.62
656.552	7.62
656.585	6.62
656.618	5.62
656.65	14.62
656.683	4.62
656.716	4.62
656.748	-0.38
656.781	-13.38
656.814	-11.38
656.846	6.62
656.879	-21.38
656.912	-10.38
656.944	-15.38
656.977	-2.38
657.01	-1.38
657.042	13.62
657.075	1.62
657.108	-5.38
657.14	12.62
657.173	8.62
657.205	22.62
657.238	5.62
657.271	-4.38
657.303	-19.38
657.336	-7.38
657.369	2.62
657.401	-6.38
657.434	-2.38
657.466	19.62
657.499	-3.38
657.532	-0.38
657.564	1.62
657.597	-0.38
657.629	1.62
657.662	2.62
657.694	1.62
657.727	-8.38
657.76	3.62
657.792	-9.38
657.825	0.62
657.857	-4.38
657.89	4.62
657.922	7.62
657.955	-15.38
657.987	-4.38
658.02	15.62
658.053	20.62
658.085	0.62
658.118	2.62
658.15	5.62
658.183	15.62
658.215	10.62
658.248	-5.38
658.28	-9.38
658.313	15.62
658.345	1.62
658.378	-8.38
658.41	-15.38
658.443	12.62
658.475	2.62
658.508	-10.38
658.54	-3.38
658.573	-18.38
658.605	7.62
658.638	2.62
658.67	-9.38
658.703	3.62
658.735	-4.38
658.768	9.62
658.8	-10.38
658.833	6.62
658.865	0.62
658.898	-9.38
658.93	-9.38
658.963	2.62
658.995	-20.38
659.028	17.62
659.06	-1.38
659.092	-11.38
659.125	3.62
659.157	-0.38
659.19	-0.38
659.222	-18.38
659.255	-0.38
659.287	-3.38
659.32	-11.38
659.352	2.62
659.384	3.62
659.417	-0.38
659.449	-3.38
659.482	8.62
659.514	-24.38
659.546	-4.38
659.579	-9.38
659.611	3.62
659.644	-11.38
659.676	-20.38
659.708	6.62
659.741	0.62
659.773	10.62
659.806	5.62
659.838	12.62
659.87	4.62
659.903	-14.38
659.935	-5.38
659.967	-9.38
660	4.62
660.032	-20.38
660.065	7.62
660.097	4.62
660.129	1.62
660.162	-15.38
660.194	16.62
660.226	7.62
660.259	22.62
660.291	-7.38
660.323	-11.38
660.356	7.62
660.388	-7.38
660.42	-10.38
660.453	0.62
660.485	5.62
660.517	14.62
660.55	2.62
660.582	-6.38
660.614	-5.38
660.647	-10.38
660.679	2.62
660.711	-1.38
660.743	-6.38
660.776	-7.38
660.808	1.62
660.84	-10.38
660.873	-4.38
660.905	2.62
660.937	9.62
660.969	4.62
661.002	-12.38
661.034	4.62
661.066	-10.38
661.099	12.62
661.131	-8.38
661.163	-6.38
661.195	-13.38
661.228	19.62
661.26	-8.38
661.292	-5.38
661.324	-22.38
661.357	-13.38
661.389	3.62
661.421	7.62
661.453	-6.38
661.485	-5.38
661.518	-3.38
661.55	-29.38
661.582	-12.38
661.614	-10.38
661.647	-7.38
661.679	-0.38
661.711	8.62
661.743	-7.38
661.775	0.62
661.808	17.62
661.84	-4.38
661.872	2.62
661.904	7.62
661.936	0.62
661.969	-3.38
662.001	-7.38
662.033	4.62
662.065	3.62
662.097	7.62
662.129	4.62
662.162	-23.38
662.194	-14.38
662.226	-3.38
662.258	-2.38
662.29	5.62
662.322	-32.38
662.355	-12.38
662.387	7.62
662.419	1.62
662.451	-3.38
662.483	13.62
662.515	0.62
662.547	0.62
662.58	-7.38
662.612	-12.38
662.644	-21.38
662.676	-8.38
662.708	-5.38
662.74	-13.38
662.772	-4.38
662.804	-16.38
662.836	1.62
662.869	-4.38
662.901	14.62
662.933	-14.38
662.965	8.62
662.997	1.62
663.029	-21.38
663.061	-17.38
663.093	-9.38
663.125	6.62
663.157	1.62
663.189	5.62
663.221	1.62
663.254	-18.38
663.286	12.62
663.318	-3.38
663.35	-10.38
663.382	0.62
663.414	16.62
663.446	19.62
663.478	-1.38
663.51	0.62
663.542	-9.38
663.574	-13.38
663.606	13.62
663.638	-9.38
663.67	-13.38
663.702	-20.38
663.734	3.62
663.766	13.62
663.798	-9.38
663.83	3.62
663.862	8.62
663.894	5.62
663.926	2.62
663.958	13.62
663.99	-10.38
664.022	-26.38
664.054	2.62
664.086	-15.38
664.118	-3.38
664.15	-5.38
664.182	-0.38
664.214	-11.38
664.246	-1.38
664.278	12.62
664.31	23.62
664.342	7.62
664.374	-5.38
664.406	-8.38
664.438	-6.38
664.47	17.62
664.502	-5.38
664.534	0.62
664.566	-22.38
664.598	2.62
664.63	-7.38
664.662	-3.38
664.693	-5.38
664.725	-6.38
664.757	-18.38
664.789	-9.38
664.821	-0.38
664.853	8.62
664.885	-6.38
664.917	-15.38
664.949	8.62
664.981	11.62
665.013	5.62
665.045	-30.38
665.076	-15.38
665.108	-7.38
665.14	-7.38
665.172	0.62
665.204	-4.38
665.236	5.62
665.268	16.62
665.3	-0.38
665.331	-25.38
665.363	-2.38
665.395	-3.38
665.427	-1.38
665.459	13.62
665.491	-11.38
665.523	7.62
665.555	-3.38
665.586	0.62
665.618	-15.38
665.65	-9.38
665.682	2.62
665.714	0.62
665.746	11.62
665.777	12.62
665.809	-4.38
665.841	5.62
665.873	5.62
665.905	-5.38
665.937	0.62
665.968	8.62
666	16.62
666.032	9.62
666.064	0.62
666.096	1.62
666.127	9.62
666.159	15.62
666.191	10.62
666.223	-1.38
666.255	3.62
666.286	4.62
666.318	-2.38
666.35	3.62
666.382	4.62
666.413	-15.38
666.445	-16.38
666.477	-14.38
666.509	-2.38
666.54	-8.38
666.572	-16.38
666.604	-14.38
666.636	4.62
666.667	5.62
666.699	0.62
666.731	8.62
666.763	8.62
666.794	2.62
666.826	4.62
666.858	-3.38
666.89	6.62
666.921	-5.38
666.953	0.62
666.985	2.62
667.017	6.62
667.048	3.62
667.08	0.62
667.112	-5.38
667.143	-4.38
667.175	-7.38
667.207	1.62
667.238	5.62
667.27	-4.38
667.302	4.62
667.334	-1.38
667.365	19.62
667.397	-3.38
667.429	-22.38
667.46	7.62
667.492	-6.38
667.524	-3.38
667.555	-9.38
667.587	-4.38
667.619	-2.38
667.65	8.62
667.682	3.62
667.714	6.62
667.745	-25.38
667.777	-16.38
667.808	2.62
667.84	-6.38
667.872	6.62
667.903	12.62
667.935	-12.38
667.967	-11.38
667.998	1.62
668.03	0.62
668.061	0.62
668.093	7.62
668.125	12.62
668.156	-6.38
668.188	4.62
668.22	0.62
668.251	10.62
668.283	4.62
668.314	11.62
668.346	-15.38
668.377	10.62
668.409	-12.38
668.441	5.62
668.472	13.62
668.504	8.62
668.535	20.62
668.567	8.62
668.599	8.62
668.63	-2.38
668.662	-4.38
668.693	17.62
668.725	4.62
668.756	8.62
668.788	3.62
668.819	4.62
668.851	-7.38
668.882	6.62
668.914	10.62
668.946	2.62
668.977	1.62
669.009	-4.38
669.04	-13.38
669.072	4.62
669.103	2.62
669.135	-9.38
669.166	-4.38
669.198	-6.38
669.229	-4.38
669.261	-4.38
669.292	2.62
669.324	7.62
669.355	9.62
669.387	-4.38
669.418	-1.38
669.45	-14.38
669.481	21.62
669.513	4.62
669.544	8.62
669.576	2.62
669.607	23.62
669.639	1.62
669.67	-11.38
669.701	12.62
669.733	-5.38
669.764	1.62
669.796	0.62
669.827	-16.38
669.859	-3.38
669.89	6.62
669.922	-7.38
669.953	5.62
669.985	13.62
670.016	1.62
670.047	-6.38
670.079	-2.38
670.11	-5.38
670.142	-15.38
670.173	-7.38
670.204	0.62
670.236	-0.38
670.267	-2.38
670.299	6.62
670.33	-1.38
670.362	7.62
670.393	-4.38
670.424	4.62
670.456	-0.38
670.487	-17.38
670.518	-6.38
670.55	-10.38
670.581	-3.38
670.613	7.62
670.644	5.62
670.675	-19.38
670.707	-8.38
670.738	7.62
670.769	0.62
670.801	0.62
670.832	6.62
670.864	-11.38
670.895	15.62
670.926	8.62
670.958	-2.38
670.989	-4.38
671.02	-12.38
671.052	1.62
671.083	-7.38
671.114	-6.38
671.146	-4.38
671.177	-3.38
671.208	-15.38
671.24	-10.38
671.271	9.62
671.302	1.62
671.333	-7.38
671.365	-14.38
671.396	-17.38
671.427	-11.38
671.459	-2.38
671.49	10.62
671.521	10.62
671.553	12.62
671.584	-10.38
671.615	-11.38
671.646	0.62
671.678	-6.38
671.709	-13.38
671.74	-13.38
671.771	-18.38
671.803	-12.38
671.834	8.62
671.865	6.62
671.896	5.62
671.928	-14.38
671.959	2.62
671.99	-10.38
672.021	1.62
672.053	-3.38
672.084	-0.38
672.115	0.62
672.146	-10.38
672.178	-13.38
672.209	-15.38
672.24	-7.38
672.271	14.62
672.303	8.62
672.334	0.62
672.365	-1.38
672.396	11.62
672.427	-7.38
672.459	6.62
672.49	19.62
672.521	-8.38
672.552	-8.38
672.583	-12.38
672.615	-0.38
672.646	4.62
672.677	1.62
672.708	3.62
672.739	8.62
672.77	0.62
672.802	5.62
672.833	-8.38
672.864	4.62
672.895	3.62
672.926	-10.38
672.957	-1.38
672.989	5.62
673.02	3.62
673.051	-21.38
673.082	11.62
673.113	8.62
673.144	11.62
673.175	-6.38
673.206	-5.38
673.238	-0.38
673.269	-4.38
673.3	-14.38
673.331	3.62
673.362	4.62
673.393	1.62
673.424	10.62
673.455	11.62
673.487	4.62
673.518	8.62
673.549	6.62
673.58	-17.38
673.611	-5.38
673.642	-10.38
673.673	-31.38
673.704	-27.38
673.735	-13.38
673.766	-11.38
673.797	-8.38
673.828	1.62
673.86	-4.38
673.891	-19.38
673.922	-9.38
673.953	-14.38
673.984	-9.38
674.015	-8.38
674.046	-5.38
674.077	-3.38
674.108	-11.38
674.139	-15.38
674.17	-13.38
674.201	-10.38
674.232	-14.38
674.263	-7.38
674.294	-5.38
674.325	-14.38
674.356	3.62
674.387	7.62
674.418	3.62
674.449	-12.38
674.48	-13.38
674.511	-1.38
674.542	4.62
674.573	-12.38
674.604	1.62
674.635	3.62
674.666	-0.38
674.697	-7.38
674.728	-4.38
674.759	-3.38
674.79	-7.38
674.821	-6.38
674.852	-4.38
674.883	-14.38
674.914	-0.38
674.945	-3.38
674.976	-7.38
675.007	0.62
675.038	-16.38
675.069	-9.38
675.1	-16.38
675.131	-4.38
675.162	-11.38
675.193	-8.38
675.224	-11.38
675.254	-7.38
675.285	-5.38
675.316	2.62
675.347	-2.38
675.378	-8.38
675.409	-18.38
675.44	14.62
675.471	-4.38
675.502	2.62
675.533	0.62
675.564	-7.38
675.595	0.62
675.625	8.62
675.656	6.62
675.687	7.62
675.718	-3.38
675.749	3.62
675.78	6.62
675.811	-10.38
675.842	-4.38
675.873	5.62
675.903	-5.38
675.934	-0.38
675.965	-11.38
675.996	-7.38
676.027	5.62
676.058	-12.38
676.089	-28.38
676.119	-16.38
676.15	-15.38
676.181	-12.38
676.212	-5.38
676.243	1.62
676.274	-17.38
676.304	0.62
676.335	-22.38
676.366	-1.38
676.397	-4.38
676.428	-6.38
676.459	7.62
676.489	-2.38
676.52	4.62
676.551	2.62
676.582	-15.38
676.613	-2.38
676.643	-14.38
676.674	-8.38
676.705	-8.38
676.736	-0.38
676.767	8.62
676.797	-2.38
676.828	5.62
676.859	-3.38
676.89	10.62
676.92	-1.38
676.951	3.62
676.982	2.62
677.013	-3.38
677.044	17.62
677.074	4.62
677.105	-5.38
677.136	6.62
677.167	0.62
677.197	7.62
677.228	1.62
677.259	-22.38
677.289	-1.38
677.32	-9.38
677.351	-10.38
677.382	-5.38
677.412	-12.38
677.443	4.62
677.474	-0.38
677.505	-9.38
677.535	-8.38
677.566	-6.38
677.597	-40.38
677.627	-2.38
677.658	-6.38
677.689	-3.38
677.72	-6.38
677.75	-4.38
677.781	-2.38
677.812	-1.38
677.842	4.62
677.873	-18.38
677.904	-12.38
677.934	-15.38
677.965	-9.38
677.996	-24.38
678.026	-7.38
678.057	-13.38
678.088	-35.38
678.118	-7.38
678.149	-6.38
678.18	-12.38
678.21	-7.38
678.241	-7.38
678.272	0.62
678.302	-13.38
678.333	-2.38
678.363	12.62
678.394	7.62
678.425	-2.38
678.455	-3.38
678.486	7.62
678.517	-18.38
678.547	6.62
678.578	11.62
678.608	-8.38
678.639	-11.38
678.67	1.62
678.7	-0.38
678.731	-5.38
678.761	-10.38
678.792	-16.38
678.823	-10.38
678.853	-8.38
678.884	-8.38
678.914	-2.38
678.945	-1.38
678.975	-15.38
679.006	-10.38
679.037	-21.38
679.067	4.62
679.098	2.62
679.128	-9.38
679.159	-4.38
679.189	9.62
679.22	-21.38
679.25	-4.38
679.281	3.62
679.312	-7.38
679.342	3.62
679.373	35.62
679.403	5.62
679.434	13.62
679.464	1.62
679.495	4.62
679.525	-0.38
679.556	1.62
679.586	21.62
679.617	8.62
679.647	-0.38
679.678	-5.38
679.708	-4.38
679.739	-6.38
679.769	-13.38
679.8	-7.38
679.83	3.62
679.861	19.62
679.891	0.62
679.922	-16.38
679.952	-15.38
679.983	3.62
680.013	2.62
680.044	-3.38
680.074	8.62
680.105	-4.38
680.135	-0.38
680.165	-6.38
680.196	4.62
680.226	-7.38
680.257	7.62
680.287	12.62
680.318	-8.38
680.348	-10.38
680.379	-5.38
680.409	-0.38
680.439	-13.38
680.47	-7.38
680.5	-18.38
680.531	-8.38
680.561	6.62
680.592	10.62
680.622	18.62
680.652	-0.38
680.683	5.62
680.713	-13.38
680.744	-14.38
680.774	7.62
680.804	15.62
680.835	-7.38
680.865	-15.38
680.896	10.62
680.926	29.62
680.956	-11.38
680.987	-6.38
681.017	-6.38
681.047	-3.38
681.078	-23.38
681.108	-4.38
681.139	-14.38
681.169	-1.38
681.199	0.62
681.23	12.62
681.26	3.62
681.29	2.62
681.321	-23.38
681.351	-12.38
681.381	-15.38
681.412	16.62
681.442	4.62
681.472	9.62
681.503	-3.38
681.533	-2.38
681.563	3.62
681.594	2.62
681.624	-8.38
681.654	-21.38
681.685	-4.38
681.715	-3.38
681.745	-3.38
681.775	-17.38
681.806	0.62
681.836	-3.38
681.866	-10.38
681.897	0.62
681.927	2.62
681.957	-5.38
681.987	3.62
682.018	2.62
682.048	3.62
682.078	13.62
682.109	5.62
682.139	10.62
682.169	18.62
682.199	-2.38
682.23	-2.38
682.26	3.62
682.29	-7.38
682.32	-1.38
682.351	-13.38
682.381	-14.38
682.411	-7.38
682.441	-3.38
682.472	-6.38
682.502	-4.38
682.532	-14.38
682.562	1.62
682.592	3.62
682.623	0.62
682.653	-0.38
682.683	-18.38
682.713	4.62
682.743	-7.38
682.774	-8.38
682.804	-5.38
682.834	5.62
682.864	-8.38
682.894	-10.38
682.925	-10.38
682.955	-0.38
682.985	-15.38
683.015	-2.38
683.045	8.62
683.076	-5.38
683.106	-5.38
683.136	-9.38
683.166	-21.38
683.196	-20.38
683.226	-18.38
683.257	-8.38
683.287	-1.38
683.317	-14.38
683.347	4.62
683.377	-17.38
683.407	-2.38
683.437	4.62
683.468	1.62
683.498	-2.38
683.528	7.62
683.558	8.62
683.588	-5.38
683.618	-3.38
683.648	-2.38
683.678	-4.38
683.708	-9.38
683.739	2.62
683.769	1.62
683.799	6.62
683.829	-12.38
683.859	3.62
683.889	14.62
683.919	-14.38
683.949	-14.38
683.979	-14.38
684.009	-5.38
684.039	12.62
684.07	-19.38
684.1	13.62
684.13	-11.38
684.16	-19.38
684.19	-14.38
684.22	-5.38
684.25	-2.38
684.28	-3.38
684.31	6.62
684.34	-8.38
684.37	-8.38
684.4	-11.38
684.43	5.62
684.46	-2.38
684.49	8.62
684.52	18.62
684.55	9.62
684.58	-4.38
684.61	-3.38
684.64	17.62
684.67	1.62
684.7	6.62
684.73	5.62
684.76	-5.38
684.79	12.62
684.82	-7.38
684.85	-21.38
684.88	-5.38
684.91	8.62
684.94	-3.38
684.97	-20.38
685	-3.38
685.03	-10.38
685.06	-18.38
685.09	-12.38
685.12	21.62
685.15	-6.38
685.18	-3.38
685.21	-14.38
685.24	2.62
685.27	11.62
685.3	-15.38
685.33	-0.38
685.36	-17.38
685.39	-7.38
685.42	-8.38
685.45	-4.38
685.48	-1.38
685.51	4.62
685.54	8.62
685.569	9.62
685.599	-1.38
685.629	-1.38
685.659	0.62
685.689	-7.38
685.719	2.62
685.749	-5.38
685.779	-6.38
685.809	-4.38
685.839	6.62
685.869	-4.38
685.898	8.62
685.928	-5.38
685.958	-10.38
685.988	11.62
686.018	0.62
686.048	8.62
686.078	19.62
686.108	19.62
686.137	7.62
686.167	16.62
686.197	-2.38
686.227	2.62
686.257	29.62
686.287	10.62
686.317	2.62
686.346	7.62
686.376	-21.38
686.406	-24.38
686.436	5.62
686.466	-10.38
686.496	5.62
686.525	13.62
686.555	-8.38
686.585	13.62
686.615	19.62
686.645	5.62
686.675	-5.38
686.704	-15.38
686.734	-2.38
686.764	-13.38
686.794	2.62
686.824	17.62
686.853	4.62
686.883	3.62
686.913	12.62
686.943	-9.38
686.973	4.62
687.002	0.62
687.032	7.62
687.062	4.62
687.092	2.62
687.121	-3.38
687.151	-7.38
687.181	1.62
687.211	9.62
687.24	-3.38
687.27	1.62
687.3	-10.38
687.33	2.62
687.359	-14.38
687.389	0.62
687.419	2.62
687.449	-12.38
687.478	-4.38
687.508	3.62
687.538	3.62
687.568	7.62
687.597	-2.38
687.627	-1.38
687.657	3.62
687.686	-0.38
687.716	20.62
687.746	-14.38
687.776	-14.38
687.805	10.62
687.835	-8.38
687.865	10.62
687.894	4.62
687.924	-12.38
687.954	12.62
687.983	-5.38
688.013	8.62
688.043	2.62
688.072	-6.38
688.102	3.62
688.132	-6.38
688.161	-4.38
688.191	-1.38
688.221	18.62
688.25	-8.38
688.28	-3.38
688.31	-2.38
688.339	7.62
688.369	-14.38
688.399	-14.38
688.428	-8.38
688.458	-10.38
688.488	-13.38
688.517	4.62
688.547	-4.38
688.576	24.62
688.606	6.62
688.636	-17.38
688.665	1.62
688.695	4.62
688.725	15.62
688.754	9.62
688.784	3.62
688.813	8.62
688.843	2.62
688.873	1.62
688.902	2.62
688.932	-7.38
688.961	4.62
688.991	6.62
689.02	7.62
689.05	-22.38
689.08	-6.38
689.109	11.62
689.139	7.62
689.168	9.62
689.198	-8.38
689.227	-8.38
689.257	3.62
689.287	9.62
689.316	7.62
689.346	-8.38
689.375	-5.38
689.405	5.62
689.434	-8.38
689.464	8.62
689.493	-0.38
689.523	-10.38
689.552	-22.38
689.582	0.62
689.611	5.62
689.641	11.62
689.67	2.62
689.7	5.62
689.73	11.62
689.759	-11.38
689.789	-4.38
689.818	-7.38
689.848	-2.38
689.877	0.62
689.906	-4.38
689.936	0.62
689.965	3.62
689.995	5.62
690.024	14.62
690.054	10.62
690.083	3.62
690.113	7.62
690.142	-6.38
690.172	-6.38
690.201	13.62
690.231	-13.38
690.26	-4.38
690.29	-4.38
690.319	14.62
690.348	9.62
690.378	0.62
690.407	-2.38
690.437	-2.38
690.466	-11.38
690.496	-1.38
690.525	-4.38
690.555	2.62
690.584	-1.38
690.613	-6.38
690.643	-2.38
690.672	1.62
690.702	-4.38
690.731	5.62
690.76	4.62
690.79	-9.38
690.819	-29.38
690.849	-10.38
690.878	-13.38
690.907	-14.38
690.937	3.62
690.966	18.62
690.996	5.62
691.025	-2.38
691.054	-2.38
691.084	8.62
691.113	3.62
691.142	9.62
691.172	-1.38
691.201	4.62
691.23	-22.38
691.26	2.62
691.289	10.62
691.319	-4.38
691.348	5.62
691.377	12.62
691.407	14.62
691.436	4.62
691.465	1.62
691.495	-13.38
691.524	-0.38
691.553	-0.38
691.583	-20.38
691.612	12.62
691.641	-1.38
691.67	4.62
691.7	11.62
691.729	-5.38
691.758	3.62
691.788	1.62
691.817	-4.38
691.846	-2.38
691.876	-10.38
691.905	-5.38
691.934	3.62
691.963	15.62
691.993	-3.38
692.022	-3.38
692.051	-7.38
692.081	10.62
692.11	12.62
692.139	4.62
692.168	18.62
692.198	1.62
692.227	2.62
692.256	9.62
692.285	1.62
692.315	-4.38
692.344	-3.38
692.373	0.62
692.402	-21.38
692.432	-0.38
692.461	12.62
692.49	-12.38
692.519	-5.38
692.548	16.62
692.578	2.62
692.607	-10.38
692.636	-6.38
692.665	3.62
692.694	3.62
692.724	-7.38
692.753	0.62
692.782	0.62
692.811	-7.38
692.84	2.62
692.87	8.62
692.899	-8.38
692.928	6.62
692.957	17.62
692.986	16.62
693.016	-1.38
693.045	16.62
693.074	-6.38
693.103	4.62
693.132	-5.38
693.161	12.62
693.191	-4.38
693.22	-6.38
693.249	-14.38
693.278	-7.38
693.307	13.62
693.336	-12.38
693.365	-18.38
693.395	0.62
693.424	-7.38
693.453	16.62
693.482	-12.38
693.511	0.62
693.54	5.62
693.569	-4.38
693.598	-2.38
693.628	20.62
693.657	25.62
693.686	19.62
693.715	11.62
693.744	14.62
693.773	14.62
693.802	6.62
693.831	-2.38
693.86	6.62
693.889	-11.38
693.919	6.62
693.948	1.62
693.977	5.62
694.006	-6.38
694.035	2.62
694.064	9.62
694.093	13.62
694.122	5.62
694.151	-1.38
694.18	9.62
694.209	21.62
694.238	1.62
694.267	15.62
694.296	4.62
694.325	-1.38
694.354	12.62
694.383	13.62
694.412	-7.38
694.441	-1.38
694.471	-6.38
694.5	-23.38
694.529	0.62
694.558	31.62
694.587	17.62
694.616	4.62
694.645	4.62
694.674	13.62
694.703	-1.38
694.732	-5.38
694.761	3.62
694.79	11.62
694.819	-15.38
694.848	-5.38
694.877	14.62
694.906	26.62
694.935	1.62
694.963	4.62
694.992	-6.38
695.021	-4.38
695.05	19.62
695.079	1.62
695.108	-8.38
695.137	32.62
695.166	8.62
695.195	-4.38
695.224	2.62
695.253	9.62
695.282	8.62
695.311	5.62
695.34	4.62
695.369	-4.38
695.398	10.62
695.427	19.62
695.456	-0.38
695.485	5.62
695.513	0.62
695.542	-0.38
695.571	10.62
695.6	10.62
695.629	-6.38
695.658	17.62
695.687	10.62
695.716	9.62
695.745	27.62
695.774	-9.38
695.802	-15.38
695.831	-7.38
695.86	-5.38
695.889	6.62
695.918	21.62
695.947	3.62
695.976	11.62
696.005	-1.38
696.033	-0.38
696.062	9.62
696.091	5.62
696.12	10.62
696.149	20.62
696.178	8.62
696.207	6.62
696.235	-14.38
696.264	3.62
696.293	8.62
696.322	5.62
696.351	0.62
696.38	1.62
696.408	8.62
696.437	8.62
696.466	7.62
696.495	19.62
696.524	19.62
696.553	-1.38
696.581	-0.38
696.61	1.62
696.639	-8.38
696.668	-9.38
696.697	-8.38
696.725	-3.38
696.754	2.62
696.783	8.62
696.812	-0.38
696.84	16.62
696.869	9.62
696.898	17.62
696.927	18.62
696.956	19.62
696.984	2.62
697.013	-5.38
697.042	-5.38
697.071	4.62
697.099	1.62
697.128	12.62
697.157	1.62
697.186	10.62
697.214	3.62
697.243	4.62
697.272	13.62
697.301	15.62
697.329	7.62
697.358	-0.38
697.387	17.62
697.415	5.62
697.444	4.62
697.473	7.62
697.502	-7.38
697.53	0.62
697.559	4.62
697.588	-11.38
697.616	-16.38
697.645	-18.38
697.674	5.62
697.703	-7.38
697.731	2.62
697.76	-1.38
697.789	5.62
697.817	-0.38
697.846	26.62
697.875	-0.38
697.903	22.62
697.932	10.62
697.961	4.62
697.989	8.62
698.018	-0.38
698.047	3.62
698.075	1.62
698.104	0.62
698.133	1.62
698.161	0.62
698.19	7.62
698.218	16.62
698.247	3.62
698.276	-11.38
698.304	18.62
698.333	0.62
698.362	11.62
698.39	3.62
698.419	-4.38
698.447	-4.38
698.476	2.62
698.505	16.62
698.533	1.62
698.562	-0.38
698.591	-11.38
698.619	-11.38
698.648	10.62
698.676	-4.38
698.705	-13.38
698.733	-7.38
698.762	21.62
698.791	12.62
698.819	-8.38
698.848	1.62
698.876	8.62
698.905	4.62
698.933	9.62
698.962	-12.38
698.991	-8.38
699.019	9.62
699.048	11.62
699.076	2.62
699.105	0.62
699.133	-4.38
699.162	-0.38
699.19	-3.38
699.219	-9.38
699.248	-5.38
699.276	-4.38
699.305	-3.38
699.333	3.62
699.362	6.62
699.39	0.62
699.419	-3.38
699.447	11.62
699.476	-6.38
699.504	7.62
699.533	12.62
699.561	-3.38
699.59	-3.38
699.618	-2.38
699.647	-12.38
699.675	-7.38
699.704	20.62
699.732	-3.38
699.761	10.62
699.789	7.62
699.818	-4.38
699.846	4.62
699.874	1.62
699.903	-7.38
699.931	-3.38
699.96	8.62
699.988	-7.38
700.017	-4.38
700.045	-4.38
700.074	1.62
700.102	6.62
700.13	-5.38
700.159	5.62
700.187	12.62
700.216	-14.38
700.244	-8.38
700.273	0.62
700.301	-6.38
700.329	-5.38
700.358	9.62
700.386	-10.38
700.415	-6.38
700.443	7.62
700.472	1.62
700.5	-3.38
700.528	18.62
700.557	9.62
700.585	-4.38
700.614	2.62
700.642	11.62
700.67	25.62
700.699	8.62
700.727	2.62
700.755	3.62
700.784	17.62
700.812	8.62
700.841	7.62
700.869	-6.38
700.897	-28.38
700.926	-5.38
700.954	-2.38
700.982	3.62
701.011	-4.38
701.039	-9.38
701.067	6.62
701.096	10.62
701.124	-12.38
701.152	-3.38
701.181	7.62
701.209	-6.38
701.237	-8.38
701.266	4.62
701.294	2.62
701.322	4.62
701.351	3.62
701.379	5.62
701.407	-0.38
701.435	-1.38
701.464	0.62
701.492	8.62
701.52	0.62
701.549	10.62
701.577	-8.38
701.605	-11.38
701.634	-0.38
701.662	-5.38
701.69	-10.38
701.718	-15.38
701.747	7.62
701.775	-7.38
701.803	-5.38
701.831	4.62
701.86	-4.38
701.888	-6.38
701.916	11.62
701.944	0.62
701.973	-16.38
702.001	-14.38
702.029	0.62
702.057	2.62
702.086	-15.38
702.114	-15.38
702.142	-9.38
702.17	-5.38
702.199	-13.38
702.227	-5.38
702.255	-1.38
702.283	-2.38
702.311	5.62
702.34	-5.38
702.368	-0.38
702.396	-16.38
702.424	-2.38
702.452	-5.38
702.481	0.62
702.509	-6.38
702.537	-4.38
702.565	5.62
702.593	-41.38
702.621	1.62
702.65	-1.38
702.678	8.62
702.706	-10.38
702.734	-15.38
702.762	-4.38
702.79	0.62
702.819	2.62
702.847	12.62
702.875	18.62
702.903	16.62
702.931	-8.38
702.959	-5.38
702.988	10.62
703.016	-23.38
703.044	-6.38
703.072	-0.38
703.1	4.62
703.128	1.62
703.156	-3.38
703.184	-11.38
703.212	7.62
703.241	-4.38
703.269	-6.38
703.297	-6.38
703.325	-7.38
703.353	-9.38
703.381	-7.38
703.409	6.62
703.437	-6.38
703.465	-4.38
703.493	9.62
703.522	6.62
703.55	4.62
703.578	-5.38
703.606	-5.38
703.634	-10.38
703.662	-22.38
703.69	-10.38
703.718	7.62
703.746	16.62
703.774	0.62
703.802	20.62
703.83	-5.38
703.858	2.62
703.886	-3.38
703.914	-4.38
703.942	11.62
703.97	-10.38
703.998	3.62
704.027	11.62
704.055	15.62
704.083	-3.38
704.111	-16.38
704.139	-0.38
704.167	-6.38
704.195	-7.38
704.223	-4.38
704.251	-3.38
704.279	10.62
704.307	0.62
704.335	-18.38
704.363	-8.38
704.391	-6.38
704.419	2.62
704.447	-3.38
704.475	5.62
704.503	-3.38
704.531	10.62
704.558	-3.38
704.586	13.62
704.614	-5.38
704.642	-5.38
704.67	-21.38
704.698	-11.38
704.726	-1.38
704.754	8.62
704.782	-0.38
704.81	-9.38
704.838	0.62
704.866	2.62
704.894	-1.38
704.922	-9.38
704.95	10.62
704.978	4.62
705.006	8.62
705.034	6.62
705.061	-7.38
705.089	-3.38
705.117	-14.38
705.145	3.62
705.173	0.62
705.201	-4.38
705.229	8.62
705.257	-19.38
705.285	-2.38
705.313	11.62
705.34	-11.38
705.368	-9.38
705.396	7.62
705.424	-2.38
705.452	-3.38
705.48	-6.38
705.508	-8.38
705.536	-3.38
705.563	-12.38
705.591	-10.38
705.619	-2.38
705.647	-11.38
705.675	1.62
705.703	-4.38
705.731	-5.38
705.758	-3.38
705.786	-4.38
705.814	6.62
705.842	-7.38
705.87	24.62
705.898	15.62
705.925	-15.38
705.953	-2.38
705.981	-19.38
706.009	-9.38
706.037	-2.38
706.065	-10.38
706.092	-15.38
706.12	-3.38
706.148	-14.38
706.176	-13.38
706.204	4.62
706.231	1.62
706.259	-12.38
706.287	-7.38
706.315	8.62
706.342	0.62
706.37	12.62
706.398	-8.38
706.426	5.62
706.454	-3.38
706.481	-7.38
706.509	-10.38
706.537	-15.38
706.565	0.62
706.592	0.62
706.62	13.62
706.648	9.62
706.676	-4.38
706.703	-14.38
706.731	-12.38
706.759	-25.38
706.787	-2.38
706.814	-3.38
706.842	-5.38
706.87	5.62
706.897	-7.38
706.925	-0.38
706.953	7.62
706.981	8.62
707.008	0.62
707.036	6.62
707.064	1.62
707.091	-18.38
707.119	2.62
707.147	0.62
707.174	-4.38
707.202	21.62
707.23	-16.38
707.258	-5.38
707.285	-3.38
707.313	3.62
707.341	-3.38
707.368	-4.38
707.396	5.62
707.424	1.62
707.451	-3.38
707.479	-2.38
707.507	-11.38
707.534	-4.38
707.562	7.62
707.59	-20.38
707.617	-15.38
707.645	7.62
707.672	-5.38
707.7	-9.38
707.728	4.62
707.755	12.62
707.783	-13.38
707.811	-13.38
707.838	-14.38
707.866	-2.38
707.893	1.62
707.921	-5.38
707.949	-7.38
707.976	-2.38
708.004	-7.38
708.031	-10.38
708.059	-11.38
708.087	-13.38
708.114	-8.38
708.142	-15.38
708.169	1.62
708.197	-12.38
708.225	-6.38
708.252	-19.38
708.28	6.62
708.307	4.62
708.335	5.62
708.362	-10.38
708.39	-19.38
708.418	15.62
708.445	-0.38
708.473	5.62
708.5	-5.38
708.528	2.62
708.555	13.62
708.583	-14.38
708.61	-5.38
708.638	14.62
708.665	-5.38
708.693	-6.38
708.72	-7.38
708.748	-13.38
708.776	-14.38
708.803	7.62
708.831	2.62
708.858	5.62
708.886	4.62
708.913	1.62
708.941	4.62
708.968	9.62
708.996	-0.38
709.023	17.62
709.051	-0.38
709.078	-12.38
709.105	8.62
709.133	7.62
709.16	-6.38
709.188	7.62
709.215	-4.38
709.243	-0.38
709.27	-14.38
709.298	-12.38
709.325	-16.38
709.353	-11.38
709.38	0.62
709.408	-0.38
709.435	0.62
709.462	0.62
709.49	-5.38
709.517	-9.38
709.545	-3.38
709.572	0.62
709.6	-4.38
709.627	7.62
709.655	-6.38
709.682	1.62
709.709	3.62
709.737	-11.38
709.764	-9.38
709.792	3.62
709.819	-10.38
709.846	-10.38
709.874	-7.38
709.901	0.62
709.929	27.62
709.956	16.62
709.983	-7.38
710.011	-3.38
710.038	-12.38
710.066	4.62
710.093	11.62
710.12	-6.38
710.148	-0.38
710.175	-14.38
710.202	-5.38
710.23	3.62
710.257	-2.38
710.284	-2.38
710.312	-13.38
710.339	-6.38
710.366	1.62
710.394	-13.38
710.421	3.62
710.448	8.62
710.476	-6.38
710.503	-2.38
710.53	4.62
710.558	19.62
710.585	7.62
710.612	-11.38
710.64	2.62
710.667	-16.38
710.694	-15.38
710.722	-6.38
710.749	-12.38
710.776	0.62
710.804	21.62
710.831	1.62
710.858	4.62
710.885	-3.38
710.913	0.62
710.94	11.62
710.967	-17.38
710.995	-19.38
711.022	-6.38
711.049	-3.38
711.076	-24.38
711.104	0.62
711.131	-21.38
711.158	-2.38
711.185	17.62
711.213	-8.38
711.24	-2.38
711.267	-20.38
711.294	-5.38
711.322	8.62
711.349	-5.38
711.376	-3.38
711.403	-9.38
711.431	-19.38
711.458	-4.38
711.485	-7.38
711.512	-8.38
711.54	-5.38
711.567	7.62
711.594	-7.38
711.621	-17.38
711.648	-2.38
711.676	-5.38
711.703	-11.38
711.73	-27.38
711.757	-1.38
711.784	0.62
711.812	-8.38
711.839	-1.38
711.866	-6.38
711.893	-14.38
711.92	-4.38
711.947	-8.38
711.975	-3.38
712.002	-7.38
712.029	8.62
712.056	7.62
712.083	4.62
712.11	-18.38
712.138	-9.38
712.165	-5.38
712.192	-6.38
712.219	-10.38
712.246	-8.38
712.273	-4.38
712.3	-19.38
712.328	-7.38
712.355	10.62
712.382	-22.38
712.409	3.62
712.436	-11.38
712.463	10.62
712.49	8.62
712.517	1.62
712.544	-2.38
712.572	-10.38
712.599	-7.38
712.626	0.62
712.653	-0.38
712.68	-11.38
712.707	0.62
712.734	-2.38
712.761	15.62
712.788	-4.38
712.815	-12.38
712.842	2.62
712.87	-8.38
712.897	-25.38
712.924	-18.38
712.951	-0.38
712.978	21.62
713.005	3.62
713.032	-12.38
713.059	-3.38
713.086	-10.38
713.113	-15.38
713.14	-21.38
713.167	-4.38
713.194	9.62
713.221	-5.38
713.248	-2.38
713.275	-6.38
713.302	-11.38
713.329	-0.38
713.356	3.62
713.383	0.62
713.41	0.62
713.437	-27.38
713.464	-4.38
713.491	3.62
713.518	-2.38
713.545	10.62
713.572	0.62
713.599	11.62
713.626	-10.38
713.653	-5.38
713.68	-16.38
713.707	-2.38
713.734	3.62
713.761	4.62
713.788	-15.38
713.815	4.62
713.842	1.62
713.869	-3.38
713.896	-5.38
713.923	-7.38
713.95	-12.38
713.977	-7.38
714.004	-2.38
714.031	-12.38
714.058	8.62
714.085	-8.38
714.112	5.62
714.139	7.62
714.165	10.62
714.192	3.62
714.219	2.62
714.246	2.62
714.273	-12.38
714.3	-1.38
714.327	6.62
714.354	5.62
714.381	-4.38
714.408	-4.38
714.435	-9.38
714.461	-7.38
714.488	0.62
714.515	-8.38
714.542	-4.38
714.569	-5.38
714.596	-16.38
714.623	-1.38
714.65	-18.38
714.677	1.62
714.703	-2.38
714.73	0.62
714.757	13.62
714.784	-3.38
714.811	-10.38
714.838	2.62
714.865	6.62
714.891	0.62
714.918	-7.38
714.945	-7.38
714.972	-2.38
714.999	-4.38
715.026	-18.38
715.052	3.62
715.079	-9.38
715.106	1.62
715.133	1.62
715.16	-5.38
715.187	-10.38
715.213	18.62
715.24	7.62
715.267	-4.38
715.294	-12.38
715.321	-0.38
715.347	0.62
715.374	-6.38
715.401	-2.38
715.428	-3.38
715.455	-7.38
715.481	-2.38
715.508	-1.38
715.535	-4.38
715.562	31.62
715.588	1.62
715.615	-5.38
715.642	-7.38
715.669	12.62
715.695	-10.38
715.722	-9.38
715.749	10.62
715.776	-2.38
715.802	-6.38
715.829	6.62
715.856	1.62
715.883	15.62
715.909	-13.38
715.936	0.62
715.963	15.62
715.99	-14.38
716.016	-3.38
716.043	3.62
716.07	-10.38
716.096	-10.38
716.123	-9.38
716.15	11.62
716.177	-3.38
716.203	4.62
716.23	9.62
716.257	0.62
716.283	10.62
716.31	4.62
716.337	14.62
716.363	-8.38
716.39	0.62
716.417	7.62
716.443	3.62
716.47	9.62
716.497	10.62
716.523	2.62
716.55	19.62
716.577	18.62
716.603	9.62
716.63	8.62
716.657	-0.38
716.683	-4.38
716.71	1.62
716.737	-2.38
716.763	-3.38
716.79	-0.38
716.817	1.62
716.843	0.62
716.87	0.62
716.897	-6.38
716.923	11.62
716.95	0.62
716.976	-1.38
717.003	-9.38
717.03	9.62
717.056	11.62
717.083	14.62
717.109	5.62
717.136	6.62
717.163	6.62
717.189	5.62
717.216	-0.38
717.242	-0.38
717.269	-3.38
717.296	-0.38
717.322	5.62
717.349	-0.38
717.375	19.62
717.402	-4.38
717.428	-0.38
717.455	13.62
717.481	-10.38
717.508	-0.38
717.535	11.62
717.561	-4.38
717.588	1.62
717.614	-0.38
717.641	8.62
717.667	9.62
717.694	1.62
717.72	-2.38
717.747	-2.38
717.773	-3.38
717.8	7.62
717.826	16.62
717.853	11.62
717.88	9.62
717.906	-5.38
717.933	-2.38
717.959	1.62
717.986	3.62
718.012	-9.38
718.039	5.62
718.065	19.62
718.092	-4.38
718.118	-20.38
718.144	-3.38
718.171	19.62
718.197	11.62
718.224	-6.38
718.25	9.62
718.277	9.62
718.303	-3.38
718.33	-3.38
718.356	-14.38
718.383	-9.38
718.409	11.62
718.436	0.62
718.462	-8.38
718.489	3.62
718.515	16.62
718.541	3.62
718.568	14.62
718.594	4.62
718.621	-0.38
718.647	2.62
718.674	15.62
718.7	-0.38
718.726	-4.38
718.753	3.62
718.779	3.62
718.806	-11.38
718.832	1.62
718.858	6.62
718.885	2.62
718.911	12.62
718.938	14.62
718.964	12.62
718.99	0.62
719.017	-1.38
719.043	23.62
719.07	0.62
719.096	-14.38
719.122	4.62
719.149	3.62
719.175	-6.38
719.201	7.62
719.228	5.62
719.254	7.62
719.281	-8.38
719.307	0.62
719.333	3.62
719.36	8.62
719.386	-3.38
719.412	5.62
719.439	-4.38
719.465	2.62
719.491	-5.38
719.518	-1.38
719.544	2.62
719.57	0.62
719.597	8.62
719.623	-10.38
719.649	-4.38
719.675	-3.38
719.702	11.62
719.728	20.62
719.754	-5.38
719.781	-7.38
719.807	-6.38
719.833	-3.38
719.86	0.62
719.886	-3.38
719.912	-4.38
719.938	1.62
719.965	-13.38
719.991	-1.38
720.017	-5.38
720.044	-11.38
720.07	-4.38
720.096	6.62
720.122	5.62
720.149	1.62
720.175	6.62
720.201	1.62
720.227	-1.38
720.254	13.62
720.28	-3.38
720.306	-2.38
720.332	1.62
720.359	-7.38
720.385	9.62
720.411	-0.38
720.437	1.62
720.463	1.62
720.49	3.62
720.516	-13.38
720.542	-7.38
720.568	-3.38
720.595	-7.38
720.621	7.62
720.647	7.62
720.673	-1.38
720.699	-2.38
720.725	-2.38
720.752	7.62
720.778	-4.38
720.804	-4.38
720.83	26.62
720.856	-3.38
720.883	-7.38
720.909	4.62
720.935	8.62
720.961	7.62
720.987	4.62
721.013	0.62
721.04	-11.38
721.066	-10.38
721.092	-5.38
721.118	8.62
721.144	-11.38
721.17	-9.38
721.196	-5.38
721.223	-3.38
721.249	-0.38
721.275	9.62
721.301	1.62
721.327	11.62
721.353	7.62
721.379	-5.38
721.405	4.62
721.432	9.62
721.458	-11.38
721.484	-1.38
721.51	-15.38
721.536	4.62
721.562	18.62
721.588	15.62
721.614	-4.38
721.64	-6.38
721.666	-2.38
721.693	-20.38
721.719	4.62
721.745	-2.38
721.771	-9.38
721.797	-0.38
721.823	3.62
721.849	8.62
721.875	9.62
721.901	27.62
721.927	7.62
721.953	1.62
721.979	15.62
722.005	16.62
722.031	-3.38
722.057	8.62
722.083	4.62
722.109	6.62
722.135	8.62
722.161	1.62
722.187	-18.38
722.214	-4.38
722.24	-9.38
722.266	-8.38
722.292	9.62
722.318	3.62
722.344	7.62
722.37	17.62
722.396	0.62
722.422	-2.38
722.448	2.62
722.474	-7.38
722.5	4.62
722.526	-2.38
722.552	-11.38
722.578	3.62
722.603	1.62
722.629	-12.38
722.655	-10.38
722.681	-15.38
722.707	-3.38
722.733	-2.38
722.759	-0.38
722.785	1.62
722.811	-0.38
722.837	13.62
722.863	19.62
722.889	19.62
722.915	-3.38
722.941	-16.38
722.967	-12.38
722.993	4.62
723.019	14.62
723.045	1.62
723.071	16.62
723.097	2.62
723.122	1.62
723.148	-16.38
723.174	2.62
723.2	8.62
723.226	-3.38
723.252	5.62
723.278	-7.38
723.304	-0.38
723.33	5.62
723.356	-2.38
723.381	-3.38
723.407	-1.38
723.433	3.62
723.459	-12.38
723.485	-3.38
723.511	10.62
723.537	-2.38
723.563	11.62
723.588	-0.38
723.614	-0.38
723.64	-8.38
723.666	4.62
723.692	-2.38
723.718	-12.38
723.744	-13.38
723.769	-1.38
723.795	-4.38
723.821	-0.38
723.847	-9.38
723.873	3.62
723.899	-0.38
723.924	-9.38
723.95	-0.38
723.976	-27.38
724.002	4.62
724.028	-6.38
724.053	-6.38
724.079	-2.38
724.105	2.62
724.131	-4.38
724.157	-10.38
724.182	4.62
724.208	-5.38
724.234	-6.38
724.26	1.62
724.286	8.62
724.311	-11.38
724.337	-14.38
724.363	-5.38
724.389	-3.38
724.415	-3.38
724.44	16.62
724.466	-0.38
724.492	-4.38
724.518	4.62
724.543	4.62
724.569	17.62
724.595	11.62
724.621	0.62
724.646	2.62
724.672	-8.38
724.698	-3.38
724.723	-7.38
724.749	-3.38
724.775	6.62
724.801	9.62
724.826	-4.38
724.852	-7.38
724.878	-8.38
724.904	-21.38
724.929	-5.38
724.955	-11.38
724.981	-10.38
725.006	-7.38
725.032	-4.38
725.058	4.62
725.083	-19.38
725.109	-5.38
725.135	8.62
725.161	4.62
725.186	-11.38
725.212	1.62
725.238	6.62
725.263	-2.38
725.289	-10.38
725.315	-27.38
725.34	-4.38
725.366	-0.38
725.392	-8.38
725.417	12.62
725.443	4.62
725.468	9.62
725.494	5.62
725.52	-1.38
725.545	-6.38
725.571	5.62
725.597	-0.38
725.622	3.62
725.648	6.62
725.674	2.62
725.699	-14.38
725.725	-0.38
725.75	9.62
725.776	-11.38
725.802	-0.38
725.827	1.62
725.853	-11.38
725.878	-3.38
725.904	-4.38
725.93	8.62
725.955	-4.38
725.981	-11.38
726.006	-5.38
726.032	14.62
726.057	-17.38
726.083	-16.38
726.109	10.62
726.134	7.62
726.16	-8.38
726.185	-0.38
726.211	-11.38
726.236	7.62
726.262	10.62
726.288	-0.38
726.313	10.62
726.339	5.62
726.364	7.62
726.39	10.62
726.415	0.62
726.441	1.62
726.466	-14.38
726.492	0.62
726.517	6.62
726.543	2.62
726.568	-2.38
726.594	-13.38
726.619	11.62
726.645	-2.38
726.67	8.62
726.696	10.62
726.721	1.62
726.747	0.62
726.772	0.62
726.798	3.62
726.823	3.62
726.849	-2.38
726.874	-0.38
726.9	20.62
726.925	8.62
726.951	7.62
726.976	7.62
727.002	6.62
727.027	7.62
727.053	21.62
727.078	-7.38
727.104	13.62
727.129	-4.38
727.155	-3.38
727.18	5.62
727.205	-15.38
727.231	-3.38
727.256	-4.38
727.282	-8.38
727.307	5.62
727.333	-8.38
727.358	-8.38
727.383	-8.38
727.409	-21.38
727.434	2.62
727.46	4.62
727.485	-18.38
727.511	-12.38
727.536	-14.38
727.561	6.62
727.587	1.62
727.612	1.62
727.637	-5.38
727.663	-5.38
727.688	26.62
727.714	1.62
727.739	-4.38
727.764	0.62
727.79	0.62
727.815	4.62
727.841	9.62
727.866	-4.38
727.891	-1.38
727.917	-0.38
727.942	1.62
727.967	-5.38
727.993	-6.38
728.018	-10.38
728.043	3.62
728.069	8.62
728.094	14.62
728.119	4.62
728.145	8.62
728.17	-7.38
728.195	1.62
728.221	1.62
728.246	-5.38
728.271	-31.38
728.297	-5.38
728.322	11.62
728.347	2.62
728.373	-7.38
728.398	4.62
728.423	-0.38
728.448	-3.38
728.474	-15.38
728.499	-8.38
728.524	-13.38
728.55	-21.38
728.575	-6.38
728.6	-5.38
728.625	2.62
728.651	0.62
728.676	-10.38
728.701	-8.38
728.727	-11.38
728.752	-13.38
728.777	-4.38
728.802	0.62
728.828	-4.38
728.853	-6.38
728.878	3.62
728.903	-5.38
728.929	-13.38
728.954	2.62
728.979	12.62
729.004	-11.38
729.03	-6.38
729.055	-0.38
729.08	-19.38
729.105	-6.38
729.13	8.62
729.156	10.62
729.181	-4.38
729.206	-23.38
729.231	-6.38
729.256	7.62
729.282	-8.38
729.307	-6.38
729.332	6.62
729.357	-4.38
729.382	4.62
729.408	8.62
729.433	-0.38
729.458	7.62
729.483	10.62
729.508	4.62
729.533	-9.38
729.559	-4.38
729.584	-3.38
729.609	3.62
729.634	-2.38
729.659	-3.38
729.684	-6.38
729.71	28.62
729.735	4.62
729.76	-13.38
729.785	-3.38
729.81	-0.38
729.835	-22.38
729.86	-22.38
729.886	11.62
729.911	16.62
729.936	-6.38
729.961	-0.38
729.986	-20.38
730.011	-7.38
730.036	3.62
730.061	-1.38
730.086	-0.38
730.112	-7.38
730.137	10.62
730.162	5.62
730.187	-8.38
730.212	4.62
730.237	4.62
730.262	-15.38
730.287	-6.38
730.312	7.62
730.337	-14.38
730.362	9.62
730.387	2.62
730.413	-5.38
730.438	-2.38
730.463	8.62
730.488	-8.38
730.513	-10.38
730.538	-5.38
730.563	0.62
730.588	-5.38
730.613	7.62
730.638	-8.38
730.663	-2.38
730.688	12.62
730.713	-5.38
730.738	-6.38
730.763	-10.38
730.788	-20.38
730.813	7.62
730.838	-8.38
730.863	6.62
730.888	9.62
730.913	-14.38
730.938	-15.38
730.963	0.62
730.988	9.62
731.013	25.62
731.038	0.62
731.063	-3.38
731.088	-2.38
731.113	0.62
731.138	10.62
731.163	0.62
731.188	-7.38
731.213	-0.38
731.238	-6.38
731.263	-4.38
731.288	-0.38
731.313	-5.38
731.338	18.62
731.363	0.62
731.388	-0.38
731.413	-4.38
731.438	14.62
731.463	7.62
731.487	-1.38
731.512	-5.38
731.537	7.62
731.562	-9.38
731.587	-7.38
731.612	-22.38
731.637	-0.38
731.662	-6.38
731.687	-3.38
731.712	-9.38
731.737	8.62
731.762	-7.38
731.786	-6.38
731.811	3.62
731.836	8.62
731.861	0.62
731.886	-7.38
731.911	1.62
731.936	21.62
731.961	-1.38
731.986	-3.38
732.01	6.62
732.035	-2.38
732.06	11.62
732.085	2.62
732.11	3.62
732.135	-8.38
732.16	0.62
732.184	2.62
732.209	3.62
732.234	-0.38
732.259	-15.38
732.284	11.62
732.309	1.62
732.334	6.62
732.358	-15.38
732.383	-10.38
732.408	-15.38
732.433	6.62
732.458	3.62
732.482	5.62
732.507	-15.38
732.532	-10.38
732.557	13.62
732.582	-5.38
732.607	7.62
732.631	-6.38
732.656	-6.38
732.681	-1.38
732.706	-5.38
732.73	-9.38
732.755	-12.38
732.78	6.62
732.805	-9.38
732.83	-6.38
732.854	-4.38
732.879	6.62
732.904	2.62
732.929	-16.38
732.953	-0.38
732.978	10.62
733.003	-6.38
733.028	-13.38
733.052	-15.38
733.077	-2.38
733.102	-3.38
733.127	3.62
733.151	-4.38
733.176	2.62
733.201	-6.38
733.226	-9.38
733.25	-3.38
733.275	-7.38
733.3	-0.38
733.324	14.62
733.349	1.62
733.374	1.62
733.399	-0.38
733.423	-17.38
733.448	-18.38
733.473	-8.38
733.497	-13.38
733.522	-14.38
733.547	9.62
733.571	-3.38
733.596	-4.38
733.621	-6.38
733.646	0.62
733.67	-7.38
733.695	-15.38
733.72	-8.38
733.744	-0.38
733.769	3.62
733.794	11.62
733.818	-4.38
733.843	-11.38
733.867	-10.38
733.892	-0.38
733.917	-2.38
733.941	-7.38
733.966	-21.38
733.991	-4.38
734.015	3.62
734.04	1.62
734.065	-9.38
734.089	-3.38
734.114	0.62
734.138	4.62
734.163	-11.38
734.188	1.62
734.212	19.62
734.237	2.62
734.261	-5.38
734.286	-10.38
734.311	-2.38
734.335	10.62
734.36	-18.38
734.384	4.62
734.409	3.62
734.434	-4.38
734.458	10.62
734.483	-1.38
734.507	1.62
734.532	-0.38
734.556	-0.38
734.581	-8.38
734.606	-12.38
734.63	-5.38
734.655	0.62
734.679	4.62
734.704	-0.38
734.728	-5.38
734.753	-6.38
734.777	6.62
734.802	-0.38
734.826	6.62
734.851	3.62
734.876	9.62
734.9	8.62
734.925	10.62
734.949	0.62
734.974	3.62
734.998	7.62
735.023	1.62
735.047	-15.38
735.072	8.62
735.096	-2.38
735.121	-0.38
735.145	-0.38
735.17	-5.38
735.194	13.62
735.219	4.62
735.243	9.62
735.268	7.62
735.292	6.62
735.317	-5.38
735.341	1.62
735.365	-11.38
735.39	7.62
735.414	18.62
735.439	-8.38
735.463	-0.38
735.488	-3.38
735.512	-11.38
735.537	7.62
735.561	3.62
735.586	9.62
735.61	20.62
735.634	1.62
735.659	5.62
735.683	24.62
735.708	-18.38
735.732	-9.38
735.757	-3.38
735.781	1.62
735.805	11.62
735.83	-10.38
735.854	1.62
735.879	8.62
735.903	8.62
735.927	3.62
735.952	1.62
735.976	-9.38
736.001	-4.38
736.025	5.62
736.049	5.62
736.074	-24.38
736.098	-12.38
736.123	4.62
736.147	4.62
736.171	-3.38
736.196	-8.38
736.22	-7.38
736.244	-9.38
736.269	3.62
736.293	-4.38
736.317	-14.38
736.342	6.62
736.366	16.62
736.39	3.62
736.415	-4.38
736.439	7.62
736.463	2.62
736.488	-2.38
736.512	-3.38
736.536	12.62
736.561	25.62
736.585	5.62
736.609	-0.38
736.634	-1.38
736.658	-5.38
736.682	-20.38
736.707	1.62
736.731	0.62
736.755	-5.38
736.78	15.62
736.804	-0.38
736.828	-4.38
736.852	-3.38
736.877	-4.38
736.901	2.62
736.925	-4.38
736.949	-6.38
736.974	0.62
736.998	-8.38
737.022	5.62
737.047	-2.38
737.071	-11.38
737.095	-5.38
737.119	19.62
737.144	15.62
737.168	7.62
737.192	3.62
737.216	10.62
737.241	1.62
737.265	0.62
737.289	8.62
737.313	3.62
737.337	-3.38
737.362	8.62
737.386	-2.38
737.41	-8.38
737.434	10.62
737.459	4.62
737.483	11.62
737.507	5.62
737.531	5.62
737.555	7.62
737.58	18.62
737.604	11.62
737.628	-8.38
737.652	-4.38
737.676	-8.38
737.701	-4.38
737.725	1.62
737.749	-2.38
737.773	-8.38
737.797	-13.38
737.821	-9.38
737.846	-3.38
737.87	23.62
737.894	-5.38
737.918	-6.38
737.942	-6.38
737.966	0.62
737.99	8.62
738.015	-8.38
738.039	-7.38
738.063	-2.38
738.087	16.62
738.111	-5.38
738.135	-0.38
738.159	-3.38
738.184	5.62
738.208	9.62
738.232	-1.38
738.256	18.62
738.28	4.62
738.304	3.62
738.328	0.62
738.352	9.62
738.376	-8.38
738.4	12.62
738.425	0.62
738.449	-13.38
738.473	6.62
738.497	-0.38
738.521	-0.38
738.545	15.62
738.569	1.62
738.593	5.62
738.617	-3.38
738.641	-4.38
738.665	-6.38
738.689	1.62
738.713	5.62
738.737	3.62
738.762	7.62
738.786	3.62
738.81	-15.38
738.834	7.62
738.858	-3.38
738.882	2.62
738.906	-10.38
738.93	7.62
738.954	5.62
738.978	6.62
739.002	7.62
739.026	9.62
739.05	6.62
739.074	-2.38
739.098	14.62
739.122	3.62
739.146	10.62
739.17	9.62
739.194	9.62
739.218	-0.38
739.242	-18.38
739.266	-10.38
739.29	16.62
739.314	-1.38
739.338	1.62
739.362	5.62
739.386	18.62
739.41	-2.38
739.434	-15.38
739.458	13.62
739.482	-5.38
739.506	9.62
739.53	11.62
739.554	8.62
739.577	-2.38
739.601	6.62
739.625	-7.38
739.649	8.62
739.673	1.62
739.697	-2.38
739.721	4.62
739.745	16.62
739.769	15.62
739.793	4.62
739.817	29.62
739.841	-4.38
739.865	2.62
739.889	-13.38
739.912	8.62
739.936	-5.38
739.96	15.62
739.984	11.62
740.008	-3.38
740.032	-0.38
740.056	-2.38
740.08	-0.38
740.104	-20.38
740.127	-4.38
740.151	4.62
740.175	4.62
740.199	21.62
740.223	43.62
740.247	2.62
740.271	2.62
740.295	-2.38
740.318	-22.38
740.342	-1.38
740.366	7.62
740.39	11.62
740.414	1.62
740.438	-4.38
740.461	13.62
740.485	1.62
740.509	-1.38
740.533	6.62
740.557	-5.38
740.581	-2.38
740.604	-8.38
740.628	-4.38
740.652	19.62
740.676	-4.38
740.7	-2.38
740.723	-14.38
740.747	-6.38
740.771	14.62
740.795	-7.38
740.819	6.62
740.842	-3.38
740.866	6.62
740.89	4.62
740.914	-7.38
740.938	-4.38
740.961	10.62
740.985	-8.38
741.009	-0.38
741.033	3.62
741.056	6.62
741.08	-7.38
741.104	13.62
741.128	-0.38
741.151	9.62
741.175	-3.38
741.199	14.62
741.223	1.62
741.246	-6.38
741.27	1.62
741.294	12.62
741.318	-10.38
741.341	-10.38
741.365	12.62
741.389	5.62
741.413	16.62
741.436	10.62
741.46	17.62
741.484	7.62
741.507	6.62
741.531	17.62
741.555	-4.38
741.579	4.62
741.602	-1.38
741.626	13.62
741.65	-0.38
741.673	20.62
741.697	0.62
741.721	0.62
741.744	-10.38
741.768	2.62
741.792	-8.38
741.815	-8.38
741.839	11.62
741.863	1.62
741.886	17.62
741.91	23.62
741.934	-13.38
741.957	-18.38
741.981	13.62
742.005	-2.38
742.028	0.62
742.052	-2.38
742.075	3.62
742.099	9.62
742.123	-6.38
742.146	-1.38
742.17	4.62
742.194	-18.38
742.217	-10.38
742.241	-0.38
742.264	-10.38
742.288	6.62
742.312	6.62
742.335	-2.38
742.359	5.62
742.382	-5.38
742.406	23.62
742.43	3.62
742.453	7.62
742.477	10.62
742.5	4.62
742.524	-7.38
742.548	-3.38
742.571	7.62
742.595	4.62
742.618	-4.38
742.642	-9.38
742.665	9.62
742.689	-12.38
742.712	14.62
742.736	3.62
742.76	5.62
742.783	7.62
742.807	8.62
742.83	15.62
742.854	-2.38
742.877	0.62
742.901	-5.38
742.924	-6.38
742.948	13.62
742.971	11.62
742.995	-0.38
743.018	5.62
743.042	-4.38
743.065	-6.38
743.089	-7.38
743.112	14.62
743.136	-7.38
743.159	-3.38
743.183	-5.38
743.206	11.62
743.23	-6.38
743.253	3.62
743.277	0.62
743.3	0.62
743.324	-3.38
743.347	-0.38
743.371	7.62
743.394	0.62
743.418	26.62
743.441	20.62
743.465	5.62
743.488	-2.38
743.512	-22.38
743.535	1.62
743.558	-4.38
743.582	0.62
743.605	-3.38
743.629	12.62
743.652	7.62
743.676	0.62
743.699	-2.38
743.723	2.62
743.746	-3.38
743.769	-0.38
743.793	4.62
743.816	4.62
743.84	21.62
743.863	-5.38
743.886	-6.38
743.91	14.62
743.933	3.62
743.957	-5.38
743.98	-1.38
744.003	0.62
744.027	3.62
744.05	-21.38
744.074	-7.38
744.097	-0.38
744.12	1.62
744.144	-10.38
744.167	4.62
744.19	4.62
744.214	-15.38
744.237	1.62
744.26	14.62
744.284	4.62
744.307	-11.38
744.331	2.62
744.354	-15.38
744.377	-14.38
744.401	1.62
744.424	3.62
744.447	-7.38
744.471	-8.38
