Data from HighRes_H2D2_15_04_11_07_2024_HR4C61891__83__15-05-42-742.txt Node

Date: Thu Nov 07 15:05:42 EST 2024
User: crc00042
Spectrometer: HR4C6189
Trigger mode: 4
Integration Time (sec): 1.000000E-1
Scans to average: 1
Electric dark correction enabled: true
Nonlinearity correction enabled: false
Boxcar width: 0
XAxis mode: Wavelengths
Number of Pixels in Spectrum: 3648
>>>>>Begin Spectral Data<<<<<
639.567	-74.77
639.602	-74.77
639.636	-74.77
639.67	-52.77
639.704	-24.77
639.738	-6.77
639.773	5.23
639.807	-6.77
639.841	3.23
639.875	15.23
639.909	1.23
639.943	-8.77
639.978	-2.77
640.012	7.23
640.046	9.23
640.08	-7.77
640.114	5.23
640.148	-13.77
640.182	-3.77
640.217	-4.77
640.251	10.23
640.285	20.23
640.319	1.23
640.353	0.23
640.387	13.23
640.421	3.23
640.455	-12.77
640.49	-1.77
640.524	-2.77
640.558	5.23
640.592	-15.77
640.626	1.23
640.66	2.23
640.694	-4.77
640.728	-2.77
640.762	-0.77
640.796	0.23
640.83	22.23
640.865	-7.77
640.899	-0.77
640.933	1.23
640.967	-3.77
641.001	9.23
641.035	13.23
641.069	-2.77
641.103	-12.77
641.137	-11.77
641.171	-10.77
641.205	5.23
641.239	2.23
641.273	2.23
641.307	-4.77
641.341	12.23
641.375	-3.77
641.409	-15.77
641.443	-8.77
641.477	2.23
641.511	13.23
641.545	12.23
641.579	0.23
641.614	1.23
641.648	14.23
641.682	-16.77
641.716	4.23
641.75	-2.77
641.784	8.23
641.818	1.23
641.852	14.23
641.886	2.23
641.919	14.23
641.953	10.23
641.987	3.23
642.021	7.23
642.055	2.23
642.089	1.23
642.123	-10.77
642.157	-9.77
642.191	-15.77
642.225	20.23
642.259	4.23
642.293	12.23
642.327	-3.77
642.361	9.23
642.395	13.23
642.429	19.23
642.463	9.23
642.497	14.23
642.531	5.23
642.565	-3.77
642.599	8.23
642.633	0.23
642.666	14.23
642.7	10.23
642.734	5.23
642.768	-3.77
642.802	-2.77
642.836	-2.77
642.87	9.23
642.904	-5.77
642.938	14.23
642.972	10.23
643.005	10.23
643.039	23.23
643.073	0.23
643.107	12.23
643.141	0.23
643.175	10.23
643.209	-7.77
643.243	5.23
643.276	30.23
643.31	-2.77
643.344	-7.77
643.378	-2.77
643.412	10.23
643.446	10.23
643.48	2.23
643.513	10.23
643.547	2.23
643.581	-4.77
643.615	1.23
643.649	0.23
643.683	-5.77
643.716	-0.77
643.75	9.23
643.784	-10.77
643.818	11.23
643.852	4.23
643.886	9.23
643.919	11.23
643.953	3.23
643.987	-9.77
644.021	6.23
644.055	18.23
644.088	5.23
644.122	-8.77
644.156	-10.77
644.19	-14.77
644.224	7.23
644.257	15.23
644.291	8.23
644.325	11.23
644.359	6.23
644.392	12.23
644.426	14.23
644.46	5.23
644.494	-11.77
644.527	0.23
644.561	1.23
644.595	-5.77
644.629	-9.77
644.662	-6.77
644.696	6.23
644.73	7.23
644.764	10.23
644.797	2.23
644.831	-4.77
644.865	12.23
644.899	14.23
644.932	18.23
644.966	19.23
645	13.23
645.033	2.23
645.067	-8.77
645.101	8.23
645.135	9.23
645.168	-0.77
645.202	1.23
645.236	13.23
645.269	18.23
645.303	7.23
645.337	-6.77
645.37	-1.77
645.404	25.23
645.438	20.23
645.471	10.23
645.505	10.23
645.539	6.23
645.572	4.23
645.606	-4.77
645.64	-1.77
645.673	13.23
645.707	19.23
645.741	5.23
645.774	-13.77
645.808	15.23
645.842	-15.77
645.875	5.23
645.909	-7.77
645.943	-19.77
645.976	23.23
646.01	10.23
646.043	11.23
646.077	16.23
646.111	4.23
646.144	10.23
646.178	9.23
646.212	-0.77
646.245	6.23
646.279	8.23
646.312	16.23
646.346	12.23
646.38	0.23
646.413	-3.77
646.447	0.23
646.48	-6.77
646.514	-2.77
646.547	8.23
646.581	10.23
646.615	-0.77
646.648	-9.77
646.682	-13.77
646.715	9.23
646.749	3.23
646.782	-7.77
646.816	-13.77
646.85	13.23
646.883	1.23
646.917	-2.77
646.95	-11.77
646.984	2.23
647.017	1.23
647.051	10.23
647.084	4.23
647.118	-12.77
647.151	-6.77
647.185	-6.77
647.218	-13.77
647.252	7.23
647.285	-7.77
647.319	-13.77
647.353	1.23
647.386	9.23
647.42	-21.77
647.453	2.23
647.487	-2.77
647.52	-7.77
647.553	5.23
647.587	4.23
647.62	4.23
647.654	18.23
647.687	-5.77
647.721	-3.77
647.754	-1.77
647.788	-0.77
647.821	-4.77
647.855	8.23
647.888	25.23
647.922	4.23
647.955	-1.77
647.989	5.23
648.022	3.23
648.055	9.23
648.089	2.23
648.122	28.23
648.156	4.23
648.189	-0.77
648.223	8.23
648.256	25.23
648.29	12.23
648.323	7.23
648.356	16.23
648.39	-2.77
648.423	7.23
648.457	1.23
648.49	18.23
648.523	11.23
648.557	9.23
648.59	-7.77
648.624	-4.77
648.657	2.23
648.69	16.23
648.724	13.23
648.757	14.23
648.791	12.23
648.824	8.23
648.857	15.23
648.891	-2.77
648.924	9.23
648.957	19.23
648.991	-2.77
649.024	9.23
649.057	5.23
649.091	-7.77
649.124	21.23
649.158	8.23
649.191	27.23
649.224	3.23
649.258	5.23
649.291	8.23
649.324	16.23
649.358	4.23
649.391	-3.77
649.424	-2.77
649.458	10.23
649.491	-6.77
649.524	-8.77
649.557	-10.77
649.591	-4.77
649.624	9.23
649.657	-7.77
649.691	-2.77
649.724	0.23
649.757	-6.77
649.791	-2.77
649.824	18.23
649.857	14.23
649.89	-5.77
649.924	-9.77
649.957	14.23
649.99	-15.77
650.023	-7.77
650.057	-2.77
650.09	-15.77
650.123	-8.77
650.157	12.23
650.19	30.23
650.223	-6.77
650.256	4.23
650.29	1.23
650.323	8.23
650.356	4.23
650.389	-7.77
650.423	0.23
650.456	3.23
650.489	-7.77
650.522	3.23
650.555	9.23
650.589	10.23
650.622	14.23
650.655	18.23
650.688	-3.77
650.721	-4.77
650.755	1.23
650.788	14.23
650.821	14.23
650.854	0.23
650.887	4.23
650.921	-4.77
650.954	-3.77
650.987	12.23
651.02	4.23
651.053	-2.77
651.087	-0.77
651.12	14.23
651.153	17.23
651.186	-7.77
651.219	-16.77
651.252	1.23
651.286	11.23
651.319	0.23
651.352	10.23
651.385	8.23
651.418	10.23
651.451	23.23
651.484	12.23
651.518	-18.77
651.551	8.23
651.584	11.23
651.617	23.23
651.65	-1.77
651.683	-2.77
651.716	5.23
651.749	-20.77
651.783	2.23
651.816	-16.77
651.849	7.23
651.882	-1.77
651.915	1.23
651.948	0.23
651.981	-11.77
652.014	-7.77
652.047	-12.77
652.08	-13.77
652.114	2.23
652.147	-8.77
652.18	9.23
652.213	31.23
652.246	9.23
652.279	-10.77
652.312	5.23
652.345	4.23
652.378	1.23
652.411	0.23
652.444	1.23
652.477	11.23
652.51	4.23
652.543	-11.77
652.576	-0.77
652.609	10.23
652.642	8.23
652.675	17.23
652.709	11.23
652.742	20.23
652.775	17.23
652.808	6.23
652.841	5.23
652.874	-6.77
652.907	12.23
652.94	1.23
652.973	-2.77
653.006	-5.77
653.039	21.23
653.072	7.23
653.105	-3.77
653.138	2.23
653.171	-5.77
653.204	17.23
653.237	22.23
653.27	7.23
653.303	3.23
653.336	20.23
653.368	7.23
653.401	24.23
653.434	-12.77
653.467	13.23
653.5	-14.77
653.533	-10.77
653.566	10.23
653.599	5.23
653.632	0.23
653.665	11.23
653.698	-14.77
653.731	-26.77
653.764	3.23
653.797	9.23
653.83	5.23
653.863	-5.77
653.896	2.23
653.929	-3.77
653.961	-9.77
653.994	8.23
654.027	-1.77
654.06	12.23
654.093	-6.77
654.126	-1.77
654.159	-26.77
654.192	15.23
654.225	-0.77
654.258	4.23
654.29	16.23
654.323	-0.77
654.356	9.23
654.389	6.23
654.422	-0.77
654.455	11.23
654.488	7.23
654.521	-9.77
654.553	-13.77
654.586	14.23
654.619	8.23
654.652	0.23
654.685	-1.77
654.718	2.23
654.751	8.23
654.783	-10.77
654.816	11.23
654.849	9.23
654.882	6.23
654.915	-8.77
654.948	-1.77
654.98	-4.77
655.013	-8.77
655.046	-23.77
655.079	-4.77
655.112	-2.77
655.144	-0.77
655.177	7.23
655.21	11.23
655.243	10.23
655.276	2.23
655.308	5.23
655.341	2.23
655.374	10.23
655.407	-6.77
655.44	-8.77
655.472	9.23
655.505	9.23
655.538	5.23
655.571	32.23
655.603	10.23
655.636	2.23
655.669	16.23
655.702	2.23
655.734	-5.77
655.767	2.23
655.8	7.23
655.833	11.23
655.865	25.23
655.898	14.23
655.931	13.23
655.964	19.23
655.996	30.23
656.029	34.23
656.062	30.23
656.095	37.23
656.127	89.23
656.16	202.23
656.193	597.23
656.225	945.23
656.258	560.23
656.291	199.23
656.324	167.23
656.356	357.23
656.389	783.23
656.422	679.23
656.454	243.23
656.487	87.23
656.52	27.23
656.552	15.23
656.585	-4.77
656.618	19.23
656.65	5.23
656.683	16.23
656.716	13.23
656.748	7.23
656.781	-24.77
656.814	-3.77
656.846	7.23
656.879	-5.77
656.912	0.23
656.944	-12.77
656.977	-2.77
657.01	-21.77
657.042	10.23
657.075	14.23
657.108	2.23
657.14	3.23
657.173	17.23
657.205	25.23
657.238	8.23
657.271	9.23
657.303	-11.77
657.336	4.23
657.369	-4.77
657.401	-2.77
657.434	9.23
657.466	22.23
657.499	12.23
657.532	7.23
657.564	11.23
657.597	-18.77
657.629	-2.77
657.662	-11.77
657.694	18.23
657.727	-20.77
657.76	-6.77
657.792	-1.77
657.825	7.23
657.857	-1.77
657.89	5.23
657.922	11.23
657.955	-13.77
657.987	-1.77
658.02	11.23
658.053	9.23
658.085	7.23
658.118	14.23
658.15	20.23
658.183	28.23
658.215	2.23
658.248	-2.77
658.28	-2.77
658.313	15.23
658.345	18.23
658.378	-2.77
658.41	-0.77
658.443	8.23
658.475	14.23
658.508	3.23
658.54	8.23
658.573	-16.77
658.605	2.23
658.638	-1.77
658.67	-1.77
658.703	21.23
658.735	3.23
658.768	11.23
658.8	-2.77
658.833	16.23
658.865	0.23
658.898	-2.77
658.93	-0.77
658.963	0.23
658.995	-9.77
659.028	5.23
659.06	4.23
659.092	6.23
659.125	5.23
659.157	9.23
659.19	5.23
659.222	5.23
659.255	1.23
659.287	4.23
659.32	5.23
659.352	8.23
659.384	3.23
659.417	-3.77
659.449	0.23
659.482	8.23
659.514	0.23
659.546	2.23
659.579	-10.77
659.611	2.23
659.644	6.23
659.676	-13.77
659.708	-6.77
659.741	-11.77
659.773	11.23
659.806	-10.77
659.838	-2.77
659.87	16.23
659.903	-10.77
659.935	4.23
659.967	9.23
660	2.23
660.032	-25.77
660.065	19.23
660.097	2.23
660.129	0.23
660.162	-15.77
660.194	2.23
660.226	8.23
660.259	15.23
660.291	-9.77
660.323	-10.77
660.356	-4.77
660.388	-8.77
660.42	-2.77
660.453	15.23
660.485	21.23
660.517	19.23
660.55	22.23
660.582	-1.77
660.614	15.23
660.647	10.23
660.679	-4.77
660.711	14.23
660.743	-6.77
660.776	-20.77
660.808	1.23
660.84	-2.77
660.873	1.23
660.905	11.23
660.937	4.23
660.969	9.23
661.002	-9.77
661.034	9.23
661.066	5.23
661.099	8.23
661.131	14.23
661.163	-8.77
661.195	-0.77
661.228	30.23
661.26	5.23
661.292	6.23
661.324	5.23
661.357	11.23
661.389	12.23
661.421	5.23
661.453	-5.77
661.485	10.23
661.518	-4.77
661.55	-2.77
661.582	-0.77
661.614	0.23
661.647	11.23
661.679	2.23
661.711	-1.77
661.743	-10.77
661.775	6.23
661.808	17.23
661.84	-8.77
661.872	-5.77
661.904	2.23
661.936	-3.77
661.969	-7.77
662.001	6.23
662.033	-1.77
662.065	4.23
662.097	8.23
662.129	20.23
662.162	-3.77
662.194	-7.77
662.226	3.23
662.258	10.23
662.29	3.23
662.322	-13.77
662.355	-13.77
662.387	8.23
662.419	10.23
662.451	2.23
662.483	19.23
662.515	7.23
662.547	8.23
662.58	-10.77
662.612	10.23
662.644	-4.77
662.676	2.23
662.708	13.23
662.74	3.23
662.772	-5.77
662.804	-9.77
662.836	0.23
662.869	-5.77
662.901	15.23
662.933	9.23
662.965	18.23
662.997	-5.77
663.029	-0.77
663.061	11.23
663.093	11.23
663.125	13.23
663.157	17.23
663.189	-3.77
663.221	-6.77
663.254	-3.77
663.286	4.23
663.318	-15.77
663.35	-11.77
663.382	2.23
663.414	13.23
663.446	8.23
663.478	-1.77
663.51	-7.77
663.542	-3.77
663.574	16.23
663.606	8.23
663.638	-6.77
663.67	3.23
663.702	-6.77
663.734	-5.77
663.766	3.23
663.798	-9.77
663.83	4.23
663.862	15.23
663.894	10.23
663.926	1.23
663.958	11.23
663.99	7.23
664.022	-4.77
664.054	9.23
664.086	-13.77
664.118	-14.77
664.15	-3.77
664.182	10.23
664.214	14.23
664.246	14.23
664.278	7.23
664.31	7.23
664.342	12.23
664.374	4.23
664.406	10.23
664.438	9.23
664.47	17.23
664.502	-3.77
664.534	3.23
664.566	-0.77
664.598	8.23
664.63	-0.77
664.662	19.23
664.693	11.23
664.725	-2.77
664.757	2.23
664.789	-2.77
664.821	-13.77
664.853	7.23
664.885	6.23
664.917	-11.77
664.949	9.23
664.981	17.23
665.013	4.23
665.045	-1.77
665.076	3.23
665.108	3.23
665.14	-2.77
665.172	-7.77
665.204	-7.77
665.236	-8.77
665.268	7.23
665.3	-11.77
665.331	-3.77
665.363	8.23
665.395	-15.77
665.427	-16.77
665.459	12.23
665.491	-10.77
665.523	3.23
665.555	-5.77
665.586	-6.77
665.618	-3.77
665.65	-0.77
665.682	9.23
665.714	20.23
665.746	2.23
665.777	6.23
665.809	-6.77
665.841	3.23
665.873	6.23
665.905	0.23
665.937	9.23
665.968	7.23
666	-13.77
666.032	-5.77
666.064	-25.77
666.096	-4.77
666.127	2.23
666.159	13.23
666.191	9.23
666.223	7.23
666.255	10.23
666.286	1.23
666.318	2.23
666.35	21.23
666.382	4.23
666.413	0.23
666.445	-15.77
666.477	-20.77
666.509	0.23
666.54	13.23
666.572	11.23
666.604	3.23
666.636	8.23
666.667	6.23
666.699	22.23
666.731	4.23
666.763	-10.77
666.794	3.23
666.826	6.23
666.858	-0.77
666.89	13.23
666.921	11.23
666.953	-2.77
666.985	3.23
667.017	15.23
667.048	8.23
667.08	-5.77
667.112	-11.77
667.143	-3.77
667.175	9.23
667.207	17.23
667.238	5.23
667.27	-1.77
667.302	11.23
667.334	-2.77
667.365	13.23
667.397	-10.77
667.429	-15.77
667.46	15.23
667.492	15.23
667.524	0.23
667.555	-6.77
667.587	5.23
667.619	-9.77
667.65	-2.77
667.682	1.23
667.714	9.23
667.745	-2.77
667.777	7.23
667.808	16.23
667.84	8.23
667.872	-8.77
667.903	18.23
667.935	2.23
667.967	10.23
667.998	-8.77
668.03	12.23
668.061	8.23
668.093	17.23
668.125	-6.77
668.156	7.23
668.188	-8.77
668.22	-15.77
668.251	-13.77
668.283	-9.77
668.314	0.23
668.346	-14.77
668.377	2.23
668.409	1.23
668.441	4.23
668.472	0.23
668.504	-8.77
668.535	-4.77
668.567	24.23
668.599	0.23
668.63	-7.77
668.662	-21.77
668.693	12.23
668.725	15.23
668.756	12.23
668.788	-6.77
668.819	22.23
668.851	0.23
668.882	-2.77
668.914	-7.77
668.946	-11.77
668.977	-4.77
669.009	-0.77
669.04	-1.77
669.072	5.23
669.103	9.23
669.135	18.23
669.166	9.23
669.198	-1.77
669.229	8.23
669.261	5.23
669.292	-5.77
669.324	12.23
669.355	5.23
669.387	2.23
669.418	-4.77
669.45	-0.77
669.481	17.23
669.513	22.23
669.544	21.23
669.576	11.23
669.607	10.23
669.639	7.23
669.67	-0.77
669.701	13.23
669.733	-6.77
669.764	3.23
669.796	2.23
669.827	5.23
669.859	5.23
669.89	-3.77
669.922	14.23
669.953	9.23
669.985	0.23
670.016	21.23
670.047	-3.77
670.079	-15.77
670.11	-2.77
670.142	2.23
670.173	10.23
670.204	4.23
670.236	3.23
670.267	3.23
670.299	-18.77
670.33	5.23
670.362	0.23
670.393	-3.77
670.424	16.23
670.456	-6.77
670.487	-7.77
670.518	12.23
670.55	-1.77
670.581	1.23
670.613	-1.77
670.644	12.23
670.675	3.23
670.707	5.23
670.738	-7.77
670.769	-10.77
670.801	-8.77
670.832	14.23
670.864	-5.77
670.895	13.23
670.926	0.23
670.958	0.23
670.989	2.23
671.02	0.23
671.052	1.23
671.083	-2.77
671.114	-9.77
671.146	16.23
671.177	1.23
671.208	-4.77
671.24	3.23
671.271	2.23
671.302	5.23
671.333	-10.77
671.365	-19.77
671.396	-10.77
671.427	23.23
671.459	-4.77
671.49	7.23
671.521	22.23
671.553	-5.77
671.584	12.23
671.615	-13.77
671.646	5.23
671.678	-6.77
671.709	-3.77
671.74	-13.77
671.771	-21.77
671.803	-1.77
671.834	13.23
671.865	9.23
671.896	28.23
671.928	5.23
671.959	-9.77
671.99	7.23
672.021	9.23
672.053	-7.77
672.084	12.23
672.115	12.23
672.146	-3.77
672.178	-15.77
672.209	0.23
672.24	10.23
672.271	29.23
672.303	16.23
672.334	7.23
672.365	3.23
672.396	0.23
672.427	-8.77
672.459	24.23
672.49	33.23
672.521	6.23
672.552	2.23
672.583	20.23
672.615	8.23
672.646	31.23
672.677	4.23
672.708	-4.77
672.739	-13.77
672.77	9.23
672.802	7.23
672.833	-14.77
672.864	-5.77
672.895	11.23
672.926	-3.77
672.957	-10.77
672.989	-4.77
673.02	5.23
673.051	4.23
673.082	15.23
673.113	6.23
673.144	-1.77
673.175	4.23
673.206	-6.77
673.238	1.23
673.269	1.23
673.3	-5.77
673.331	-0.77
673.362	-13.77
673.393	7.23
673.424	3.23
673.455	33.23
673.487	8.23
673.518	7.23
673.549	15.23
673.58	5.23
673.611	11.23
673.642	2.23
673.673	-8.77
673.704	-4.77
673.735	-8.77
673.766	-4.77
673.797	-9.77
673.828	-17.77
673.86	-5.77
673.891	-20.77
673.922	-4.77
673.953	-14.77
673.984	5.23
674.015	10.23
674.046	12.23
674.077	6.23
674.108	-23.77
674.139	7.23
674.17	11.23
674.201	-8.77
674.232	-15.77
674.263	-1.77
674.294	1.23
674.325	-4.77
674.356	15.23
674.387	9.23
674.418	22.23
674.449	2.23
674.48	-4.77
674.511	-0.77
674.542	-1.77
674.573	-1.77
674.604	7.23
674.635	9.23
674.666	7.23
674.697	6.23
674.728	-8.77
674.759	-3.77
674.79	-8.77
674.821	-1.77
674.852	11.23
674.883	-4.77
674.914	6.23
674.945	13.23
674.976	-11.77
675.007	-2.77
675.038	-7.77
675.069	-18.77
675.1	-24.77
675.131	-1.77
675.162	-3.77
675.193	-8.77
675.224	-13.77
675.254	5.23
675.285	5.23
675.316	6.23
675.347	-0.77
675.378	0.23
675.409	-3.77
675.44	15.23
675.471	17.23
675.502	12.23
675.533	-4.77
675.564	8.23
675.595	11.23
675.625	24.23
675.656	14.23
675.687	11.23
675.718	5.23
675.749	6.23
675.78	-1.77
675.811	4.23
675.842	0.23
675.873	-17.77
675.903	-3.77
675.934	19.23
675.965	-7.77
675.996	-24.77
676.027	8.23
676.058	-1.77
676.089	3.23
676.119	7.23
676.15	8.23
676.181	3.23
676.212	-8.77
676.243	-1.77
676.274	-14.77
676.304	9.23
676.335	1.23
676.366	6.23
676.397	0.23
676.428	10.23
676.459	6.23
676.489	7.23
676.52	5.23
676.551	15.23
676.582	3.23
676.613	12.23
676.643	-8.77
676.674	13.23
676.705	-18.77
676.736	-3.77
676.767	10.23
676.797	1.23
676.828	-17.77
676.859	0.23
676.89	1.23
676.92	4.23
676.951	6.23
676.982	2.23
677.013	-13.77
677.044	7.23
677.074	-4.77
677.105	-5.77
677.136	16.23
677.167	1.23
677.197	1.23
677.228	9.23
677.259	-1.77
677.289	1.23
677.32	-15.77
677.351	-11.77
677.382	-7.77
677.412	0.23
677.443	16.23
677.474	12.23
677.505	-2.77
677.535	7.23
677.566	-9.77
677.597	-12.77
677.627	-10.77
677.658	-2.77
677.689	5.23
677.72	4.23
677.75	-13.77
677.781	-0.77
677.812	6.23
677.842	17.23
677.873	0.23
677.904	2.23
677.934	-2.77
677.965	5.23
677.996	-7.77
678.026	-8.77
678.057	2.23
678.088	-16.77
678.118	2.23
678.149	-7.77
678.18	-8.77
678.21	-0.77
678.241	8.23
678.272	4.23
678.302	1.23
678.333	12.23
678.363	16.23
678.394	12.23
678.425	4.23
678.455	3.23
678.486	5.23
678.517	-6.77
678.547	-4.77
678.578	-3.77
678.608	-14.77
678.639	-18.77
678.67	8.23
678.7	6.23
678.731	-6.77
678.761	9.23
678.792	8.23
678.823	9.23
678.853	-0.77
678.884	-14.77
678.914	9.23
678.945	8.23
678.975	-4.77
679.006	10.23
679.037	1.23
679.067	21.23
679.098	-6.77
679.128	-10.77
679.159	1.23
679.189	12.23
679.22	-7.77
679.25	-0.77
679.281	0.23
679.312	-7.77
679.342	4.23
679.373	26.23
679.403	1.23
679.434	8.23
679.464	-5.77
679.495	-6.77
679.525	3.23
679.556	-11.77
679.586	8.23
679.617	9.23
679.647	4.23
679.678	-2.77
679.708	0.23
679.739	-5.77
679.769	-5.77
679.8	-3.77
679.83	-4.77
679.861	6.23
679.891	-2.77
679.922	-4.77
679.952	-6.77
679.983	0.23
680.013	4.23
680.044	-8.77
680.074	11.23
680.105	11.23
680.135	4.23
680.165	12.23
680.196	-8.77
680.226	1.23
680.257	20.23
680.287	7.23
680.318	-5.77
680.348	-18.77
680.379	6.23
680.409	5.23
680.439	-0.77
680.47	-2.77
680.5	-1.77
680.531	-2.77
680.561	11.23
680.592	8.23
680.622	23.23
680.652	5.23
680.683	11.23
680.713	6.23
680.744	14.23
680.774	-3.77
680.804	14.23
680.835	15.23
680.865	-1.77
680.896	6.23
680.926	8.23
680.956	13.23
680.987	18.23
681.017	12.23
681.047	5.23
681.078	3.23
681.108	-2.77
681.139	12.23
681.169	0.23
681.199	-0.77
681.23	5.23
681.26	6.23
681.29	11.23
681.321	-12.77
681.351	-8.77
681.381	-15.77
681.412	9.23
681.442	18.23
681.472	30.23
681.503	7.23
681.533	11.23
681.563	1.23
681.594	3.23
681.624	20.23
681.654	4.23
681.685	-0.77
681.715	-5.77
681.745	-1.77
681.775	8.23
681.806	11.23
681.836	5.23
681.866	-23.77
681.897	3.23
681.927	-3.77
681.957	-23.77
681.987	7.23
682.018	5.23
682.048	11.23
682.078	-0.77
682.109	22.23
682.139	8.23
682.169	15.23
682.199	5.23
682.23	-1.77
682.26	17.23
682.29	-17.77
682.32	-2.77
682.351	2.23
682.381	1.23
682.411	-0.77
682.441	1.23
682.472	7.23
682.502	12.23
682.532	-0.77
682.562	-0.77
682.592	11.23
682.623	12.23
682.653	-1.77
682.683	-0.77
682.713	8.23
682.743	-14.77
682.774	0.23
682.804	7.23
682.834	24.23
682.864	-6.77
682.894	-13.77
682.925	-9.77
682.955	14.23
682.985	5.23
683.015	-9.77
683.045	6.23
683.076	5.23
683.106	-15.77
683.136	5.23
683.166	-12.77
683.196	-3.77
683.226	-1.77
683.257	-10.77
683.287	18.23
683.317	-8.77
683.347	-5.77
683.377	-1.77
683.407	12.23
683.437	5.23
683.468	7.23
683.498	-11.77
683.528	-4.77
683.558	4.23
683.588	-3.77
683.618	-3.77
683.648	-3.77
683.678	7.23
683.708	5.23
683.739	-11.77
683.769	0.23
683.799	0.23
683.829	17.23
683.859	3.23
683.889	12.23
683.919	10.23
683.949	11.23
683.979	-0.77
684.009	12.23
684.039	3.23
684.07	-3.77
684.1	15.23
684.13	8.23
684.16	1.23
684.19	-11.77
684.22	-6.77
684.25	1.23
684.28	12.23
684.31	28.23
684.34	16.23
684.37	12.23
684.4	7.23
684.43	-2.77
684.46	9.23
684.49	6.23
684.52	3.23
684.55	9.23
684.58	12.23
684.61	3.23
684.64	6.23
684.67	18.23
684.7	7.23
684.73	9.23
684.76	-15.77
684.79	18.23
684.82	9.23
684.85	5.23
684.88	11.23
684.91	12.23
684.94	1.23
684.97	1.23
685	18.23
685.03	-2.77
685.06	2.23
685.09	1.23
685.12	17.23
685.15	-6.77
685.18	-5.77
685.21	-3.77
685.24	23.23
685.27	13.23
685.3	-0.77
685.33	14.23
685.36	-0.77
685.39	1.23
685.42	-11.77
685.45	-4.77
685.48	-6.77
685.51	-2.77
685.54	13.23
685.569	4.23
685.599	6.23
685.629	4.23
685.659	0.23
685.689	9.23
685.719	6.23
685.749	-1.77
685.779	11.23
685.809	-9.77
685.839	5.23
685.869	4.23
685.898	9.23
685.928	-8.77
685.958	-11.77
685.988	14.23
686.018	-3.77
686.048	18.23
686.078	-16.77
686.108	27.23
686.137	6.23
686.167	-1.77
686.197	-10.77
686.227	-0.77
686.257	25.23
686.287	13.23
686.317	10.23
686.346	1.23
686.376	-2.77
686.406	-1.77
686.436	7.23
686.466	-13.77
686.496	1.23
686.525	6.23
686.555	-2.77
686.585	12.23
686.615	18.23
686.645	11.23
686.675	10.23
686.704	5.23
686.734	23.23
686.764	-9.77
686.794	5.23
686.824	2.23
686.853	21.23
686.883	17.23
686.913	1.23
686.943	3.23
686.973	-3.77
687.002	8.23
687.032	-14.77
687.062	-0.77
687.092	18.23
687.121	4.23
687.151	7.23
687.181	15.23
687.211	24.23
687.24	-6.77
687.27	6.23
687.3	3.23
687.33	3.23
687.359	-23.77
687.389	2.23
687.419	6.23
687.449	-0.77
687.478	11.23
687.508	6.23
687.538	10.23
687.568	21.23
687.597	9.23
687.627	15.23
687.657	21.23
687.686	8.23
687.716	22.23
687.746	5.23
687.776	2.23
687.805	10.23
687.835	7.23
687.865	22.23
687.894	14.23
687.924	2.23
687.954	-7.77
687.983	-0.77
688.013	1.23
688.043	7.23
688.072	-3.77
688.102	6.23
688.132	3.23
688.161	5.23
688.191	9.23
688.221	29.23
688.25	2.23
688.28	0.23
688.31	4.23
688.339	-1.77
688.369	3.23
688.399	-13.77
688.428	-11.77
688.458	7.23
688.488	-2.77
688.517	5.23
688.547	8.23
688.576	34.23
688.606	0.23
688.636	-9.77
688.665	1.23
688.695	-2.77
688.725	4.23
688.754	10.23
688.784	-11.77
688.813	20.23
688.843	2.23
688.873	-7.77
688.902	1.23
688.932	2.23
688.961	7.23
688.991	17.23
689.02	4.23
689.05	-7.77
689.08	11.23
689.109	18.23
689.139	-2.77
689.168	-5.77
689.198	-3.77
689.227	9.23
689.257	11.23
689.287	23.23
689.316	4.23
689.346	-17.77
689.375	0.23
689.405	4.23
689.434	3.23
689.464	5.23
689.493	5.23
689.523	-0.77
689.552	-6.77
689.582	11.23
689.611	8.23
689.641	7.23
689.67	13.23
689.7	5.23
689.73	8.23
689.759	0.23
689.789	36.23
689.818	8.23
689.848	8.23
689.877	11.23
689.906	-8.77
689.936	-3.77
689.965	2.23
689.995	2.23
690.024	13.23
690.054	2.23
690.083	4.23
690.113	4.23
690.142	-2.77
690.172	-6.77
690.201	5.23
690.231	-6.77
690.26	9.23
690.29	-1.77
690.319	3.23
690.348	-1.77
690.378	5.23
690.407	20.23
690.437	0.23
690.466	5.23
690.496	-15.77
690.525	-6.77
690.555	9.23
690.584	9.23
690.613	3.23
690.643	-1.77
690.672	0.23
690.702	22.23
690.731	0.23
690.76	9.23
690.79	5.23
690.819	1.23
690.849	10.23
690.878	-10.77
690.907	2.23
690.937	19.23
690.966	13.23
690.996	15.23
691.025	10.23
691.054	6.23
691.084	4.23
691.113	4.23
691.142	1.23
691.172	11.23
691.201	9.23
691.23	0.23
691.26	14.23
691.289	12.23
691.319	7.23
691.348	-7.77
691.377	16.23
691.407	-3.77
691.436	14.23
691.465	-3.77
691.495	-2.77
691.524	3.23
691.553	7.23
691.583	10.23
691.612	43.23
691.641	3.23
691.67	-0.77
691.7	2.23
691.729	-10.77
691.758	2.23
691.788	-1.77
691.817	4.23
691.846	0.23
691.876	-0.77
691.905	6.23
691.934	5.23
691.963	13.23
691.993	7.23
692.022	-4.77
692.051	6.23
692.081	15.23
692.11	16.23
692.139	-3.77
692.168	-0.77
692.198	10.23
692.227	9.23
692.256	8.23
692.285	7.23
692.315	-9.77
692.344	0.23
692.373	14.23
692.402	-2.77
692.432	-11.77
692.461	-0.77
692.49	-0.77
692.519	1.23
692.548	16.23
692.578	2.23
692.607	-16.77
692.636	-17.77
692.665	17.23
692.694	13.23
692.724	0.23
692.753	11.23
692.782	17.23
692.811	1.23
692.84	-4.77
692.87	6.23
692.899	11.23
692.928	2.23
692.957	-4.77
692.986	4.23
693.016	8.23
693.045	7.23
693.074	4.23
693.103	3.23
693.132	11.23
693.161	7.23
693.191	-0.77
693.22	-3.77
693.249	15.23
693.278	4.23
693.307	18.23
693.336	-2.77
693.365	-8.77
693.395	13.23
693.424	-1.77
693.453	6.23
693.482	18.23
693.511	0.23
693.54	21.23
693.569	3.23
693.598	0.23
693.628	9.23
693.657	7.23
693.686	17.23
693.715	11.23
693.744	14.23
693.773	21.23
693.802	6.23
693.831	8.23
693.86	32.23
693.889	-8.77
693.919	8.23
693.948	10.23
693.977	10.23
694.006	-6.77
694.035	-5.77
694.064	-10.77
694.093	14.23
694.122	5.23
694.151	6.23
694.18	10.23
694.209	25.23
694.238	16.23
694.267	19.23
694.296	22.23
694.325	22.23
694.354	12.23
694.383	-0.77
694.412	8.23
694.441	-2.77
694.471	-3.77
694.5	-7.77
694.529	2.23
694.558	23.23
694.587	21.23
694.616	-0.77
694.645	-1.77
694.674	25.23
694.703	-1.77
694.732	8.23
694.761	12.23
694.79	10.23
694.819	-13.77
694.848	0.23
694.877	11.23
694.906	21.23
694.935	6.23
694.963	14.23
694.992	-4.77
695.021	21.23
695.05	24.23
695.079	10.23
695.108	-6.77
695.137	22.23
695.166	10.23
695.195	12.23
695.224	17.23
695.253	8.23
695.282	9.23
695.311	7.23
695.34	5.23
695.369	14.23
695.398	21.23
695.427	26.23
695.456	7.23
695.485	10.23
695.513	8.23
695.542	14.23
695.571	21.23
695.6	13.23
695.629	4.23
695.658	9.23
695.687	2.23
695.716	16.23
695.745	16.23
695.774	0.23
695.802	6.23
695.831	18.23
695.86	17.23
695.889	25.23
695.918	17.23
695.947	-7.77
695.976	8.23
696.005	6.23
696.033	15.23
696.062	6.23
696.091	9.23
696.12	15.23
696.149	8.23
696.178	22.23
696.207	14.23
696.235	-13.77
696.264	24.23
696.293	10.23
696.322	2.23
696.351	10.23
696.38	19.23
696.408	10.23
696.437	13.23
696.466	1.23
696.495	22.23
696.524	13.23
696.553	9.23
696.581	10.23
696.61	1.23
696.639	-5.77
696.668	11.23
696.697	1.23
696.725	-1.77
696.754	7.23
696.783	9.23
696.812	-6.77
696.84	12.23
696.869	9.23
696.898	5.23
696.927	-2.77
696.956	8.23
696.984	-14.77
697.013	6.23
697.042	23.23
697.071	22.23
697.099	16.23
697.128	13.23
697.157	3.23
697.186	9.23
697.214	-4.77
697.243	-6.77
697.272	10.23
697.301	9.23
697.329	-10.77
697.358	16.23
697.387	31.23
697.415	23.23
697.444	17.23
697.473	-0.77
697.502	11.23
697.53	7.23
697.559	15.23
697.588	3.23
697.616	11.23
697.645	12.23
697.674	23.23
697.703	6.23
697.731	8.23
697.76	24.23
697.789	8.23
697.817	-7.77
697.846	22.23
697.875	6.23
697.903	15.23
697.932	11.23
697.961	12.23
697.989	7.23
698.018	10.23
698.047	15.23
698.075	4.23
698.104	-0.77
698.133	-5.77
698.161	-8.77
698.19	-1.77
698.218	8.23
698.247	18.23
698.276	-0.77
698.304	0.23
698.333	7.23
698.362	-2.77
698.39	8.23
698.419	0.23
698.447	-10.77
698.476	5.23
698.505	32.23
698.533	20.23
698.562	-6.77
698.591	-1.77
698.619	-3.77
698.648	18.23
698.676	6.23
698.705	1.23
698.733	-3.77
698.762	17.23
698.791	-4.77
698.819	11.23
698.848	-2.77
698.876	16.23
698.905	14.23
698.933	9.23
698.962	8.23
698.991	8.23
699.019	29.23
699.048	2.23
699.076	12.23
699.105	5.23
699.133	-3.77
699.162	26.23
699.19	8.23
699.219	16.23
699.248	12.23
699.276	4.23
699.305	-12.77
699.333	0.23
699.362	-5.77
699.39	20.23
699.419	4.23
699.447	17.23
699.476	14.23
699.504	-10.77
699.533	5.23
699.561	-7.77
699.59	0.23
699.618	12.23
699.647	15.23
699.675	-3.77
699.704	24.23
699.732	1.23
699.761	-5.77
699.789	-11.77
699.818	3.23
699.846	9.23
699.874	1.23
699.903	4.23
699.931	-2.77
699.96	8.23
699.988	14.23
700.017	6.23
700.045	15.23
700.074	0.23
700.102	7.23
700.13	5.23
700.159	-0.77
700.187	2.23
700.216	-14.77
700.244	-15.77
700.273	-3.77
700.301	13.23
700.329	7.23
700.358	15.23
700.386	-7.77
700.415	5.23
700.443	-0.77
700.472	2.23
700.5	0.23
700.528	0.23
700.557	-1.77
700.585	-3.77
700.614	-1.77
700.642	11.23
700.67	5.23
700.699	16.23
700.727	2.23
700.755	-3.77
700.784	20.23
700.812	14.23
700.841	17.23
700.869	10.23
700.897	-13.77
700.926	-3.77
700.954	9.23
700.982	13.23
701.011	10.23
701.039	21.23
701.067	11.23
701.096	11.23
701.124	-3.77
701.152	1.23
701.181	2.23
701.209	4.23
701.237	-2.77
701.266	-21.77
701.294	-2.77
701.322	14.23
701.351	5.23
701.379	-5.77
701.407	2.23
701.435	3.23
701.464	15.23
701.492	20.23
701.52	-11.77
701.549	7.23
701.577	-2.77
701.605	-5.77
701.634	-1.77
701.662	12.23
701.69	0.23
701.718	-14.77
701.747	-0.77
701.775	-1.77
701.803	7.23
701.831	16.23
701.86	-1.77
701.888	-2.77
701.916	5.23
701.944	-3.77
701.973	9.23
702.001	-11.77
702.029	0.23
702.057	-13.77
702.086	-2.77
702.114	-6.77
702.142	10.23
702.17	-6.77
702.199	8.23
702.227	-8.77
702.255	5.23
702.283	11.23
702.311	2.23
702.34	3.23
702.368	-10.77
702.396	1.23
702.424	18.23
702.452	10.23
702.481	6.23
702.509	-8.77
702.537	21.23
702.565	2.23
702.593	-5.77
702.621	13.23
702.65	-1.77
702.678	14.23
702.706	2.23
702.734	0.23
702.762	18.23
702.79	4.23
702.819	7.23
702.847	2.23
702.875	15.23
702.903	13.23
702.931	0.23
702.959	-3.77
702.988	7.23
703.016	2.23
703.044	0.23
703.072	8.23
703.1	-9.77
703.128	6.23
703.156	5.23
703.184	3.23
703.212	17.23
703.241	13.23
703.269	19.23
703.297	-7.77
703.325	6.23
703.353	1.23
703.381	-10.77
703.409	19.23
703.437	-0.77
703.465	8.23
703.493	2.23
703.522	1.23
703.55	18.23
703.578	3.23
703.606	-2.77
703.634	4.23
703.662	-4.77
703.69	10.23
703.718	4.23
703.746	14.23
703.774	0.23
703.802	18.23
703.83	-14.77
703.858	5.23
703.886	-1.77
703.914	-11.77
703.942	-6.77
703.97	9.23
703.998	-3.77
704.027	8.23
704.055	18.23
704.083	-2.77
704.111	-5.77
704.139	7.23
704.167	1.23
704.195	8.23
704.223	6.23
704.251	-2.77
704.279	2.23
704.307	-8.77
704.335	-11.77
704.363	0.23
704.391	-0.77
704.419	-6.77
704.447	-3.77
704.475	10.23
704.503	-9.77
704.531	17.23
704.558	4.23
704.586	-6.77
704.614	-9.77
704.642	-10.77
704.67	-1.77
704.698	17.23
704.726	17.23
704.754	13.23
704.782	-2.77
704.81	3.23
704.838	9.23
704.866	5.23
704.894	-5.77
704.922	21.23
704.95	20.23
704.978	16.23
705.006	1.23
705.034	17.23
705.061	6.23
705.089	-2.77
705.117	-9.77
705.145	4.23
705.173	10.23
705.201	0.23
705.229	4.23
705.257	-1.77
705.285	8.23
705.313	12.23
705.34	12.23
705.368	5.23
705.396	14.23
705.424	20.23
705.452	14.23
705.48	-2.77
705.508	1.23
705.536	10.23
705.563	-7.77
705.591	21.23
705.619	11.23
705.647	-9.77
705.675	1.23
705.703	9.23
705.731	-3.77
705.758	7.23
705.786	16.23
705.814	14.23
705.842	-4.77
705.87	6.23
705.898	26.23
705.925	-1.77
705.953	13.23
705.981	0.23
706.009	-16.77
706.037	9.23
706.065	-2.77
706.092	-2.77
706.12	9.23
706.148	-14.77
706.176	-0.77
706.204	8.23
706.231	-0.77
706.259	-8.77
706.287	7.23
706.315	9.23
706.342	-0.77
706.37	9.23
706.398	17.23
706.426	11.23
706.454	-2.77
706.481	12.23
706.509	6.23
706.537	0.23
706.565	-7.77
706.592	14.23
706.62	4.23
706.648	10.23
706.676	-0.77
706.703	9.23
706.731	2.23
706.759	-7.77
706.787	-0.77
706.814	0.23
706.842	5.23
706.87	4.23
706.897	-3.77
706.925	-10.77
706.953	14.23
706.981	19.23
707.008	11.23
707.036	-1.77
707.064	-10.77
707.091	-1.77
707.119	8.23
707.147	1.23
707.174	-6.77
707.202	14.23
707.23	-4.77
707.258	10.23
707.285	-9.77
707.313	-5.77
707.341	-19.77
707.368	-10.77
707.396	15.23
707.424	24.23
707.451	5.23
707.479	0.23
707.507	-10.77
707.534	-1.77
707.562	10.23
707.59	-1.77
707.617	-10.77
707.645	0.23
707.672	6.23
707.7	-10.77
707.728	-0.77
707.755	-2.77
707.783	-0.77
707.811	-0.77
707.838	-2.77
707.866	13.23
707.893	8.23
707.921	12.23
707.949	17.23
707.976	18.23
708.004	6.23
708.031	6.23
708.059	-4.77
708.087	9.23
708.114	-2.77
708.142	-8.77
708.169	6.23
708.197	-6.77
708.225	-8.77
708.252	0.23
708.28	16.23
708.307	2.23
708.335	-16.77
708.362	-7.77
708.39	-20.77
708.418	-2.77
708.445	-5.77
708.473	-14.77
708.5	-15.77
708.528	15.23
708.555	-5.77
708.583	1.23
708.61	2.23
708.638	-5.77
708.665	-5.77
708.693	-2.77
708.72	0.23
708.748	-16.77
708.776	-2.77
708.803	16.23
708.831	9.23
708.858	19.23
708.886	21.23
708.913	14.23
708.941	12.23
708.968	9.23
708.996	1.23
709.023	30.23
709.051	8.23
709.078	0.23
709.105	4.23
709.133	12.23
709.16	11.23
709.188	10.23
709.215	13.23
709.243	9.23
709.27	13.23
709.298	11.23
709.325	-8.77
709.353	-1.77
709.38	1.23
709.408	13.23
709.435	-3.77
709.462	1.23
709.49	-5.77
709.517	9.23
709.545	-5.77
709.572	8.23
709.6	6.23
709.627	20.23
709.655	-3.77
709.682	-15.77
709.709	16.23
709.737	14.23
709.764	8.23
709.792	8.23
709.819	2.23
709.846	4.23
709.874	4.23
709.901	11.23
709.929	6.23
709.956	5.23
709.983	-5.77
710.011	5.23
710.038	-5.77
710.066	15.23
710.093	4.23
710.12	9.23
710.148	7.23
710.175	2.23
710.202	-8.77
710.23	6.23
710.257	11.23
710.284	6.23
710.312	4.23
710.339	-2.77
710.366	-6.77
710.394	-1.77
710.421	2.23
710.448	2.23
710.476	-9.77
710.503	9.23
710.53	11.23
710.558	18.23
710.585	20.23
710.612	8.23
710.64	8.23
710.667	-1.77
710.694	4.23
710.722	5.23
710.749	1.23
710.776	6.23
710.804	14.23
710.831	11.23
710.858	2.23
710.885	4.23
710.913	-2.77
710.94	21.23
710.967	-9.77
710.995	-7.77
711.022	13.23
711.049	4.23
711.076	-0.77
711.104	0.23
711.131	-8.77
711.158	-13.77
711.185	8.23
711.213	-4.77
711.24	-2.77
711.267	-17.77
711.294	-5.77
711.322	6.23
711.349	9.23
711.376	-0.77
711.403	6.23
711.431	-10.77
711.458	-2.77
711.485	0.23
711.512	15.23
711.54	1.23
711.567	-0.77
711.594	-0.77
711.621	5.23
711.648	1.23
711.676	11.23
711.703	15.23
711.73	-5.77
711.757	6.23
711.784	-2.77
711.812	1.23
711.839	2.23
711.866	-0.77
711.893	-2.77
711.92	16.23
711.947	8.23
711.975	10.23
712.002	-3.77
712.029	0.23
712.056	7.23
712.083	1.23
712.11	-21.77
712.138	6.23
712.165	-7.77
712.192	3.23
712.219	-6.77
712.246	-8.77
712.273	8.23
712.3	-5.77
712.328	12.23
712.355	9.23
712.382	-1.77
712.409	10.23
712.436	-14.77
712.463	-0.77
712.49	17.23
712.517	11.23
712.544	-0.77
712.572	16.23
712.599	-2.77
712.626	12.23
712.653	-5.77
712.68	-0.77
712.707	12.23
712.734	1.23
712.761	-3.77
712.788	-2.77
712.815	10.23
712.842	8.23
712.87	-7.77
712.897	-1.77
712.924	-6.77
712.951	5.23
712.978	14.23
713.005	9.23
713.032	21.23
713.059	9.23
713.086	7.23
713.113	-17.77
713.14	5.23
713.167	4.23
713.194	22.23
713.221	16.23
713.248	14.23
713.275	21.23
713.302	6.23
713.329	0.23
713.356	2.23
713.383	8.23
713.41	20.23
713.437	-7.77
713.464	0.23
713.491	2.23
713.518	-1.77
713.545	5.23
713.572	12.23
713.599	17.23
713.626	6.23
713.653	22.23
713.68	6.23
713.707	14.23
713.734	18.23
713.761	-6.77
713.788	-8.77
713.815	-1.77
713.842	3.23
713.869	5.23
713.896	1.23
713.923	-7.77
713.95	-2.77
713.977	-4.77
714.004	18.23
714.031	-1.77
714.058	-0.77
714.085	-3.77
714.112	19.23
714.139	8.23
714.165	-4.77
714.192	-3.77
714.219	16.23
714.246	-3.77
714.273	21.23
714.3	5.23
714.327	7.23
714.354	9.23
714.381	1.23
714.408	5.23
714.435	-6.77
714.461	9.23
714.488	13.23
714.515	1.23
714.542	-4.77
714.569	2.23
714.596	-3.77
714.623	-11.77
714.65	-16.77
714.677	0.23
714.703	5.23
714.73	7.23
714.757	2.23
714.784	9.23
714.811	-2.77
714.838	4.23
714.865	3.23
714.891	17.23
714.918	14.23
714.945	-10.77
714.972	-4.77
714.999	18.23
715.026	-4.77
715.052	4.23
715.079	6.23
715.106	5.23
715.133	9.23
715.16	15.23
715.187	5.23
715.213	2.23
715.24	-10.77
715.267	2.23
715.294	4.23
715.321	3.23
715.347	-0.77
715.374	-8.77
715.401	-7.77
715.428	-17.77
715.455	-4.77
715.481	-9.77
715.508	10.23
715.535	2.23
715.562	10.23
715.588	10.23
715.615	15.23
715.642	8.23
715.669	10.23
715.695	-3.77
715.722	-9.77
715.749	14.23
715.776	23.23
715.802	9.23
715.829	-5.77
715.856	-16.77
715.883	-2.77
715.909	-4.77
715.936	-0.77
715.963	9.23
715.99	-13.77
716.016	9.23
716.043	0.23
716.07	1.23
716.096	-0.77
716.123	-4.77
716.15	-3.77
716.177	-1.77
716.203	5.23
716.23	5.23
716.257	21.23
716.283	20.23
716.31	13.23
716.337	2.23
716.363	7.23
716.39	10.23
716.417	17.23
716.443	2.23
716.47	16.23
716.497	21.23
716.523	5.23
716.55	2.23
716.577	14.23
716.603	-6.77
716.63	-3.77
716.657	17.23
716.683	4.23
716.71	5.23
716.737	4.23
716.763	1.23
716.79	2.23
716.817	20.23
716.843	14.23
716.87	-1.77
716.897	1.23
716.923	0.23
716.95	5.23
716.976	2.23
717.003	-3.77
717.03	0.23
717.056	-0.77
717.083	-6.77
717.109	-2.77
717.136	-5.77
717.163	-15.77
717.189	-3.77
717.216	-2.77
717.242	5.23
717.269	-4.77
717.296	0.23
717.322	10.23
717.349	16.23
717.375	0.23
717.402	-8.77
717.428	12.23
717.455	19.23
717.481	12.23
717.508	0.23
717.535	1.23
717.561	-3.77
717.588	4.23
717.614	6.23
717.641	9.23
717.667	6.23
717.694	-5.77
717.72	-3.77
717.747	8.23
717.773	-8.77
717.8	17.23
717.826	4.23
717.853	-2.77
717.88	-1.77
717.906	1.23
717.933	14.23
717.959	15.23
717.986	2.23
718.012	0.23
718.039	14.23
718.065	15.23
718.092	-1.77
718.118	-6.77
718.144	1.23
718.171	17.23
718.197	9.23
718.224	13.23
718.25	13.23
718.277	6.23
718.303	2.23
718.33	5.23
718.356	-14.77
718.383	-2.77
718.409	4.23
718.436	0.23
718.462	8.23
718.489	-0.77
718.515	12.23
718.541	0.23
718.568	0.23
718.594	16.23
718.621	14.23
718.647	4.23
718.674	9.23
718.7	7.23
718.726	9.23
718.753	4.23
718.779	7.23
718.806	2.23
718.832	10.23
718.858	3.23
718.885	-7.77
718.911	-1.77
718.938	8.23
718.964	-6.77
718.99	13.23
719.017	11.23
719.043	-3.77
719.07	14.23
719.096	-2.77
719.122	-11.77
719.149	-9.77
719.175	8.23
719.201	1.23
719.228	-9.77
719.254	11.23
719.281	3.23
719.307	9.23
719.333	13.23
719.36	14.23
719.386	3.23
719.412	5.23
719.439	-17.77
719.465	8.23
719.491	-11.77
719.518	6.23
719.544	4.23
719.57	-0.77
719.597	4.23
719.623	4.23
719.649	-11.77
719.675	-8.77
719.702	-1.77
719.728	7.23
719.754	-1.77
719.781	-18.77
719.807	-0.77
719.833	-6.77
719.86	6.23
719.886	-1.77
719.912	-1.77
719.938	0.23
719.965	2.23
719.991	6.23
720.017	7.23
720.044	4.23
720.07	4.23
720.096	-1.77
720.122	9.23
720.149	15.23
720.175	27.23
720.201	-1.77
720.227	1.23
720.254	9.23
720.28	4.23
720.306	7.23
720.332	2.23
720.359	7.23
720.385	17.23
720.411	2.23
720.437	5.23
720.463	7.23
720.49	12.23
720.516	-6.77
720.542	-7.77
720.568	10.23
720.595	22.23
720.621	-4.77
720.647	7.23
720.673	13.23
720.699	9.23
720.725	18.23
720.752	28.23
720.778	10.23
720.804	17.23
720.83	16.23
720.856	0.23
720.883	-4.77
720.909	5.23
720.935	20.23
720.961	14.23
720.987	17.23
721.013	11.23
721.04	2.23
721.066	-7.77
721.092	2.23
721.118	13.23
721.144	0.23
721.17	3.23
721.196	3.23
721.223	-20.77
721.249	-9.77
721.275	9.23
721.301	0.23
721.327	15.23
721.353	19.23
721.379	5.23
721.405	24.23
721.432	20.23
721.458	5.23
721.484	-1.77
721.51	-24.77
721.536	4.23
721.562	5.23
721.588	12.23
721.614	4.23
721.64	-1.77
721.666	-1.77
721.693	-10.77
721.719	5.23
721.745	-14.77
721.771	5.23
721.797	0.23
721.823	11.23
721.849	24.23
721.875	-2.77
721.901	12.23
721.927	-9.77
721.953	0.23
721.979	15.23
722.005	8.23
722.031	0.23
722.057	10.23
722.083	11.23
722.109	9.23
722.135	4.23
722.161	9.23
722.187	2.23
722.214	10.23
722.24	6.23
722.266	-4.77
722.292	-4.77
722.318	0.23
722.344	-0.77
722.37	13.23
722.396	11.23
722.422	1.23
722.448	9.23
722.474	-1.77
722.5	7.23
722.526	4.23
722.552	-7.77
722.578	-2.77
722.603	19.23
722.629	-5.77
722.655	16.23
722.681	-4.77
722.707	8.23
722.733	9.23
722.759	7.23
722.785	8.23
722.811	11.23
722.837	-11.77
722.863	13.23
722.889	20.23
722.915	13.23
722.941	1.23
722.967	-8.77
722.993	5.23
723.019	1.23
723.045	16.23
723.071	5.23
723.097	17.23
723.122	4.23
723.148	-5.77
723.174	-3.77
723.2	10.23
723.226	5.23
723.252	14.23
723.278	17.23
723.304	0.23
723.33	11.23
723.356	-1.77
723.381	-15.77
723.407	-26.77
723.433	-0.77
723.459	-8.77
723.485	0.23
723.511	-0.77
723.537	6.23
723.563	-6.77
723.588	11.23
723.614	13.23
723.64	10.23
723.666	12.23
723.692	14.23
723.718	8.23
723.744	2.23
723.769	-6.77
723.795	1.23
723.821	8.23
723.847	11.23
723.873	10.23
723.899	0.23
723.924	-3.77
723.95	11.23
723.976	-10.77
724.002	9.23
724.028	13.23
724.053	-1.77
724.079	-7.77
724.105	-6.77
724.131	6.23
724.157	7.23
724.182	14.23
724.208	7.23
724.234	8.23
724.26	-5.77
724.286	4.23
724.311	-2.77
724.337	-2.77
724.363	-2.77
724.389	18.23
724.415	3.23
724.44	27.23
724.466	13.23
724.492	1.23
724.518	-0.77
724.543	-1.77
724.569	1.23
724.595	6.23
724.621	1.23
724.646	3.23
724.672	-17.77
724.698	-2.77
724.723	-2.77
724.749	6.23
724.775	10.23
724.801	27.23
724.826	4.23
724.852	1.23
724.878	6.23
724.904	-9.77
724.929	14.23
724.955	-11.77
724.981	13.23
725.006	0.23
725.032	-2.77
725.058	15.23
725.083	-14.77
725.109	-5.77
725.135	-4.77
725.161	14.23
725.186	22.23
725.212	10.23
725.238	5.23
725.263	1.23
725.289	0.23
725.315	-15.77
725.34	0.23
725.366	4.23
725.392	5.23
725.417	5.23
725.443	-4.77
725.468	4.23
725.494	10.23
725.52	10.23
725.545	-16.77
725.571	11.23
725.597	-0.77
725.622	9.23
725.648	4.23
725.674	23.23
725.699	8.23
725.725	11.23
725.75	14.23
725.776	0.23
725.802	13.23
725.827	17.23
725.853	-6.77
725.878	9.23
725.904	17.23
725.93	6.23
725.955	-6.77
725.981	-6.77
726.006	-7.77
726.032	4.23
726.057	-7.77
726.083	-0.77
726.109	-1.77
726.134	22.23
726.16	15.23
726.185	12.23
726.211	-5.77
726.236	4.23
726.262	9.23
726.288	23.23
726.313	31.23
726.339	12.23
726.364	7.23
726.39	23.23
726.415	8.23
726.441	-9.77
726.466	-7.77
726.492	2.23
726.517	5.23
726.543	-3.77
726.568	-2.77
726.594	-0.77
726.619	2.23
726.645	15.23
726.67	5.23
726.696	-2.77
726.721	-3.77
726.747	-14.77
726.772	-0.77
726.798	4.23
726.823	17.23
726.849	1.23
726.874	4.23
726.9	14.23
726.925	4.23
726.951	-8.77
726.976	13.23
727.002	-0.77
727.027	12.23
727.053	11.23
727.078	0.23
727.104	2.23
727.129	-8.77
727.155	1.23
727.18	14.23
727.205	21.23
727.231	8.23
727.256	0.23
727.282	1.23
727.307	15.23
727.333	8.23
727.358	-5.77
727.383	-9.77
727.409	-15.77
727.434	-3.77
727.46	4.23
727.485	0.23
727.511	-0.77
727.536	-15.77
727.561	-17.77
727.587	-1.77
727.612	-16.77
727.637	-9.77
727.663	-4.77
727.688	18.23
727.714	14.23
727.739	0.23
727.764	17.23
727.79	19.23
727.815	3.23
727.841	8.23
727.866	17.23
727.891	6.23
727.917	-1.77
727.942	-2.77
727.967	-9.77
727.993	-16.77
728.018	0.23
728.043	14.23
728.069	15.23
728.094	17.23
728.119	-3.77
728.145	14.23
728.17	4.23
728.195	10.23
728.221	20.23
728.246	-2.77
728.271	2.23
728.297	-0.77
728.322	-2.77
728.347	-0.77
728.373	2.23
728.398	17.23
728.423	8.23
728.448	8.23
728.474	3.23
728.499	1.23
728.524	-5.77
728.55	-18.77
728.575	-15.77
728.6	6.23
728.625	-7.77
728.651	12.23
728.676	1.23
728.701	-7.77
728.727	2.23
728.752	-1.77
728.777	6.23
728.802	8.23
728.828	13.23
728.853	5.23
728.878	-6.77
728.903	-3.77
728.929	5.23
728.954	-0.77
728.979	5.23
729.004	-2.77
729.03	-1.77
729.055	18.23
729.08	-4.77
729.105	-2.77
729.13	11.23
729.156	7.23
729.181	3.23
729.206	-2.77
729.231	-1.77
729.256	12.23
729.282	13.23
729.307	-16.77
729.332	-5.77
729.357	3.23
729.382	20.23
729.408	7.23
729.433	-6.77
729.458	-2.77
729.483	4.23
729.508	13.23
729.533	-7.77
729.559	7.23
729.584	-15.77
729.609	3.23
729.634	3.23
729.659	-2.77
729.684	-2.77
729.71	14.23
729.735	6.23
729.76	-1.77
729.785	-0.77
729.81	2.23
729.835	-11.77
729.86	1.23
729.886	14.23
729.911	7.23
729.936	-9.77
729.961	6.23
729.986	-5.77
730.011	14.23
730.036	9.23
730.061	5.23
730.086	-1.77
730.112	6.23
730.137	19.23
730.162	-0.77
730.187	4.23
730.212	8.23
730.237	-7.77
730.262	-1.77
730.287	-2.77
730.312	8.23
730.337	2.23
730.362	5.23
730.387	0.23
730.413	2.23
730.438	8.23
730.463	7.23
730.488	-1.77
730.513	8.23
730.538	6.23
730.563	15.23
730.588	8.23
730.613	3.23
730.638	-3.77
730.663	-0.77
730.688	21.23
730.713	3.23
730.738	18.23
730.763	9.23
730.788	-1.77
730.813	7.23
730.838	6.23
730.863	13.23
730.888	-2.77
730.913	-19.77
730.938	0.23
730.963	4.23
730.988	15.23
731.013	40.23
731.038	2.23
731.063	-5.77
731.088	4.23
731.113	5.23
731.138	5.23
731.163	9.23
731.188	4.23
731.213	9.23
731.238	24.23
731.263	-1.77
731.288	-11.77
731.313	2.23
731.338	13.23
731.363	8.23
731.388	-3.77
731.413	6.23
731.438	12.23
731.463	-2.77
731.487	15.23
731.512	-7.77
731.537	-1.77
731.562	3.23
731.587	8.23
731.612	-4.77
731.637	6.23
731.662	-0.77
731.687	5.23
731.712	-9.77
731.737	-2.77
731.762	-1.77
731.786	16.23
731.811	8.23
731.836	6.23
731.861	4.23
731.886	-4.77
731.911	15.23
731.936	12.23
731.961	-2.77
731.986	-6.77
732.01	11.23
732.035	6.23
732.06	10.23
732.085	-7.77
732.11	2.23
732.135	-27.77
732.16	-6.77
732.184	-2.77
732.209	1.23
732.234	-1.77
732.259	-7.77
732.284	10.23
732.309	-10.77
732.334	-1.77
732.358	-3.77
732.383	8.23
732.408	-3.77
732.433	8.23
732.458	14.23
732.482	2.23
732.507	7.23
732.532	0.23
732.557	5.23
732.582	6.23
732.607	4.23
732.631	-25.77
732.656	-8.77
732.681	-3.77
732.706	-3.77
732.73	-2.77
732.755	3.23
732.78	1.23
732.805	3.23
732.83	8.23
732.854	17.23
732.879	16.23
732.904	-1.77
732.929	-15.77
732.953	4.23
732.978	8.23
733.003	5.23
733.028	0.23
733.052	9.23
733.077	4.23
733.102	34.23
733.127	0.23
733.151	5.23
733.176	10.23
733.201	0.23
733.226	-1.77
733.25	8.23
733.275	2.23
733.3	15.23
733.324	2.23
733.349	18.23
733.374	12.23
733.399	-0.77
733.423	-4.77
733.448	-6.77
733.473	3.23
733.497	7.23
733.522	-2.77
733.547	20.23
733.571	15.23
733.596	5.23
733.621	4.23
733.646	-4.77
733.67	-0.77
733.695	-2.77
733.72	2.23
733.744	9.23
733.769	8.23
733.794	3.23
733.818	5.23
733.843	4.23
733.867	-1.77
733.892	5.23
733.917	1.23
733.941	-11.77
733.966	2.23
733.991	12.23
734.015	13.23
734.04	10.23
734.065	23.23
734.089	34.23
734.114	4.23
734.138	12.23
734.163	-3.77
734.188	5.23
734.212	24.23
734.237	2.23
734.261	10.23
734.286	2.23
734.311	1.23
734.335	14.23
734.36	-0.77
734.384	4.23
734.409	-7.77
734.434	-18.77
734.458	-3.77
734.483	8.23
734.507	9.23
734.532	12.23
734.556	30.23
734.581	6.23
734.606	12.23
734.63	-6.77
734.655	6.23
734.679	-1.77
734.704	5.23
734.728	-0.77
734.753	0.23
734.777	-3.77
734.802	-0.77
734.826	24.23
734.851	8.23
734.876	16.23
734.9	12.23
734.925	1.23
734.949	17.23
734.974	1.23
734.998	-3.77
735.023	0.23
735.047	-2.77
735.072	5.23
735.096	4.23
735.121	9.23
735.145	13.23
735.17	9.23
735.194	7.23
735.219	10.23
735.243	10.23
735.268	6.23
735.292	12.23
735.317	17.23
735.341	11.23
735.365	-8.77
735.39	7.23
735.414	1.23
735.439	-2.77
735.463	12.23
735.488	9.23
735.512	4.23
735.537	-3.77
735.561	-9.77
735.586	-3.77
735.61	4.23
735.634	5.23
735.659	4.23
735.683	8.23
735.708	-5.77
735.732	-4.77
735.757	10.23
735.781	-6.77
735.805	15.23
735.83	0.23
735.854	19.23
735.879	7.23
735.903	10.23
735.927	7.23
735.952	10.23
735.976	3.23
736.001	-7.77
736.025	-10.77
736.049	18.23
736.074	13.23
736.098	10.23
736.123	13.23
736.147	-1.77
736.171	8.23
736.196	5.23
736.22	-7.77
736.244	1.23
736.269	-11.77
736.293	-7.77
736.317	2.23
736.342	11.23
736.366	10.23
736.39	22.23
736.415	8.23
736.439	-5.77
736.463	5.23
736.488	13.23
736.512	-8.77
736.536	11.23
736.561	23.23
736.585	0.23
736.609	14.23
736.634	0.23
736.658	10.23
736.682	-3.77
736.707	-5.77
736.731	-17.77
736.755	-7.77
736.78	18.23
736.804	16.23
736.828	12.23
736.852	-9.77
736.877	-17.77
736.901	6.23
736.925	8.23
736.949	11.23
736.974	8.23
736.998	-11.77
737.022	6.23
737.047	7.23
737.071	2.23
737.095	-4.77
737.119	25.23
737.144	1.23
737.168	-1.77
737.192	6.23
737.216	9.23
737.241	6.23
737.265	2.23
737.289	6.23
737.313	0.23
737.337	18.23
737.362	11.23
737.386	1.23
737.41	-16.77
737.434	-0.77
737.459	-7.77
737.483	-0.77
737.507	13.23
737.531	17.23
737.555	8.23
737.58	16.23
737.604	10.23
737.628	-19.77
737.652	-11.77
737.676	-4.77
737.701	17.23
737.725	18.23
737.749	19.23
737.773	4.23
737.797	0.23
737.821	-0.77
737.846	-3.77
737.87	11.23
737.894	1.23
737.918	1.23
737.942	-2.77
737.966	1.23
737.99	6.23
738.015	15.23
738.039	10.23
738.063	0.23
738.087	15.23
738.111	1.23
738.135	-2.77
738.159	2.23
738.184	5.23
738.208	2.23
738.232	12.23
738.256	28.23
738.28	7.23
738.304	-1.77
738.328	4.23
738.352	11.23
738.376	2.23
738.4	-1.77
738.425	14.23
738.449	7.23
738.473	9.23
738.497	6.23
738.521	5.23
738.545	18.23
738.569	9.23
738.593	12.23
738.617	14.23
738.641	13.23
738.665	-2.77
738.689	11.23
738.713	4.23
738.737	5.23
738.762	18.23
738.786	5.23
738.81	-15.77
738.834	1.23
738.858	-5.77
738.882	14.23
738.906	5.23
738.93	1.23
738.954	3.23
738.978	11.23
739.002	5.23
739.026	12.23
739.05	10.23
739.074	11.23
739.098	33.23
739.122	11.23
739.146	3.23
739.17	16.23
739.194	6.23
739.218	-5.77
739.242	4.23
739.266	-4.77
739.29	5.23
739.314	9.23
739.338	14.23
739.362	9.23
739.386	13.23
739.41	-0.77
739.434	-1.77
739.458	4.23
739.482	5.23
739.506	4.23
739.53	-0.77
739.554	14.23
739.577	5.23
739.601	16.23
739.625	1.23
739.649	-5.77
739.673	1.23
739.697	2.23
739.721	9.23
739.745	1.23
739.769	8.23
739.793	1.23
739.817	13.23
739.841	-3.77
739.865	0.23
739.889	-0.77
739.912	1.23
739.936	0.23
739.96	14.23
739.984	20.23
740.008	5.23
740.032	4.23
740.056	0.23
740.08	10.23
740.104	-0.77
740.127	13.23
740.151	12.23
740.175	10.23
740.199	-5.77
740.223	39.23
740.247	26.23
740.271	22.23
740.295	-0.77
740.318	-7.77
740.342	0.23
740.366	11.23
740.39	19.23
740.414	7.23
740.438	9.23
740.461	22.23
740.485	2.23
740.509	1.23
740.533	21.23
740.557	-9.77
740.581	0.23
740.604	-11.77
740.628	6.23
740.652	3.23
740.676	4.23
740.7	7.23
740.723	12.23
740.747	-7.77
740.771	0.23
740.795	1.23
740.819	18.23
740.842	17.23
740.866	1.23
740.89	1.23
740.914	-5.77
740.938	-7.77
740.961	11.23
740.985	14.23
741.009	-3.77
741.033	24.23
741.056	14.23
741.08	4.23
741.104	8.23
741.128	10.23
741.151	5.23
741.175	13.23
741.199	0.23
741.223	13.23
741.246	-5.77
741.27	24.23
741.294	21.23
741.318	-7.77
741.341	-8.77
741.365	9.23
741.389	11.23
741.413	29.23
741.436	13.23
741.46	-1.77
741.484	8.23
741.507	-0.77
741.531	32.23
741.555	16.23
741.579	5.23
741.602	6.23
741.626	10.23
741.65	-10.77
741.673	1.23
741.697	3.23
741.721	11.23
741.744	-16.77
741.768	-0.77
741.792	4.23
741.815	11.23
741.839	13.23
741.863	17.23
741.886	22.23
741.91	15.23
741.934	12.23
741.957	-4.77
741.981	23.23
742.005	1.23
742.028	-3.77
742.052	-8.77
742.075	7.23
742.099	21.23
742.123	14.23
742.146	10.23
742.17	7.23
742.194	-14.77
742.217	4.23
742.241	-1.77
742.264	-7.77
742.288	26.23
742.312	-0.77
742.335	12.23
742.359	-1.77
742.382	11.23
742.406	19.23
742.43	-2.77
742.453	10.23
742.477	8.23
742.5	-6.77
742.524	-8.77
742.548	-6.77
742.571	0.23
742.595	-0.77
742.618	-3.77
742.642	1.23
742.665	25.23
742.689	-5.77
742.712	2.23
742.736	-7.77
742.76	5.23
742.783	0.23
742.807	11.23
742.83	10.23
742.854	0.23
742.877	-1.77
742.901	9.23
742.924	0.23
742.948	-2.77
742.971	-2.77
742.995	8.23
743.018	-0.77
743.042	-9.77
743.065	2.23
743.089	9.23
743.112	-4.77
743.136	6.23
743.159	0.23
743.183	-8.77
743.206	2.23
743.23	0.23
743.253	10.23
743.277	8.23
743.3	5.23
743.324	0.23
743.347	-17.77
743.371	5.23
743.394	9.23
743.418	25.23
743.441	13.23
743.465	-7.77
743.488	3.23
743.512	-5.77
743.535	-5.77
743.558	7.23
743.582	1.23
743.605	-2.77
743.629	8.23
743.652	5.23
743.676	7.23
743.699	11.23
743.723	7.23
743.746	9.23
743.769	1.23
743.793	9.23
743.816	1.23
743.84	2.23
743.863	-15.77
743.886	8.23
743.91	13.23
743.933	5.23
743.957	5.23
743.98	6.23
744.003	8.23
744.027	8.23
744.05	0.23
744.074	5.23
744.097	-3.77
744.12	0.23
744.144	-7.77
744.167	1.23
744.19	1.23
744.214	-14.77
744.237	-24.77
744.26	1.23
744.284	-1.77
744.307	-9.77
744.331	13.23
744.354	-0.77
744.377	-6.77
744.401	0.23
744.424	1.23
744.447	-23.77
744.471	-4.77
