Data from HighRes_H2D2_15_04_11_07_2024_HR4C61891__65__15-05-40-943.txt Node

Date: Thu Nov 07 15:05:40 EST 2024
User: crc00042
Spectrometer: HR4C6189
Trigger mode: 4
Integration Time (sec): 1.000000E-1
Scans to average: 1
Electric dark correction enabled: true
Nonlinearity correction enabled: false
Boxcar width: 0
XAxis mode: Wavelengths
Number of Pixels in Spectrum: 3648
>>>>>Begin Spectral Data<<<<<
639.567	-77.77
639.602	-77.77
639.636	-77.77
639.67	-44.77
639.704	-25.77
639.738	-7.77
639.773	13.23
639.807	-20.77
639.841	-9.77
639.875	7.23
639.909	-10.77
639.943	-9.77
639.978	5.23
640.012	-10.77
640.046	14.23
640.08	13.23
640.114	16.23
640.148	0.23
640.182	-15.77
640.217	-8.77
640.251	11.23
640.285	7.23
640.319	2.23
640.353	-11.77
640.387	9.23
640.421	-6.77
640.455	-8.77
640.49	-0.77
640.524	-4.77
640.558	15.23
640.592	3.23
640.626	-6.77
640.66	10.23
640.694	-9.77
640.728	14.23
640.762	11.23
640.796	10.23
640.83	5.23
640.865	-7.77
640.899	-3.77
640.933	3.23
640.967	-7.77
641.001	9.23
641.035	-9.77
641.069	-11.77
641.103	-18.77
641.137	11.23
641.171	-5.77
641.205	15.23
641.239	-8.77
641.273	9.23
641.307	3.23
641.341	-9.77
641.375	-1.77
641.409	-15.77
641.443	2.23
641.477	0.23
641.511	5.23
641.545	-0.77
641.579	10.23
641.614	13.23
641.648	-0.77
641.682	-5.77
641.716	5.23
641.75	10.23
641.784	17.23
641.818	0.23
641.852	1.23
641.886	0.23
641.919	15.23
641.953	3.23
641.987	-4.77
642.021	8.23
642.055	-6.77
642.089	7.23
642.123	-4.77
642.157	-2.77
642.191	-6.77
642.225	11.23
642.259	3.23
642.293	-11.77
642.327	-19.77
642.361	-3.77
642.395	5.23
642.429	5.23
642.463	6.23
642.497	7.23
642.531	-4.77
642.565	-13.77
642.599	-16.77
642.633	-20.77
642.666	23.23
642.7	1.23
642.734	7.23
642.768	-21.77
642.802	9.23
642.836	6.23
642.87	0.23
642.904	10.23
642.938	10.23
642.972	6.23
643.005	1.23
643.039	11.23
643.073	-11.77
643.107	7.23
643.141	-1.77
643.175	-17.77
643.209	-6.77
643.243	-13.77
643.276	-0.77
643.31	16.23
643.344	-1.77
643.378	-0.77
643.412	12.23
643.446	5.23
643.48	-3.77
643.513	4.23
643.547	-0.77
643.581	-5.77
643.615	14.23
643.649	-0.77
643.683	-3.77
643.716	6.23
643.75	19.23
643.784	-10.77
643.818	10.23
643.852	-0.77
643.886	9.23
643.919	16.23
643.953	16.23
643.987	0.23
644.021	20.23
644.055	20.23
644.088	8.23
644.122	-12.77
644.156	-4.77
644.19	-13.77
644.224	7.23
644.257	-3.77
644.291	15.23
644.325	-9.77
644.359	-6.77
644.392	12.23
644.426	18.23
644.46	-7.77
644.494	5.23
644.527	-12.77
644.561	-4.77
644.595	3.23
644.629	-17.77
644.662	-8.77
644.696	12.23
644.73	17.23
644.764	-0.77
644.797	-9.77
644.831	3.23
644.865	12.23
644.899	9.23
644.932	23.23
644.966	7.23
645	22.23
645.033	12.23
645.067	3.23
645.101	10.23
645.135	-0.77
645.168	-2.77
645.202	3.23
645.236	-5.77
645.269	6.23
645.303	4.23
645.337	-9.77
645.37	-2.77
645.404	12.23
645.438	5.23
645.471	-15.77
645.505	-1.77
645.539	4.23
645.572	-15.77
645.606	-6.77
645.64	-4.77
645.673	2.23
645.707	30.23
645.741	6.23
645.774	-21.77
645.808	-3.77
645.842	-8.77
645.875	5.23
645.909	-17.77
645.943	-6.77
645.976	2.23
646.01	15.23
646.043	4.23
646.077	24.23
646.111	-2.77
646.144	0.23
646.178	6.23
646.212	-5.77
646.245	-0.77
646.279	-8.77
646.312	13.23
646.346	6.23
646.38	-6.77
646.413	-6.77
646.447	0.23
646.48	-2.77
646.514	10.23
646.547	-7.77
646.581	-1.77
646.615	7.23
646.648	2.23
646.682	-0.77
646.715	11.23
646.749	-8.77
646.782	-12.77
646.816	-7.77
646.85	-7.77
646.883	-4.77
646.917	5.23
646.95	2.23
646.984	0.23
647.017	-2.77
647.051	13.23
647.084	-1.77
647.118	-0.77
647.151	-5.77
647.185	0.23
647.218	-10.77
647.252	-2.77
647.285	-9.77
647.319	-7.77
647.353	-0.77
647.386	-0.77
647.42	-6.77
647.453	19.23
647.487	-1.77
647.52	6.23
647.553	-0.77
647.587	-8.77
647.62	6.23
647.654	3.23
647.687	-4.77
647.721	11.23
647.754	-1.77
647.788	2.23
647.821	-5.77
647.855	12.23
647.888	-0.77
647.922	6.23
647.955	9.23
647.989	10.23
648.022	-3.77
648.055	15.23
648.089	15.23
648.122	30.23
648.156	-12.77
648.189	-5.77
648.223	5.23
648.256	10.23
648.29	10.23
648.323	-8.77
648.356	-1.77
648.39	-10.77
648.423	8.23
648.457	-0.77
648.49	-4.77
648.523	-3.77
648.557	5.23
648.59	-12.77
648.624	10.23
648.657	-4.77
648.69	20.23
648.724	5.23
648.757	8.23
648.791	12.23
648.824	2.23
648.857	25.23
648.891	2.23
648.924	3.23
648.957	19.23
648.991	-3.77
649.024	0.23
649.057	-7.77
649.091	-8.77
649.124	3.23
649.158	-3.77
649.191	9.23
649.224	8.23
649.258	3.23
649.291	11.23
649.324	-1.77
649.358	5.23
649.391	6.23
649.424	10.23
649.458	11.23
649.491	11.23
649.524	-0.77
649.557	-1.77
649.591	-17.77
649.624	7.23
649.657	8.23
649.691	8.23
649.724	-4.77
649.757	-7.77
649.791	-10.77
649.824	10.23
649.857	3.23
649.89	3.23
649.924	-11.77
649.957	-5.77
649.99	-11.77
650.023	-7.77
650.057	-9.77
650.09	-4.77
650.123	-0.77
650.157	5.23
650.19	15.23
650.223	11.23
650.256	-8.77
650.29	-2.77
650.323	1.23
650.356	22.23
650.389	-16.77
650.423	-9.77
650.456	17.23
650.489	8.23
650.522	3.23
650.555	-4.77
650.589	2.23
650.622	5.23
650.655	12.23
650.688	6.23
650.721	0.23
650.755	-19.77
650.788	9.23
650.821	-3.77
650.854	3.23
650.887	-2.77
650.921	9.23
650.954	-1.77
650.987	-3.77
651.02	-4.77
651.053	-6.77
651.087	-12.77
651.12	7.23
651.153	13.23
651.186	4.23
651.219	-6.77
651.252	7.23
651.286	12.23
651.319	-9.77
651.352	0.23
651.385	0.23
651.418	7.23
651.451	7.23
651.484	5.23
651.518	-22.77
651.551	11.23
651.584	7.23
651.617	28.23
651.65	9.23
651.683	10.23
651.716	-1.77
651.749	0.23
651.783	9.23
651.816	4.23
651.849	14.23
651.882	-5.77
651.915	-2.77
651.948	-2.77
651.981	-13.77
652.014	-20.77
652.047	-20.77
652.08	-11.77
652.114	5.23
652.147	0.23
652.18	4.23
652.213	19.23
652.246	1.23
652.279	-7.77
652.312	-0.77
652.345	-3.77
652.378	4.23
652.411	10.23
652.444	8.23
652.477	16.23
652.51	9.23
652.543	-22.77
652.576	-0.77
652.609	-8.77
652.642	-4.77
652.675	18.23
652.709	-3.77
652.742	15.23
652.775	4.23
652.808	18.23
652.841	25.23
652.874	-3.77
652.907	2.23
652.94	-10.77
652.973	-20.77
653.006	2.23
653.039	-4.77
653.072	7.23
653.105	-4.77
653.138	-2.77
653.171	6.23
653.204	-0.77
653.237	-1.77
653.27	5.23
653.303	3.23
653.336	5.23
653.368	1.23
653.401	13.23
653.434	-13.77
653.467	4.23
653.5	-6.77
653.533	-14.77
653.566	-2.77
653.599	1.23
653.632	22.23
653.665	0.23
653.698	-4.77
653.731	-0.77
653.764	6.23
653.797	3.23
653.83	19.23
653.863	-1.77
653.896	-1.77
653.929	-6.77
653.961	4.23
653.994	0.23
654.027	-3.77
654.06	2.23
654.093	4.23
654.126	6.23
654.159	-22.77
654.192	-9.77
654.225	-2.77
654.258	-5.77
654.29	-10.77
654.323	3.23
654.356	7.23
654.389	6.23
654.422	10.23
654.455	4.23
654.488	-3.77
654.521	-16.77
654.553	-14.77
654.586	-4.77
654.619	0.23
654.652	3.23
654.685	14.23
654.718	7.23
654.751	-8.77
654.783	-5.77
654.816	6.23
654.849	-9.77
654.882	-7.77
654.915	-6.77
654.948	-13.77
654.98	-9.77
655.013	-0.77
655.046	-21.77
655.079	-9.77
655.112	1.23
655.144	-13.77
655.177	-0.77
655.21	19.23
655.243	20.23
655.276	2.23
655.308	-14.77
655.341	-19.77
655.374	-11.77
655.407	-10.77
655.44	-2.77
655.472	0.23
655.505	6.23
655.538	-14.77
655.571	17.23
655.603	-3.77
655.636	-0.77
655.669	8.23
655.702	2.23
655.734	-12.77
655.767	3.23
655.8	5.23
655.833	12.23
655.865	9.23
655.898	2.23
655.931	20.23
655.964	12.23
655.996	28.23
656.029	36.23
656.062	40.23
656.095	39.23
656.127	76.23
656.16	205.23
656.193	600.23
656.225	981.23
656.258	572.23
656.291	209.23
656.324	167.23
656.356	372.23
656.389	784.23
656.422	669.23
656.454	244.23
656.487	60.23
656.52	35.23
656.552	2.23
656.585	11.23
656.618	17.23
656.65	7.23
656.683	8.23
656.716	14.23
656.748	10.23
656.781	14.23
656.814	-5.77
656.846	-1.77
656.879	-8.77
656.912	14.23
656.944	-6.77
656.977	2.23
657.01	1.23
657.042	0.23
657.075	12.23
657.108	9.23
657.14	0.23
657.173	12.23
657.205	28.23
657.238	5.23
657.271	11.23
657.303	-16.77
657.336	0.23
657.369	9.23
657.401	-9.77
657.434	-4.77
657.466	1.23
657.499	3.23
657.532	-10.77
657.564	-0.77
657.597	7.23
657.629	17.23
657.662	1.23
657.694	1.23
657.727	-16.77
657.76	6.23
657.792	-8.77
657.825	-15.77
657.857	-10.77
657.89	-10.77
657.922	3.23
657.955	-13.77
657.987	16.23
658.02	13.23
658.053	5.23
658.085	3.23
658.118	-0.77
658.15	10.23
658.183	22.23
658.215	4.23
658.248	-2.77
658.28	1.23
658.313	0.23
658.345	9.23
658.378	-5.77
658.41	7.23
658.443	7.23
658.475	0.23
658.508	-2.77
658.54	-15.77
658.573	-6.77
658.605	4.23
658.638	-9.77
658.67	4.23
658.703	-11.77
658.735	-27.77
658.768	2.23
658.8	-3.77
658.833	3.23
658.865	11.23
658.898	3.23
658.93	3.23
658.963	-16.77
658.995	-30.77
659.028	0.23
659.06	12.23
659.092	1.23
659.125	1.23
659.157	7.23
659.19	-16.77
659.222	-17.77
659.255	-13.77
659.287	-2.77
659.32	-10.77
659.352	-0.77
659.384	14.23
659.417	-3.77
659.449	1.23
659.482	-6.77
659.514	-14.77
659.546	-10.77
659.579	-22.77
659.611	-5.77
659.644	-16.77
659.676	-4.77
659.708	-6.77
659.741	-9.77
659.773	20.23
659.806	-3.77
659.838	-13.77
659.87	-7.77
659.903	-27.77
659.935	7.23
659.967	18.23
660	14.23
660.032	-4.77
660.065	0.23
660.097	-5.77
660.129	6.23
660.162	-1.77
660.194	4.23
660.226	2.23
660.259	12.23
660.291	1.23
660.323	-12.77
660.356	-4.77
660.388	2.23
660.42	3.23
660.453	15.23
660.485	10.23
660.517	-3.77
660.55	0.23
660.582	-0.77
660.614	6.23
660.647	7.23
660.679	-1.77
660.711	-6.77
660.743	-29.77
660.776	-0.77
660.808	0.23
660.84	-8.77
660.873	-13.77
660.905	-7.77
660.937	1.23
660.969	6.23
661.002	-10.77
661.034	6.23
661.066	8.23
661.099	12.23
661.131	11.23
661.163	-2.77
661.195	-9.77
661.228	18.23
661.26	0.23
661.292	0.23
661.324	7.23
661.357	7.23
661.389	9.23
661.421	11.23
661.453	-0.77
661.485	2.23
661.518	-12.77
661.55	-25.77
661.582	-5.77
661.614	-7.77
661.647	-9.77
661.679	-1.77
661.711	3.23
661.743	2.23
661.775	-10.77
661.808	20.23
661.84	-1.77
661.872	0.23
661.904	-16.77
661.936	-5.77
661.969	-16.77
662.001	0.23
662.033	5.23
662.065	-7.77
662.097	0.23
662.129	0.23
662.162	7.23
662.194	11.23
662.226	5.23
662.258	6.23
662.29	-15.77
662.322	-17.77
662.355	-15.77
662.387	9.23
662.419	-5.77
662.451	-1.77
662.483	-3.77
662.515	-6.77
662.547	0.23
662.58	-13.77
662.612	7.23
662.644	-6.77
662.676	19.23
662.708	12.23
662.74	-1.77
662.772	-6.77
662.804	4.23
662.836	13.23
662.869	6.23
662.901	8.23
662.933	7.23
662.965	16.23
662.997	12.23
663.029	-9.77
663.061	-23.77
663.093	3.23
663.125	9.23
663.157	-7.77
663.189	-4.77
663.221	10.23
663.254	-6.77
663.286	-0.77
663.318	-10.77
663.35	-18.77
663.382	1.23
663.414	1.23
663.446	3.23
663.478	-10.77
663.51	17.23
663.542	-0.77
663.574	-6.77
663.606	11.23
663.638	-9.77
663.67	7.23
663.702	3.23
663.734	-3.77
663.766	-0.77
663.798	-20.77
663.83	5.23
663.862	6.23
663.894	-1.77
663.926	-9.77
663.958	4.23
663.99	-0.77
664.022	-4.77
664.054	12.23
664.086	-0.77
664.118	-31.77
664.15	-17.77
664.182	-8.77
664.214	-7.77
664.246	13.23
664.278	4.23
664.31	14.23
664.342	-5.77
664.374	2.23
664.406	11.23
664.438	10.23
664.47	10.23
664.502	-1.77
664.534	4.23
664.566	11.23
664.598	14.23
664.63	-1.77
664.662	4.23
664.693	-6.77
664.725	3.23
664.757	7.23
664.789	-15.77
664.821	7.23
664.853	14.23
664.885	0.23
664.917	-17.77
664.949	0.23
664.981	11.23
665.013	8.23
665.045	-13.77
665.076	9.23
665.108	-9.77
665.14	4.23
665.172	-2.77
665.204	5.23
665.236	8.23
665.268	-5.77
665.3	18.23
665.331	3.23
665.363	8.23
665.395	-10.77
665.427	7.23
665.459	8.23
665.491	5.23
665.523	1.23
665.555	3.23
665.586	8.23
665.618	-8.77
665.65	-7.77
665.682	-4.77
665.714	-8.77
665.746	-1.77
665.777	1.23
665.809	7.23
665.841	4.23
665.873	-16.77
665.905	-5.77
665.937	17.23
665.968	2.23
666	-3.77
666.032	2.23
666.064	-16.77
666.096	-8.77
666.127	13.23
666.159	5.23
666.191	5.23
666.223	4.23
666.255	-2.77
666.286	-0.77
666.318	-2.77
666.35	25.23
666.382	14.23
666.413	-12.77
666.445	-11.77
666.477	-1.77
666.509	-12.77
666.54	7.23
666.572	-3.77
666.604	2.23
666.636	-0.77
666.667	7.23
666.699	20.23
666.731	-9.77
666.763	-16.77
666.794	-8.77
666.826	-0.77
666.858	0.23
666.89	-2.77
666.921	-9.77
666.953	-11.77
666.985	7.23
667.017	15.23
667.048	9.23
667.08	21.23
667.112	6.23
667.143	-16.77
667.175	13.23
667.207	8.23
667.238	7.23
667.27	-1.77
667.302	-4.77
667.334	0.23
667.365	10.23
667.397	-2.77
667.429	-7.77
667.46	7.23
667.492	14.23
667.524	2.23
667.555	-6.77
667.587	-1.77
667.619	10.23
667.65	1.23
667.682	9.23
667.714	11.23
667.745	12.23
667.777	10.23
667.808	1.23
667.84	-3.77
667.872	-1.77
667.903	11.23
667.935	-5.77
667.967	12.23
667.998	4.23
668.03	-11.77
668.061	-1.77
668.093	4.23
668.125	-8.77
668.156	13.23
668.188	1.23
668.22	-10.77
668.251	-0.77
668.283	7.23
668.314	5.23
668.346	1.23
668.377	0.23
668.409	3.23
668.441	3.23
668.472	-3.77
668.504	10.23
668.535	-1.77
668.567	7.23
668.599	-1.77
668.63	-1.77
668.662	-7.77
668.693	6.23
668.725	0.23
668.756	9.23
668.788	12.23
668.819	-1.77
668.851	8.23
668.882	10.23
668.914	6.23
668.946	-1.77
668.977	1.23
669.009	-3.77
669.04	-6.77
669.072	7.23
669.103	7.23
669.135	12.23
669.166	8.23
669.198	2.23
669.229	6.23
669.261	10.23
669.292	-2.77
669.324	17.23
669.355	-3.77
669.387	-7.77
669.418	-4.77
669.45	-18.77
669.481	4.23
669.513	13.23
669.544	1.23
669.576	-5.77
669.607	8.23
669.639	3.23
669.67	-15.77
669.701	9.23
669.733	-9.77
669.764	9.23
669.796	8.23
669.827	-0.77
669.859	-18.77
669.89	8.23
669.922	0.23
669.953	9.23
669.985	1.23
670.016	10.23
670.047	-9.77
670.079	-14.77
670.11	10.23
670.142	-10.77
670.173	-4.77
670.204	-7.77
670.236	2.23
670.267	-16.77
670.299	2.23
670.33	-5.77
670.362	-2.77
670.393	1.23
670.424	11.23
670.456	-9.77
670.487	6.23
670.518	8.23
670.55	0.23
670.581	-10.77
670.613	9.23
670.644	-0.77
670.675	-8.77
670.707	-12.77
670.738	1.23
670.769	5.23
670.801	-25.77
670.832	-10.77
670.864	2.23
670.895	4.23
670.926	-3.77
670.958	0.23
670.989	0.23
671.02	-16.77
671.052	-0.77
671.083	3.23
671.114	-0.77
671.146	17.23
671.177	8.23
671.208	-5.77
671.24	-4.77
671.271	-4.77
671.302	-8.77
671.333	-4.77
671.365	-9.77
671.396	-4.77
671.427	7.23
671.459	2.23
671.49	9.23
671.521	3.23
671.553	6.23
671.584	9.23
671.615	-28.77
671.646	3.23
671.678	16.23
671.709	-22.77
671.74	-11.77
671.771	7.23
671.803	-4.77
671.834	-1.77
671.865	8.23
671.896	0.23
671.928	-5.77
671.959	4.23
671.99	-8.77
672.021	14.23
672.053	-5.77
672.084	7.23
672.115	2.23
672.146	-20.77
672.178	-34.77
672.209	-10.77
672.24	-3.77
672.271	5.23
672.303	-5.77
672.334	1.23
672.365	-7.77
672.396	4.23
672.427	-0.77
672.459	11.23
672.49	17.23
672.521	4.23
672.552	16.23
672.583	12.23
672.615	10.23
672.646	7.23
672.677	-7.77
672.708	0.23
672.739	-5.77
672.77	5.23
672.802	-8.77
672.833	-5.77
672.864	-4.77
672.895	-5.77
672.926	-6.77
672.957	-18.77
672.989	3.23
673.02	-0.77
673.051	-8.77
673.082	-2.77
673.113	8.23
673.144	8.23
673.175	2.23
673.206	-4.77
673.238	0.23
673.269	14.23
673.3	-8.77
673.331	2.23
673.362	-4.77
673.393	5.23
673.424	14.23
673.455	9.23
673.487	-6.77
673.518	3.23
673.549	-1.77
673.58	3.23
673.611	-20.77
673.642	3.23
673.673	-34.77
673.704	1.23
673.735	17.23
673.766	1.23
673.797	-11.77
673.828	10.23
673.86	-22.77
673.891	-10.77
673.922	-19.77
673.953	-2.77
673.984	2.23
674.015	14.23
674.046	5.23
674.077	-2.77
674.108	-10.77
674.139	-10.77
674.17	-19.77
674.201	-15.77
674.232	-0.77
674.263	-4.77
674.294	-1.77
674.325	-19.77
674.356	7.23
674.387	14.23
674.418	8.23
674.449	-8.77
674.48	-13.77
674.511	3.23
674.542	32.23
674.573	-2.77
674.604	3.23
674.635	-3.77
674.666	9.23
674.697	15.23
674.728	-3.77
674.759	3.23
674.79	3.23
674.821	-6.77
674.852	-19.77
674.883	-12.77
674.914	-15.77
674.945	-18.77
674.976	-7.77
675.007	-18.77
675.038	4.23
675.069	-16.77
675.1	-13.77
675.131	2.23
675.162	-11.77
675.193	-10.77
675.224	-9.77
675.254	0.23
675.285	4.23
675.316	6.23
675.347	9.23
675.378	-10.77
675.409	-9.77
675.44	1.23
675.471	-4.77
675.502	-0.77
675.533	-0.77
675.564	11.23
675.595	-15.77
675.625	19.23
675.656	7.23
675.687	10.23
675.718	-5.77
675.749	5.23
675.78	5.23
675.811	-7.77
675.842	-6.77
675.873	0.23
675.903	-4.77
675.934	-6.77
675.965	-6.77
675.996	-3.77
676.027	-19.77
676.058	-6.77
676.089	-14.77
676.119	8.23
676.15	-22.77
676.181	-12.77
676.212	-0.77
676.243	22.23
676.274	10.23
676.304	17.23
676.335	-7.77
676.366	-2.77
676.397	0.23
676.428	-7.77
676.459	10.23
676.489	21.23
676.52	1.23
676.551	0.23
676.582	-19.77
676.613	0.23
676.643	-6.77
676.674	10.23
676.705	-11.77
676.736	6.23
676.767	12.23
676.797	10.23
676.828	2.23
676.859	-9.77
676.89	5.23
676.92	17.23
676.951	18.23
676.982	7.23
677.013	6.23
677.044	18.23
677.074	1.23
677.105	-19.77
677.136	2.23
677.167	-5.77
677.197	10.23
677.228	8.23
677.259	-7.77
677.289	-9.77
677.32	-15.77
677.351	-18.77
677.382	0.23
677.412	4.23
677.443	-10.77
677.474	-5.77
677.505	-20.77
677.535	9.23
677.566	-8.77
677.597	-17.77
677.627	-10.77
677.658	6.23
677.689	7.23
677.72	-0.77
677.75	-13.77
677.781	3.23
677.812	-4.77
677.842	11.23
677.873	12.23
677.904	15.23
677.934	8.23
677.965	-5.77
677.996	-1.77
678.026	-5.77
678.057	-6.77
678.088	-22.77
678.118	-10.77
678.149	-24.77
678.18	12.23
678.21	13.23
678.241	2.23
678.272	5.23
678.302	-8.77
678.333	-10.77
678.363	13.23
678.394	5.23
678.425	-7.77
678.455	-2.77
678.486	-10.77
678.517	-12.77
678.547	3.23
678.578	7.23
678.608	-20.77
678.639	3.23
678.67	-5.77
678.7	-13.77
678.731	4.23
678.761	7.23
678.792	8.23
678.823	4.23
678.853	19.23
678.884	-7.77
678.914	-12.77
678.945	6.23
678.975	1.23
679.006	-2.77
679.037	-4.77
679.067	23.23
679.098	3.23
679.128	-14.77
679.159	9.23
679.189	-4.77
679.22	-35.77
679.25	3.23
679.281	0.23
679.312	-3.77
679.342	7.23
679.373	13.23
679.403	7.23
679.434	15.23
679.464	-5.77
679.495	-6.77
679.525	-4.77
679.556	10.23
679.586	9.23
679.617	6.23
679.647	-7.77
679.678	-1.77
679.708	-6.77
679.739	-2.77
679.769	-4.77
679.8	-0.77
679.83	-4.77
679.861	11.23
679.891	-19.77
679.922	-27.77
679.952	-5.77
679.983	4.23
680.013	-1.77
680.044	-0.77
680.074	5.23
680.105	9.23
680.135	16.23
680.165	14.23
680.196	10.23
680.226	-0.77
680.257	13.23
680.287	7.23
680.318	-9.77
680.348	-12.77
680.379	3.23
680.409	-7.77
680.439	-4.77
680.47	6.23
680.5	5.23
680.531	-5.77
680.561	3.23
680.592	14.23
680.622	13.23
680.652	-4.77
680.683	2.23
680.713	-1.77
680.744	-9.77
680.774	-3.77
680.804	11.23
680.835	-16.77
680.865	-18.77
680.896	3.23
680.926	14.23
680.956	-7.77
680.987	-5.77
681.017	-5.77
681.047	-5.77
681.078	-7.77
681.108	-8.77
681.139	-15.77
681.169	7.23
681.199	3.23
681.23	7.23
681.26	-9.77
681.29	-4.77
681.321	-7.77
681.351	-4.77
681.381	-2.77
681.412	21.23
681.442	3.23
681.472	17.23
681.503	14.23
681.533	-0.77
681.563	5.23
681.594	0.23
681.624	11.23
681.654	-1.77
681.685	0.23
681.715	-16.77
681.745	-1.77
681.775	-2.77
681.806	3.23
681.836	-7.77
681.866	-13.77
681.897	6.23
681.927	-8.77
681.957	-11.77
681.987	1.23
682.018	-3.77
682.048	14.23
682.078	7.23
682.109	24.23
682.139	3.23
682.169	4.23
682.199	-7.77
682.23	-12.77
682.26	-6.77
682.29	-3.77
682.32	11.23
682.351	2.23
682.381	5.23
682.411	1.23
682.441	-8.77
682.472	-10.77
682.502	-8.77
682.532	-8.77
682.562	-4.77
682.592	3.23
682.623	8.23
682.653	9.23
682.683	-6.77
682.713	7.23
682.743	3.23
682.774	-9.77
682.804	-0.77
682.834	10.23
682.864	3.23
682.894	1.23
682.925	-10.77
682.955	-6.77
682.985	-14.77
683.015	-4.77
683.045	13.23
683.076	-16.77
683.106	-13.77
683.136	-17.77
683.166	-15.77
683.196	-7.77
683.226	-5.77
683.257	-3.77
683.287	-12.77
683.317	-32.77
683.347	-20.77
683.377	-1.77
683.407	20.23
683.437	-2.77
683.468	2.23
683.498	-12.77
683.528	-3.77
683.558	-7.77
683.588	-12.77
683.618	0.23
683.648	-9.77
683.678	1.23
683.708	5.23
683.739	1.23
683.769	-7.77
683.799	-8.77
683.829	-18.77
683.859	5.23
683.889	18.23
683.919	-3.77
683.949	-10.77
683.979	6.23
684.009	-3.77
684.039	-4.77
684.07	-6.77
684.1	10.23
684.13	-0.77
684.16	5.23
684.19	-18.77
684.22	1.23
684.25	-5.77
684.28	-23.77
684.31	17.23
684.34	9.23
684.37	-3.77
684.4	-11.77
684.43	5.23
684.46	7.23
684.49	13.23
684.52	7.23
684.55	4.23
684.58	-2.77
684.61	-0.77
684.64	-0.77
684.67	10.23
684.7	6.23
684.73	4.23
684.76	-11.77
684.79	15.23
684.82	1.23
684.85	-3.77
684.88	-1.77
684.91	-6.77
684.94	11.23
684.97	-16.77
685	-6.77
685.03	-14.77
685.06	-12.77
685.09	17.23
685.12	33.23
685.15	5.23
685.18	5.23
685.21	4.23
685.24	9.23
685.27	10.23
685.3	-2.77
685.33	2.23
685.36	6.23
685.39	4.23
685.42	-6.77
685.45	2.23
685.48	0.23
685.51	-2.77
685.54	-2.77
685.569	-3.77
685.599	22.23
685.629	7.23
685.659	-2.77
685.689	-3.77
685.719	16.23
685.749	4.23
685.779	10.23
685.809	6.23
685.839	1.23
685.869	4.23
685.898	16.23
685.928	13.23
685.958	3.23
685.988	4.23
686.018	5.23
686.048	11.23
686.078	17.23
686.108	23.23
686.137	-16.77
686.167	3.23
686.197	-12.77
686.227	-2.77
686.257	27.23
686.287	21.23
686.317	8.23
686.346	-9.77
686.376	-16.77
686.406	-3.77
686.436	14.23
686.466	-11.77
686.496	2.23
686.525	-3.77
686.555	-5.77
686.585	8.23
686.615	27.23
686.645	6.23
686.675	3.23
686.704	9.23
686.734	2.23
686.764	8.23
686.794	0.23
686.824	-1.77
686.853	17.23
686.883	11.23
686.913	19.23
686.943	-1.77
686.973	-1.77
687.002	7.23
687.032	7.23
687.062	1.23
687.092	23.23
687.121	-0.77
687.151	2.23
687.181	-17.77
687.211	2.23
687.24	16.23
687.27	5.23
687.3	1.23
687.33	3.23
687.359	-7.77
687.389	20.23
687.419	5.23
687.449	13.23
687.478	-4.77
687.508	3.23
687.538	3.23
687.568	-4.77
687.597	-1.77
687.627	-6.77
687.657	5.23
687.686	0.23
687.716	18.23
687.746	-2.77
687.776	-9.77
687.805	-1.77
687.835	9.23
687.865	15.23
687.894	-4.77
687.924	13.23
687.954	15.23
687.983	0.23
688.013	9.23
688.043	9.23
688.072	-5.77
688.102	9.23
688.132	5.23
688.161	3.23
688.191	-3.77
688.221	12.23
688.25	-0.77
688.28	17.23
688.31	3.23
688.339	-0.77
688.369	1.23
688.399	-9.77
688.428	2.23
688.458	16.23
688.488	-4.77
688.517	0.23
688.547	-5.77
688.576	23.23
688.606	5.23
688.636	-2.77
688.665	8.23
688.695	1.23
688.725	11.23
688.754	-4.77
688.784	5.23
688.813	9.23
688.843	-9.77
688.873	-3.77
688.902	-17.77
688.932	-3.77
688.961	4.23
688.991	14.23
689.02	23.23
689.05	-18.77
689.08	7.23
689.109	14.23
689.139	0.23
689.168	10.23
689.198	-1.77
689.227	0.23
689.257	8.23
689.287	3.23
689.316	6.23
689.346	-13.77
689.375	2.23
689.405	8.23
689.434	-6.77
689.464	4.23
689.493	2.23
689.523	-4.77
689.552	-11.77
689.582	8.23
689.611	-1.77
689.641	0.23
689.67	-5.77
689.7	0.23
689.73	8.23
689.759	2.23
689.789	11.23
689.818	2.23
689.848	-9.77
689.877	25.23
689.906	-12.77
689.936	-5.77
689.965	13.23
689.995	9.23
690.024	7.23
690.054	-10.77
690.083	-4.77
690.113	-2.77
690.142	-6.77
690.172	-4.77
690.201	5.23
690.231	-2.77
690.26	0.23
690.29	-2.77
690.319	8.23
690.348	3.23
690.378	13.23
690.407	6.23
690.437	-2.77
690.466	-12.77
690.496	-8.77
690.525	6.23
690.555	3.23
690.584	-0.77
690.613	-5.77
690.643	11.23
690.672	5.23
690.702	1.23
690.731	-3.77
690.76	11.23
690.79	-10.77
690.819	14.23
690.849	5.23
690.878	8.23
690.907	15.23
690.937	10.23
690.966	6.23
690.996	7.23
691.025	3.23
691.054	6.23
691.084	10.23
691.113	19.23
691.142	9.23
691.172	6.23
691.201	1.23
691.23	7.23
691.26	-2.77
691.289	-2.77
691.319	-4.77
691.348	11.23
691.377	21.23
691.407	8.23
691.436	5.23
691.465	1.23
691.495	4.23
691.524	-8.77
691.553	16.23
691.583	-9.77
691.612	-0.77
691.641	4.23
691.67	3.23
691.7	16.23
691.729	3.23
691.758	28.23
691.788	19.23
691.817	-2.77
691.846	-0.77
691.876	-12.77
691.905	-7.77
691.934	-10.77
691.963	6.23
691.993	22.23
692.022	-9.77
692.051	-10.77
692.081	8.23
692.11	27.23
692.139	-2.77
692.168	6.23
692.198	22.23
692.227	6.23
692.256	13.23
692.285	-0.77
692.315	2.23
692.344	2.23
692.373	20.23
692.402	-7.77
692.432	-10.77
692.461	-4.77
692.49	-6.77
692.519	3.23
692.548	5.23
692.578	20.23
692.607	13.23
692.636	10.23
692.665	22.23
692.694	-0.77
692.724	3.23
692.753	9.23
692.782	16.23
692.811	-9.77
692.84	3.23
692.87	15.23
692.899	2.23
692.928	2.23
692.957	10.23
692.986	7.23
693.016	1.23
693.045	5.23
693.074	6.23
693.103	-2.77
693.132	3.23
693.161	5.23
693.191	-4.77
693.22	-6.77
693.249	-0.77
693.278	-2.77
693.307	7.23
693.336	-11.77
693.365	-16.77
693.395	-2.77
693.424	2.23
693.453	18.23
693.482	-0.77
693.511	10.23
693.54	4.23
693.569	-3.77
693.598	0.23
693.628	13.23
693.657	4.23
693.686	14.23
693.715	10.23
693.744	15.23
693.773	19.23
693.802	14.23
693.831	-4.77
693.86	22.23
693.889	4.23
693.919	13.23
693.948	-4.77
693.977	9.23
694.006	12.23
694.035	12.23
694.064	4.23
694.093	3.23
694.122	-1.77
694.151	3.23
694.18	3.23
694.209	16.23
694.238	-3.77
694.267	12.23
694.296	16.23
694.325	13.23
694.354	-2.77
694.383	0.23
694.412	-2.77
694.441	9.23
694.471	-12.77
694.5	-19.77
694.529	-1.77
694.558	12.23
694.587	29.23
694.616	-2.77
694.645	20.23
694.674	22.23
694.703	6.23
694.732	-12.77
694.761	11.23
694.79	18.23
694.819	-17.77
694.848	2.23
694.877	2.23
694.906	16.23
694.935	2.23
694.963	14.23
694.992	11.23
695.021	-4.77
695.05	22.23
695.079	3.23
695.108	10.23
695.137	11.23
695.166	-5.77
695.195	-5.77
695.224	15.23
695.253	28.23
695.282	12.23
695.311	2.23
695.34	5.23
695.369	6.23
695.398	20.23
695.427	3.23
695.456	10.23
695.485	12.23
695.513	9.23
695.542	-5.77
695.571	6.23
695.6	25.23
695.629	35.23
695.658	17.23
695.687	1.23
695.716	6.23
695.745	21.23
695.774	-6.77
695.802	-0.77
695.831	5.23
695.86	2.23
695.889	21.23
695.918	5.23
695.947	6.23
695.976	13.23
696.005	-3.77
696.033	16.23
696.062	1.23
696.091	3.23
696.12	3.23
696.149	17.23
696.178	-5.77
696.207	14.23
696.235	-4.77
696.264	6.23
696.293	3.23
696.322	-0.77
696.351	2.23
696.38	3.23
696.408	5.23
696.437	2.23
696.466	-0.77
696.495	17.23
696.524	5.23
696.553	2.23
696.581	-0.77
696.61	13.23
696.639	13.23
696.668	-1.77
696.697	-2.77
696.725	14.23
696.754	-6.77
696.783	-4.77
696.812	5.23
696.84	4.23
696.869	11.23
696.898	-3.77
696.927	6.23
696.956	11.23
696.984	0.23
697.013	7.23
697.042	7.23
697.071	5.23
697.099	9.23
697.128	18.23
697.157	9.23
697.186	3.23
697.214	9.23
697.243	14.23
697.272	0.23
697.301	-5.77
697.329	6.23
697.358	13.23
697.387	23.23
697.415	10.23
697.444	3.23
697.473	-1.77
697.502	-7.77
697.53	-5.77
697.559	6.23
697.588	3.23
697.616	3.23
697.645	2.23
697.674	28.23
697.703	2.23
697.731	14.23
697.76	26.23
697.789	-12.77
697.817	3.23
697.846	13.23
697.875	13.23
697.903	36.23
697.932	7.23
697.961	5.23
697.989	0.23
698.018	18.23
698.047	0.23
698.075	5.23
698.104	-3.77
698.133	11.23
698.161	0.23
698.19	-8.77
698.218	0.23
698.247	7.23
698.276	-13.77
698.304	11.23
698.333	12.23
698.362	11.23
698.39	13.23
698.419	5.23
698.447	6.23
698.476	-0.77
698.505	17.23
698.533	14.23
698.562	0.23
698.591	2.23
698.619	-3.77
698.648	8.23
698.676	3.23
698.705	7.23
698.733	1.23
698.762	7.23
698.791	8.23
698.819	-1.77
698.848	-1.77
698.876	14.23
698.905	10.23
698.933	6.23
698.962	-4.77
698.991	5.23
699.019	16.23
699.048	5.23
699.076	1.23
699.105	3.23
699.133	0.23
699.162	10.23
699.19	17.23
699.219	12.23
699.248	-8.77
699.276	4.23
699.305	8.23
699.333	-0.77
699.362	4.23
699.39	20.23
699.419	-17.77
699.447	3.23
699.476	26.23
699.504	5.23
699.533	-5.77
699.561	-11.77
699.59	4.23
699.618	6.23
699.647	15.23
699.675	7.23
699.704	21.23
699.732	4.23
699.761	22.23
699.789	2.23
699.818	15.23
699.846	3.23
699.874	0.23
699.903	-2.77
699.931	5.23
699.96	18.23
699.988	-4.77
700.017	2.23
700.045	10.23
700.074	2.23
700.102	-4.77
700.13	-19.77
700.159	11.23
700.187	12.23
700.216	-5.77
700.244	-4.77
700.273	-6.77
700.301	4.23
700.329	15.23
700.358	3.23
700.386	7.23
700.415	7.23
700.443	5.23
700.472	-11.77
700.5	-7.77
700.528	3.23
700.557	6.23
700.585	-8.77
700.614	1.23
700.642	-0.77
700.67	11.23
700.699	0.23
700.727	0.23
700.755	-5.77
700.784	6.23
700.812	8.23
700.841	15.23
700.869	-4.77
700.897	-9.77
700.926	-4.77
700.954	3.23
700.982	6.23
701.011	10.23
701.039	6.23
701.067	4.23
701.096	17.23
701.124	-4.77
701.152	22.23
701.181	12.23
701.209	-10.77
701.237	0.23
701.266	-4.77
701.294	-4.77
701.322	1.23
701.351	13.23
701.379	0.23
701.407	-8.77
701.435	-0.77
701.464	-1.77
701.492	23.23
701.52	11.23
701.549	19.23
701.577	4.23
701.605	-2.77
701.634	-6.77
701.662	17.23
701.69	-18.77
701.718	-12.77
701.747	11.23
701.775	13.23
701.803	-10.77
701.831	0.23
701.86	1.23
701.888	3.23
701.916	-6.77
701.944	-2.77
701.973	-4.77
702.001	-15.77
702.029	-10.77
702.057	4.23
702.086	-4.77
702.114	-1.77
702.142	-0.77
702.17	-3.77
702.199	-0.77
702.227	0.23
702.255	9.23
702.283	-5.77
702.311	21.23
702.34	6.23
702.368	-9.77
702.396	2.23
702.424	-3.77
702.452	12.23
702.481	-4.77
702.509	1.23
702.537	14.23
702.565	3.23
702.593	-19.77
702.621	6.23
702.65	13.23
702.678	6.23
702.706	-1.77
702.734	-10.77
702.762	6.23
702.79	-2.77
702.819	0.23
702.847	15.23
702.875	7.23
702.903	15.23
702.931	-11.77
702.959	1.23
702.988	10.23
703.016	-8.77
703.044	-3.77
703.072	-4.77
703.1	-6.77
703.128	-7.77
703.156	0.23
703.184	-6.77
703.212	0.23
703.241	0.23
703.269	-10.77
703.297	3.23
703.325	-6.77
703.353	-5.77
703.381	-10.77
703.409	7.23
703.437	3.23
703.465	4.23
703.493	0.23
703.522	-12.77
703.55	5.23
703.578	4.23
703.606	0.23
703.634	-9.77
703.662	-1.77
703.69	6.23
703.718	5.23
703.746	31.23
703.774	-6.77
703.802	-0.77
703.83	-8.77
703.858	10.23
703.886	-0.77
703.914	4.23
703.942	8.23
703.97	-8.77
703.998	5.23
704.027	25.23
704.055	2.23
704.083	-3.77
704.111	-11.77
704.139	7.23
704.167	5.23
704.195	-2.77
704.223	4.23
704.251	-6.77
704.279	-2.77
704.307	2.23
704.335	-6.77
704.363	5.23
704.391	-10.77
704.419	-7.77
704.447	-9.77
704.475	-13.77
704.503	-16.77
704.531	4.23
704.558	-5.77
704.586	-8.77
704.614	-1.77
704.642	1.23
704.67	-9.77
704.698	-4.77
704.726	5.23
704.754	-0.77
704.782	7.23
704.81	-8.77
704.838	16.23
704.866	2.23
704.894	-3.77
704.922	15.23
704.95	2.23
704.978	14.23
705.006	3.23
705.034	12.23
705.061	-7.77
705.089	-2.77
705.117	-5.77
705.145	-10.77
705.173	-14.77
705.201	-3.77
705.229	2.23
705.257	-8.77
705.285	0.23
705.313	6.23
705.34	3.23
705.368	-7.77
705.396	11.23
705.424	1.23
705.452	-4.77
705.48	-0.77
705.508	0.23
705.536	1.23
705.563	-7.77
705.591	8.23
705.619	1.23
705.647	-16.77
705.675	-1.77
705.703	-5.77
705.731	-0.77
705.758	9.23
705.786	-1.77
705.814	17.23
705.842	7.23
705.87	8.23
705.898	4.23
705.925	-15.77
705.953	3.23
705.981	1.23
706.009	-7.77
706.037	5.23
706.065	-8.77
706.092	-12.77
706.12	5.23
706.148	6.23
706.176	-2.77
706.204	8.23
706.231	-10.77
706.259	-21.77
706.287	-10.77
706.315	0.23
706.342	-1.77
706.37	10.23
706.398	2.23
706.426	-1.77
706.454	3.23
706.481	18.23
706.509	-3.77
706.537	-5.77
706.565	-18.77
706.592	11.23
706.62	2.23
706.648	3.23
706.676	-10.77
706.703	-0.77
706.731	-4.77
706.759	-1.77
706.787	2.23
706.814	-17.77
706.842	-9.77
706.87	-0.77
706.897	-2.77
706.925	-6.77
706.953	2.23
706.981	12.23
707.008	16.23
707.036	7.23
707.064	-1.77
707.091	-7.77
707.119	12.23
707.147	5.23
707.174	-10.77
707.202	11.23
707.23	1.23
707.258	-2.77
707.285	-22.77
707.313	-10.77
707.341	-24.77
707.368	-10.77
707.396	0.23
707.424	24.23
707.451	19.23
707.479	12.23
707.507	-0.77
707.534	-8.77
707.562	-8.77
707.59	-12.77
707.617	11.23
707.645	-10.77
707.672	9.23
707.7	-1.77
707.728	9.23
707.755	2.23
707.783	-16.77
707.811	2.23
707.838	-14.77
707.866	-3.77
707.893	-6.77
707.921	1.23
707.949	-1.77
707.976	3.23
708.004	-1.77
708.031	-21.77
708.059	-7.77
708.087	10.23
708.114	2.23
708.142	-4.77
708.169	-16.77
708.197	-4.77
708.225	-8.77
708.252	-12.77
708.28	19.23
708.307	-1.77
708.335	10.23
708.362	-2.77
708.39	-8.77
708.418	6.23
708.445	3.23
708.473	-3.77
708.5	-5.77
708.528	2.23
708.555	-2.77
708.583	13.23
708.61	0.23
708.638	0.23
708.665	-5.77
708.693	-9.77
708.72	-11.77
708.748	-14.77
708.776	5.23
708.803	16.23
708.831	5.23
708.858	15.23
708.886	-2.77
708.913	-5.77
708.941	-13.77
708.968	0.23
708.996	-15.77
709.023	19.23
709.051	-7.77
709.078	-6.77
709.105	3.23
709.133	2.23
709.16	17.23
709.188	18.23
709.215	9.23
709.243	-12.77
709.27	-10.77
709.298	2.23
709.325	1.23
709.353	-9.77
709.38	-12.77
709.408	-1.77
709.435	11.23
709.462	15.23
709.49	-2.77
709.517	-17.77
709.545	-12.77
709.572	-9.77
709.6	-1.77
709.627	-10.77
709.655	-6.77
709.682	-2.77
709.709	6.23
709.737	-5.77
709.764	-9.77
709.792	2.23
709.819	-5.77
709.846	2.23
709.874	-2.77
709.901	0.23
709.929	11.23
709.956	2.23
709.983	-10.77
710.011	-0.77
710.038	4.23
710.066	6.23
710.093	3.23
710.12	-2.77
710.148	-13.77
710.175	-12.77
710.202	-20.77
710.23	-1.77
710.257	-13.77
710.284	9.23
710.312	-0.77
710.339	2.23
710.366	12.23
710.394	-0.77
710.421	-6.77
710.448	-0.77
710.476	-15.77
710.503	-0.77
710.53	18.23
710.558	12.23
710.585	6.23
710.612	-14.77
710.64	0.23
710.667	-10.77
710.694	-5.77
710.722	-0.77
710.749	9.23
710.776	3.23
710.804	19.23
710.831	13.23
710.858	-7.77
710.885	-7.77
710.913	-10.77
710.94	4.23
710.967	-12.77
710.995	-4.77
711.022	-7.77
711.049	18.23
711.076	-9.77
711.104	6.23
711.131	-7.77
711.158	-9.77
711.185	-9.77
711.213	-12.77
711.24	-10.77
711.267	14.23
711.294	7.23
711.322	12.23
711.349	-5.77
711.376	-3.77
711.403	-7.77
711.431	-12.77
711.458	3.23
711.485	-6.77
711.512	6.23
711.54	-21.77
711.567	-8.77
711.594	-15.77
711.621	-0.77
711.648	0.23
711.676	7.23
711.703	9.23
711.73	-4.77
711.757	8.23
711.784	3.23
711.812	-0.77
711.839	-4.77
711.866	-7.77
711.893	-1.77
711.92	6.23
711.947	5.23
711.975	0.23
712.002	12.23
712.029	16.23
712.056	4.23
712.083	6.23
712.11	-12.77
712.138	10.23
712.165	6.23
712.192	3.23
712.219	-0.77
712.246	-5.77
712.273	-3.77
712.3	-3.77
712.328	-4.77
712.355	6.23
712.382	-15.77
712.409	2.23
712.436	-8.77
712.463	0.23
712.49	4.23
712.517	2.23
712.544	-4.77
712.572	-12.77
712.599	11.23
712.626	8.23
712.653	0.23
712.68	-12.77
712.707	-3.77
712.734	-0.77
712.761	-6.77
712.788	-14.77
712.815	3.23
712.842	15.23
712.87	-19.77
712.897	-17.77
712.924	-7.77
712.951	4.23
712.978	9.23
713.005	16.23
713.032	14.23
713.059	4.23
713.086	-3.77
713.113	-9.77
713.14	-19.77
713.167	-3.77
713.194	-7.77
713.221	-4.77
713.248	1.23
713.275	1.23
713.302	-1.77
713.329	4.23
713.356	8.23
713.383	2.23
713.41	7.23
713.437	-17.77
713.464	-0.77
713.491	13.23
713.518	5.23
713.545	-11.77
713.572	3.23
713.599	16.23
713.626	-12.77
713.653	6.23
713.68	-4.77
713.707	1.23
713.734	-7.77
713.761	4.23
713.788	-5.77
713.815	8.23
713.842	0.23
713.869	8.23
713.896	11.23
713.923	-3.77
713.95	-18.77
713.977	-9.77
714.004	-2.77
714.031	-13.77
714.058	13.23
714.085	-0.77
714.112	-3.77
714.139	-5.77
714.165	-0.77
714.192	3.23
714.219	6.23
714.246	-4.77
714.273	4.23
714.3	-1.77
714.327	4.23
714.354	0.23
714.381	-4.77
714.408	3.23
714.435	11.23
714.461	7.23
714.488	13.23
714.515	-4.77
714.542	-18.77
714.569	-20.77
714.596	-2.77
714.623	2.23
714.65	-11.77
714.677	-0.77
714.703	2.23
714.73	5.23
714.757	4.23
714.784	4.23
714.811	-11.77
714.838	-3.77
714.865	-0.77
714.891	13.23
714.918	-0.77
714.945	-16.77
714.972	10.23
714.999	17.23
715.026	-15.77
715.052	4.23
715.079	2.23
715.106	-6.77
715.133	7.23
715.16	-9.77
715.187	10.23
715.213	7.23
715.24	-5.77
715.267	0.23
715.294	5.23
715.321	-2.77
715.347	2.23
715.374	-13.77
715.401	-1.77
715.428	-1.77
715.455	-13.77
715.481	-19.77
715.508	22.23
715.535	6.23
715.562	16.23
715.588	-1.77
715.615	0.23
715.642	6.23
715.669	1.23
715.695	-1.77
715.722	-6.77
715.749	16.23
715.776	18.23
715.802	-0.77
715.829	4.23
715.856	3.23
715.883	18.23
715.909	-5.77
715.936	6.23
715.963	-4.77
715.99	-4.77
716.016	-4.77
716.043	7.23
716.07	-7.77
716.096	2.23
716.123	1.23
716.15	-3.77
716.177	-5.77
716.203	12.23
716.23	2.23
716.257	15.23
716.283	15.23
716.31	-16.77
716.337	7.23
716.363	-16.77
716.39	3.23
716.417	15.23
716.443	-7.77
716.47	6.23
716.497	9.23
716.523	7.23
716.55	-9.77
716.577	5.23
716.603	-1.77
716.63	-6.77
716.657	12.23
716.683	-2.77
716.71	-11.77
716.737	3.23
716.763	-1.77
716.79	-3.77
716.817	3.23
716.843	-3.77
716.87	0.23
716.897	2.23
716.923	10.23
716.95	2.23
716.976	1.23
717.003	3.23
717.03	0.23
717.056	2.23
717.083	-4.77
717.109	6.23
717.136	-3.77
717.163	-7.77
717.189	2.23
717.216	-5.77
717.242	-2.77
717.269	-6.77
717.296	9.23
717.322	12.23
717.349	15.23
717.375	7.23
717.402	4.23
717.428	7.23
717.455	8.23
717.481	9.23
717.508	17.23
717.535	4.23
717.561	10.23
717.588	0.23
717.614	-1.77
717.641	3.23
717.667	8.23
717.694	7.23
717.72	-6.77
717.747	4.23
717.773	-13.77
717.8	-0.77
717.826	-3.77
717.853	11.23
717.88	6.23
717.906	0.23
717.933	-1.77
717.959	-6.77
717.986	10.23
718.012	4.23
718.039	14.23
718.065	11.23
718.092	2.23
718.118	-12.77
718.144	-14.77
718.171	13.23
718.197	25.23
718.224	4.23
718.25	-6.77
718.277	8.23
718.303	11.23
718.33	-5.77
718.356	-1.77
718.383	-12.77
718.409	-4.77
718.436	-1.77
718.462	-2.77
718.489	-2.77
718.515	24.23
718.541	16.23
718.568	15.23
718.594	3.23
718.621	9.23
718.647	-14.77
718.674	4.23
718.7	10.23
718.726	0.23
718.753	1.23
718.779	12.23
718.806	0.23
718.832	2.23
718.858	-1.77
718.885	-6.77
718.911	1.23
718.938	11.23
718.964	7.23
718.99	1.23
719.017	2.23
719.043	7.23
719.07	8.23
719.096	7.23
719.122	18.23
719.149	4.23
719.175	-4.77
719.201	-7.77
719.228	-6.77
719.254	-7.77
719.281	-11.77
719.307	-1.77
719.333	0.23
719.36	5.23
719.386	2.23
719.412	0.23
719.439	-10.77
719.465	7.23
719.491	-16.77
719.518	-2.77
719.544	5.23
719.57	20.23
719.597	0.23
719.623	3.23
719.649	7.23
719.675	-2.77
719.702	13.23
719.728	5.23
719.754	-5.77
719.781	2.23
719.807	-1.77
719.833	-4.77
719.86	-1.77
719.886	5.23
719.912	6.23
719.938	2.23
719.965	-0.77
719.991	2.23
720.017	3.23
720.044	-12.77
720.07	0.23
720.096	6.23
720.122	2.23
720.149	15.23
720.175	17.23
720.201	17.23
720.227	4.23
720.254	10.23
720.28	-1.77
720.306	-0.77
720.332	-2.77
720.359	17.23
720.385	11.23
720.411	4.23
720.437	13.23
720.463	6.23
720.49	-2.77
720.516	-0.77
720.542	-10.77
720.568	4.23
720.595	14.23
720.621	6.23
720.647	11.23
720.673	7.23
720.699	-0.77
720.725	0.23
720.752	7.23
720.778	11.23
720.804	7.23
720.83	8.23
720.856	3.23
720.883	-10.77
720.909	0.23
720.935	4.23
720.961	2.23
720.987	3.23
721.013	19.23
721.04	-6.77
721.066	-2.77
721.092	2.23
721.118	12.23
721.144	11.23
721.17	0.23
721.196	9.23
721.223	-5.77
721.249	-5.77
721.275	24.23
721.301	14.23
721.327	5.23
721.353	8.23
721.379	-3.77
721.405	2.23
721.432	13.23
721.458	7.23
721.484	2.23
721.51	-23.77
721.536	6.23
721.562	4.23
721.588	6.23
721.614	-13.77
721.64	-7.77
721.666	8.23
721.693	-0.77
721.719	7.23
721.745	-7.77
721.771	7.23
721.797	12.23
721.823	1.23
721.849	13.23
721.875	9.23
721.901	18.23
721.927	-13.77
721.953	0.23
721.979	16.23
722.005	14.23
722.031	-2.77
722.057	9.23
722.083	10.23
722.109	15.23
722.135	16.23
722.161	7.23
722.187	-5.77
722.214	1.23
722.24	0.23
722.266	-8.77
722.292	9.23
722.318	2.23
722.344	-1.77
722.37	-2.77
722.396	4.23
722.422	-6.77
722.448	-1.77
722.474	-3.77
722.5	6.23
722.526	10.23
722.552	8.23
722.578	-8.77
722.603	18.23
722.629	-2.77
722.655	-4.77
722.681	-3.77
722.707	6.23
722.733	-5.77
722.759	-0.77
722.785	-11.77
722.811	-11.77
722.837	-0.77
722.863	0.23
722.889	16.23
722.915	-0.77
722.941	-1.77
722.967	10.23
722.993	19.23
723.019	7.23
723.045	23.23
723.071	1.23
723.097	-7.77
723.122	22.23
723.148	8.23
723.174	7.23
723.2	1.23
723.226	12.23
723.252	0.23
723.278	-2.77
723.304	-1.77
723.33	-3.77
723.356	-5.77
723.381	-8.77
723.407	-10.77
723.433	17.23
723.459	-11.77
723.485	-11.77
723.511	17.23
723.537	0.23
723.563	4.23
723.588	0.23
723.614	7.23
723.64	-3.77
723.666	3.23
723.692	4.23
723.718	-7.77
723.744	3.23
723.769	2.23
723.795	2.23
723.821	11.23
723.847	-3.77
723.873	19.23
723.899	-5.77
723.924	-3.77
723.95	2.23
723.976	-22.77
724.002	7.23
724.028	19.23
724.053	3.23
724.079	-7.77
724.105	-1.77
724.131	-2.77
724.157	0.23
724.182	15.23
724.208	-1.77
724.234	4.23
724.26	-0.77
724.286	20.23
724.311	-0.77
724.337	-0.77
724.363	-11.77
724.389	-2.77
724.415	6.23
724.44	27.23
724.466	7.23
724.492	-0.77
724.518	6.23
724.543	-3.77
724.569	-0.77
724.595	-0.77
724.621	1.23
724.646	3.23
724.672	-8.77
724.698	-0.77
724.723	-3.77
724.749	-2.77
724.775	14.23
724.801	7.23
724.826	-12.77
724.852	-0.77
724.878	-2.77
724.904	-18.77
724.929	-5.77
724.955	-1.77
724.981	-6.77
725.006	0.23
725.032	-0.77
725.058	18.23
725.083	-6.77
725.109	-10.77
725.135	9.23
725.161	14.23
725.186	10.23
725.212	3.23
725.238	22.23
725.263	7.23
725.289	-4.77
725.315	-0.77
725.34	6.23
725.366	12.23
725.392	-2.77
725.417	0.23
725.443	7.23
725.468	11.23
725.494	3.23
725.52	14.23
725.545	-1.77
725.571	-5.77
725.597	-6.77
725.622	12.23
725.648	5.23
725.674	16.23
725.699	19.23
725.725	10.23
725.75	31.23
725.776	-12.77
725.802	-11.77
725.827	11.23
725.853	-5.77
725.878	8.23
725.904	-1.77
725.93	-2.77
725.955	-9.77
725.981	-10.77
726.006	0.23
726.032	-10.77
726.057	-0.77
726.083	5.23
726.109	12.23
726.134	18.23
726.16	-7.77
726.185	-4.77
726.211	2.23
726.236	-3.77
726.262	19.23
726.288	11.23
726.313	7.23
726.339	21.23
726.364	-1.77
726.39	5.23
726.415	-4.77
726.441	-5.77
726.466	-15.77
726.492	-1.77
726.517	11.23
726.543	5.23
726.568	-11.77
726.594	-8.77
726.619	8.23
726.645	4.23
726.67	-1.77
726.696	4.23
726.721	0.23
726.747	-3.77
726.772	8.23
726.798	4.23
726.823	13.23
726.849	-1.77
726.874	14.23
726.9	22.23
726.925	14.23
726.951	-6.77
726.976	6.23
727.002	6.23
727.027	6.23
727.053	22.23
727.078	-1.77
727.104	-1.77
727.129	-15.77
727.155	5.23
727.18	1.23
727.205	4.23
727.231	-10.77
727.256	12.23
727.282	-14.77
727.307	7.23
727.333	-1.77
727.358	-2.77
727.383	-20.77
727.409	-6.77
727.434	20.23
727.46	3.23
727.485	1.23
727.511	16.23
727.536	-4.77
727.561	-8.77
727.587	0.23
727.612	-2.77
727.637	-9.77
727.663	-7.77
727.688	-0.77
727.714	-0.77
727.739	-0.77
727.764	0.23
727.79	13.23
727.815	12.23
727.841	18.23
727.866	14.23
727.891	-11.77
727.917	-22.77
727.942	-10.77
727.967	-1.77
727.993	-9.77
728.018	1.23
728.043	0.23
728.069	5.23
728.094	24.23
728.119	2.23
728.145	13.23
728.17	8.23
728.195	-2.77
728.221	23.23
728.246	0.23
728.271	-19.77
728.297	-1.77
728.322	-3.77
728.347	-2.77
728.373	-1.77
728.398	16.23
728.423	-14.77
728.448	0.23
728.474	-8.77
728.499	-0.77
728.524	-9.77
728.55	4.23
728.575	16.23
728.6	-5.77
728.625	5.23
728.651	2.23
728.676	0.23
728.701	-19.77
728.727	-17.77
728.752	0.23
728.777	0.23
728.802	-0.77
728.828	15.23
728.853	10.23
728.878	-4.77
728.903	-7.77
728.929	-24.77
728.954	-3.77
728.979	6.23
729.004	-4.77
729.03	-5.77
729.055	14.23
729.08	-6.77
729.105	-2.77
729.13	27.23
729.156	1.23
729.181	5.23
729.206	-13.77
729.231	-9.77
729.256	-4.77
729.282	3.23
729.307	-10.77
729.332	3.23
729.357	0.23
729.382	-12.77
729.408	-8.77
729.433	3.23
729.458	9.23
729.483	13.23
729.508	14.23
729.533	1.23
729.559	-1.77
729.584	8.23
729.609	16.23
729.634	6.23
729.659	-3.77
729.684	-3.77
729.71	22.23
729.735	1.23
729.76	-10.77
729.785	-0.77
729.81	18.23
729.835	-2.77
729.86	-2.77
729.886	-1.77
729.911	-12.77
729.936	-17.77
729.961	1.23
729.986	-8.77
730.011	-9.77
730.036	-1.77
730.061	-2.77
730.086	4.23
730.112	3.23
730.137	13.23
730.162	-4.77
730.187	-4.77
730.212	12.23
730.237	-9.77
730.262	-3.77
730.287	-6.77
730.312	10.23
730.337	-6.77
730.362	7.23
730.387	-6.77
730.413	-3.77
730.438	-7.77
730.463	-9.77
730.488	-14.77
730.513	-4.77
730.538	-1.77
730.563	14.23
730.588	2.23
730.613	-0.77
730.638	-3.77
730.663	-4.77
730.688	5.23
730.713	2.23
730.738	-4.77
730.763	3.23
730.788	-11.77
730.813	4.23
730.838	6.23
730.863	-1.77
730.888	-6.77
730.913	-18.77
730.938	-21.77
730.963	-3.77
730.988	-2.77
731.013	15.23
731.038	4.23
731.063	9.23
731.088	14.23
731.113	-2.77
731.138	3.23
731.163	5.23
731.188	0.23
731.213	-6.77
731.238	3.23
731.263	3.23
731.288	6.23
731.313	15.23
731.338	7.23
731.363	-3.77
731.388	10.23
731.413	3.23
731.438	18.23
731.463	11.23
731.487	2.23
731.512	-10.77
731.537	-13.77
731.562	-9.77
731.587	-10.77
731.612	-9.77
731.637	3.23
731.662	6.23
731.687	13.23
731.712	0.23
731.737	7.23
731.762	14.23
731.786	13.23
731.811	5.23
731.836	-3.77
731.861	6.23
731.886	-9.77
731.911	-4.77
731.936	13.23
731.961	-3.77
731.986	-11.77
732.01	9.23
732.035	14.23
732.06	8.23
732.085	8.23
732.11	4.23
732.135	-10.77
732.16	12.23
732.184	-3.77
732.209	0.23
732.234	12.23
732.259	-4.77
732.284	9.23
732.309	-1.77
732.334	-4.77
732.358	-13.77
732.383	-8.77
732.408	-12.77
732.433	11.23
732.458	-2.77
732.482	10.23
732.507	1.23
732.532	-5.77
732.557	2.23
732.582	3.23
732.607	-5.77
732.631	-13.77
732.656	-4.77
732.681	-16.77
732.706	-12.77
732.73	9.23
732.755	-3.77
732.78	-0.77
732.805	6.23
732.83	6.23
732.854	15.23
732.879	12.23
732.904	11.23
732.929	-1.77
732.953	-1.77
732.978	-5.77
733.003	-16.77
733.028	-0.77
733.052	4.23
733.077	14.23
733.102	7.23
733.127	-10.77
733.151	-2.77
733.176	14.23
733.201	-8.77
733.226	-27.77
733.25	1.23
733.275	-7.77
733.3	4.23
733.324	13.23
733.349	9.23
733.374	15.23
733.399	-6.77
733.423	-2.77
733.448	-7.77
733.473	-13.77
733.497	-3.77
733.522	-3.77
733.547	7.23
733.571	14.23
733.596	2.23
733.621	-3.77
733.646	11.23
733.67	18.23
733.695	-4.77
733.72	8.23
733.744	10.23
733.769	1.23
733.794	23.23
733.818	6.23
733.843	-13.77
733.867	-2.77
733.892	-31.77
733.917	-3.77
733.941	-3.77
733.966	-8.77
733.991	-12.77
734.015	15.23
734.04	11.23
734.065	18.23
734.089	10.23
734.114	-1.77
734.138	5.23
734.163	-0.77
734.188	3.23
734.212	24.23
734.237	5.23
734.261	3.23
734.286	7.23
734.311	-6.77
734.335	-5.77
734.36	18.23
734.384	6.23
734.409	-2.77
734.434	-11.77
734.458	-0.77
734.483	-11.77
734.507	-8.77
734.532	12.23
734.556	5.23
734.581	-3.77
734.606	-11.77
734.63	0.23
734.655	7.23
734.679	10.23
734.704	-2.77
734.728	-0.77
734.753	-4.77
734.777	9.23
734.802	-1.77
734.826	2.23
734.851	4.23
734.876	-0.77
734.9	17.23
734.925	8.23
734.949	2.23
734.974	-11.77
734.998	13.23
735.023	-3.77
735.047	-1.77
735.072	19.23
735.096	9.23
735.121	8.23
735.145	6.23
735.17	-3.77
735.194	12.23
735.219	4.23
735.243	24.23
735.268	5.23
735.292	4.23
735.317	2.23
735.341	-2.77
735.365	-7.77
735.39	13.23
735.414	7.23
735.439	6.23
735.463	6.23
735.488	6.23
735.512	-0.77
735.537	19.23
735.561	7.23
735.586	10.23
735.61	12.23
735.634	-11.77
735.659	3.23
735.683	21.23
735.708	-11.77
735.732	-7.77
735.757	0.23
735.781	11.23
735.805	3.23
735.83	5.23
735.854	8.23
735.879	3.23
735.903	20.23
735.927	13.23
735.952	11.23
735.976	1.23
736.001	-6.77
736.025	-4.77
736.049	9.23
736.074	7.23
736.098	-8.77
736.123	5.23
736.147	16.23
736.171	-6.77
736.196	3.23
736.22	-12.77
736.244	9.23
736.269	7.23
736.293	3.23
736.317	7.23
736.342	11.23
736.366	15.23
736.39	1.23
736.415	11.23
736.439	3.23
736.463	14.23
736.488	13.23
736.512	11.23
736.536	10.23
736.561	16.23
736.585	-1.77
736.609	6.23
736.634	-4.77
736.658	-2.77
736.682	-20.77
736.707	-15.77
736.731	-5.77
736.755	8.23
736.78	26.23
736.804	26.23
736.828	6.23
736.852	-4.77
736.877	-0.77
736.901	12.23
736.925	-4.77
736.949	15.23
736.974	-7.77
736.998	-6.77
737.022	7.23
737.047	-0.77
737.071	-11.77
737.095	10.23
737.119	25.23
737.144	19.23
737.168	0.23
737.192	2.23
737.216	2.23
737.241	7.23
737.265	8.23
737.289	11.23
737.313	-1.77
737.337	10.23
737.362	6.23
737.386	7.23
737.41	8.23
737.434	10.23
737.459	-7.77
737.483	14.23
737.507	27.23
737.531	10.23
737.555	-3.77
737.58	9.23
737.604	6.23
737.628	-11.77
737.652	2.23
737.676	2.23
737.701	17.23
737.725	2.23
737.749	6.23
737.773	0.23
737.797	-18.77
737.821	11.23
737.846	-2.77
737.87	26.23
737.894	-6.77
737.918	3.23
737.942	6.23
737.966	8.23
737.99	10.23
738.015	16.23
738.039	-3.77
738.063	-1.77
738.087	7.23
738.111	0.23
738.135	14.23
738.159	5.23
738.184	10.23
738.208	2.23
738.232	6.23
738.256	7.23
738.28	13.23
738.304	15.23
738.328	4.23
738.352	12.23
738.376	0.23
738.4	4.23
738.425	7.23
738.449	6.23
738.473	30.23
738.497	8.23
738.521	-2.77
738.545	2.23
738.569	9.23
738.593	10.23
738.617	12.23
738.641	10.23
738.665	8.23
738.689	2.23
738.713	0.23
738.737	13.23
738.762	19.23
738.786	5.23
738.81	-11.77
738.834	2.23
738.858	13.23
738.882	14.23
738.906	-4.77
738.93	2.23
738.954	3.23
738.978	-8.77
739.002	-4.77
739.026	17.23
739.05	3.23
739.074	-0.77
739.098	14.23
739.122	4.23
739.146	6.23
739.17	27.23
739.194	21.23
739.218	12.23
739.242	7.23
739.266	-3.77
739.29	25.23
739.314	16.23
739.338	4.23
739.362	-0.77
739.386	11.23
739.41	10.23
739.434	-7.77
739.458	28.23
739.482	8.23
739.506	-7.77
739.53	-8.77
739.554	17.23
739.577	14.23
739.601	21.23
739.625	12.23
739.649	13.23
739.673	13.23
739.697	6.23
739.721	-23.77
739.745	1.23
739.769	19.23
739.793	9.23
739.817	6.23
739.841	-4.77
739.865	7.23
739.889	-7.77
739.912	18.23
739.936	-4.77
739.96	7.23
739.984	14.23
740.008	-0.77
740.032	-3.77
740.056	1.23
740.08	6.23
740.104	2.23
740.127	4.23
740.151	-2.77
740.175	11.23
740.199	0.23
740.223	40.23
740.247	24.23
740.271	3.23
740.295	3.23
740.318	-20.77
740.342	3.23
740.366	11.23
740.39	1.23
740.414	5.23
740.438	-3.77
740.461	7.23
740.485	6.23
740.509	11.23
740.533	14.23
740.557	-0.77
740.581	-4.77
740.604	-21.77
740.628	-0.77
740.652	26.23
740.676	-7.77
740.7	7.23
740.723	-4.77
740.747	14.23
740.771	-7.77
740.795	-4.77
740.819	10.23
740.842	4.23
740.866	13.23
740.89	13.23
740.914	16.23
740.938	5.23
740.961	5.23
740.985	0.23
741.009	11.23
741.033	13.23
741.056	6.23
741.08	-9.77
741.104	-3.77
741.128	0.23
741.151	8.23
741.175	7.23
741.199	-3.77
741.223	1.23
741.246	-9.77
741.27	2.23
741.294	12.23
741.318	14.23
741.341	-7.77
741.365	2.23
741.389	27.23
741.413	5.23
741.436	10.23
741.46	17.23
741.484	15.23
741.507	-1.77
741.531	25.23
741.555	21.23
741.579	7.23
741.602	3.23
741.626	20.23
741.65	14.23
741.673	-1.77
741.697	13.23
741.721	11.23
741.744	-11.77
741.768	5.23
741.792	3.23
741.815	2.23
741.839	5.23
741.863	20.23
741.886	23.23
741.91	9.23
741.934	-1.77
741.957	-24.77
741.981	4.23
742.005	3.23
742.028	-2.77
742.052	-10.77
742.075	12.23
742.099	17.23
742.123	1.23
742.146	-0.77
742.17	-2.77
742.194	-13.77
742.217	-0.77
742.241	-2.77
742.264	-11.77
742.288	14.23
742.312	6.23
742.335	-7.77
742.359	-4.77
742.382	13.23
742.406	21.23
742.43	-0.77
742.453	3.23
742.477	-2.77
742.5	0.23
742.524	8.23
742.548	-0.77
742.571	-7.77
742.595	-4.77
742.618	7.23
742.642	-16.77
742.665	15.23
742.689	-6.77
742.712	13.23
742.736	6.23
742.76	12.23
742.783	-2.77
742.807	-0.77
742.83	22.23
742.854	-6.77
742.877	6.23
742.901	11.23
742.924	-5.77
742.948	0.23
742.971	8.23
742.995	0.23
743.018	-8.77
743.042	-1.77
743.065	3.23
743.089	-12.77
743.112	4.23
743.136	-8.77
743.159	0.23
743.183	2.23
743.206	-7.77
743.23	-13.77
743.253	3.23
743.277	8.23
743.3	6.23
743.324	17.23
743.347	-19.77
743.371	23.23
743.394	17.23
743.418	28.23
743.441	21.23
743.465	10.23
743.488	-7.77
743.512	-5.77
743.535	-13.77
743.558	7.23
743.582	-7.77
743.605	-4.77
743.629	-0.77
743.652	-7.77
743.676	-0.77
743.699	10.23
743.723	13.23
743.746	9.23
743.769	8.23
743.793	23.23
743.816	-2.77
743.84	12.23
743.863	-0.77
743.886	5.23
743.91	9.23
743.933	7.23
743.957	9.23
743.98	-6.77
744.003	-1.77
744.027	-5.77
744.05	-4.77
744.074	3.23
744.097	-9.77
744.12	5.23
744.144	-5.77
744.167	4.23
744.19	-12.77
744.214	-0.77
744.237	-1.77
744.26	11.23
744.284	17.23
744.307	0.23
744.331	8.23
744.354	2.23
744.377	-10.77
744.401	11.23
744.424	-0.77
744.447	-12.77
744.471	-22.77
