Data from HighRes_H2D2_15_04_11_07_2024_HR4C61891__78__15-05-42-243.txt Node

Date: Thu Nov 07 15:05:42 EST 2024
User: crc00042
Spectrometer: HR4C6189
Trigger mode: 4
Integration Time (sec): 1.000000E-1
Scans to average: 1
Electric dark correction enabled: true
Nonlinearity correction enabled: false
Boxcar width: 0
XAxis mode: Wavelengths
Number of Pixels in Spectrum: 3648
>>>>>Begin Spectral Data<<<<<
639.567	-27.77
639.602	-27.77
639.636	-27.77
639.67	-44.77
639.704	-6.77
639.738	1.23
639.773	-11.77
639.807	-21.77
639.841	11.23
639.875	15.23
639.909	-13.77
639.943	-11.77
639.978	-9.77
640.012	0.23
640.046	28.23
640.08	4.23
640.114	8.23
640.148	0.23
640.182	-7.77
640.217	-3.77
640.251	15.23
640.285	0.23
640.319	-8.77
640.353	21.23
640.387	4.23
640.421	-11.77
640.455	-17.77
640.49	7.23
640.524	-1.77
640.558	10.23
640.592	7.23
640.626	13.23
640.66	15.23
640.694	-6.77
640.728	13.23
640.762	16.23
640.796	19.23
640.83	14.23
640.865	-7.77
640.899	5.23
640.933	-2.77
640.967	6.23
641.001	2.23
641.035	-15.77
641.069	-4.77
641.103	6.23
641.137	1.23
641.171	-3.77
641.205	1.23
641.239	-12.77
641.273	18.23
641.307	4.23
641.341	-2.77
641.375	5.23
641.409	0.23
641.443	10.23
641.477	-3.77
641.511	13.23
641.545	15.23
641.579	5.23
641.614	16.23
641.648	-6.77
641.682	-27.77
641.716	8.23
641.75	14.23
641.784	1.23
641.818	-7.77
641.852	4.23
641.886	-21.77
641.919	11.23
641.953	6.23
641.987	-0.77
642.021	8.23
642.055	7.23
642.089	-1.77
642.123	-14.77
642.157	4.23
642.191	-3.77
642.225	3.23
642.259	-3.77
642.293	9.23
642.327	-8.77
642.361	-0.77
642.395	14.23
642.429	28.23
642.463	8.23
642.497	17.23
642.531	-2.77
642.565	2.23
642.599	3.23
642.633	-7.77
642.666	8.23
642.7	8.23
642.734	17.23
642.768	-1.77
642.802	0.23
642.836	-3.77
642.87	-7.77
642.904	-12.77
642.938	16.23
642.972	4.23
643.005	0.23
643.039	21.23
643.073	-1.77
643.107	13.23
643.141	-8.77
643.175	17.23
643.209	18.23
643.243	11.23
643.276	32.23
643.31	13.23
643.344	-5.77
643.378	-4.77
643.412	13.23
643.446	12.23
643.48	23.23
643.513	11.23
643.547	11.23
643.581	5.23
643.615	-1.77
643.649	-4.77
643.683	-15.77
643.716	-5.77
643.75	8.23
643.784	-7.77
643.818	-0.77
643.852	4.23
643.886	2.23
643.919	20.23
643.953	-0.77
643.987	2.23
644.021	18.23
644.055	8.23
644.088	-2.77
644.122	-1.77
644.156	8.23
644.19	4.23
644.224	0.23
644.257	5.23
644.291	24.23
644.325	14.23
644.359	-1.77
644.392	19.23
644.426	15.23
644.46	2.23
644.494	4.23
644.527	-18.77
644.561	2.23
644.595	-0.77
644.629	-1.77
644.662	-12.77
644.696	12.23
644.73	21.23
644.764	1.23
644.797	17.23
644.831	-2.77
644.865	14.23
644.899	15.23
644.932	23.23
644.966	6.23
645	7.23
645.033	14.23
645.067	1.23
645.101	14.23
645.135	-0.77
645.168	-7.77
645.202	-2.77
645.236	-0.77
645.269	12.23
645.303	7.23
645.337	-8.77
645.37	2.23
645.404	-0.77
645.438	-5.77
645.471	-11.77
645.505	13.23
645.539	14.23
645.572	-7.77
645.606	-3.77
645.64	-3.77
645.673	-9.77
645.707	9.23
645.741	1.23
645.774	-3.77
645.808	10.23
645.842	-8.77
645.875	-4.77
645.909	-12.77
645.943	-1.77
645.976	-5.77
646.01	20.23
646.043	16.23
646.077	7.23
646.111	0.23
646.144	16.23
646.178	4.23
646.212	0.23
646.245	-2.77
646.279	0.23
646.312	14.23
646.346	10.23
646.38	3.23
646.413	22.23
646.447	26.23
646.48	14.23
646.514	8.23
646.547	5.23
646.581	-4.77
646.615	-4.77
646.648	-15.77
646.682	-0.77
646.715	-6.77
646.749	12.23
646.782	5.23
646.816	-2.77
646.85	2.23
646.883	-14.77
646.917	0.23
646.95	18.23
646.984	4.23
647.017	5.23
647.051	14.23
647.084	15.23
647.118	2.23
647.151	1.23
647.185	3.23
647.218	-7.77
647.252	-3.77
647.285	-2.77
647.319	-1.77
647.353	12.23
647.386	27.23
647.42	3.23
647.453	10.23
647.487	12.23
647.52	-1.77
647.553	3.23
647.587	-2.77
647.62	1.23
647.654	9.23
647.687	12.23
647.721	1.23
647.754	16.23
647.788	21.23
647.821	-2.77
647.855	-5.77
647.888	11.23
647.922	16.23
647.955	33.23
647.989	14.23
648.022	7.23
648.055	21.23
648.089	-4.77
648.122	21.23
648.156	0.23
648.189	10.23
648.223	15.23
648.256	15.23
648.29	-0.77
648.323	-0.77
648.356	16.23
648.39	10.23
648.423	16.23
648.457	5.23
648.49	-1.77
648.523	12.23
648.557	6.23
648.59	13.23
648.624	0.23
648.657	12.23
648.69	13.23
648.724	3.23
648.757	-0.77
648.791	19.23
648.824	22.23
648.857	24.23
648.891	9.23
648.924	11.23
648.957	18.23
648.991	-1.77
649.024	22.23
649.057	5.23
649.091	-0.77
649.124	3.23
649.158	27.23
649.191	23.23
649.224	-1.77
649.258	15.23
649.291	13.23
649.324	23.23
649.358	-0.77
649.391	9.23
649.424	12.23
649.458	-4.77
649.491	-0.77
649.524	6.23
649.557	-0.77
649.591	-13.77
649.624	3.23
649.657	1.23
649.691	2.23
649.724	1.23
649.757	17.23
649.791	-2.77
649.824	15.23
649.857	20.23
649.89	3.23
649.924	5.23
649.957	-15.77
649.99	-28.77
650.023	2.23
650.057	-12.77
650.09	-8.77
650.123	12.23
650.157	24.23
650.19	2.23
650.223	-11.77
650.256	1.23
650.29	5.23
650.323	11.23
650.356	19.23
650.389	-7.77
650.423	-4.77
650.456	15.23
650.489	-5.77
650.522	23.23
650.555	22.23
650.589	19.23
650.622	2.23
650.655	2.23
650.688	18.23
650.721	16.23
650.755	4.23
650.788	14.23
650.821	-3.77
650.854	4.23
650.887	10.23
650.921	-4.77
650.954	-2.77
650.987	0.23
651.02	-13.77
651.053	-12.77
651.087	-8.77
651.12	35.23
651.153	-1.77
651.186	13.23
651.219	5.23
651.252	-1.77
651.286	-1.77
651.319	-4.77
651.352	14.23
651.385	14.23
651.418	-2.77
651.451	9.23
651.484	11.23
651.518	-0.77
651.551	20.23
651.584	1.23
651.617	24.23
651.65	4.23
651.683	5.23
651.716	-5.77
651.749	-1.77
651.783	13.23
651.816	9.23
651.849	7.23
651.882	10.23
651.915	1.23
651.948	-0.77
651.981	0.23
652.014	-15.77
652.047	0.23
652.08	8.23
652.114	13.23
652.147	3.23
652.18	8.23
652.213	30.23
652.246	8.23
652.279	-7.77
652.312	7.23
652.345	7.23
652.378	4.23
652.411	7.23
652.444	4.23
652.477	3.23
652.51	0.23
652.543	-11.77
652.576	3.23
652.609	9.23
652.642	-1.77
652.675	18.23
652.709	11.23
652.742	11.23
652.775	4.23
652.808	17.23
652.841	12.23
652.874	10.23
652.907	4.23
652.94	-5.77
652.973	-8.77
653.006	7.23
653.039	15.23
653.072	5.23
653.105	8.23
653.138	-4.77
653.171	0.23
653.204	3.23
653.237	-17.77
653.27	-8.77
653.303	-12.77
653.336	15.23
653.368	-18.77
653.401	-2.77
653.434	11.23
653.467	12.23
653.5	5.23
653.533	0.23
653.566	3.23
653.599	3.23
653.632	5.23
653.665	7.23
653.698	2.23
653.731	2.23
653.764	11.23
653.797	5.23
653.83	-0.77
653.863	-7.77
653.896	-3.77
653.929	-5.77
653.961	17.23
653.994	8.23
654.027	-7.77
654.06	8.23
654.093	19.23
654.126	-0.77
654.159	-5.77
654.192	2.23
654.225	12.23
654.258	5.23
654.29	1.23
654.323	2.23
654.356	17.23
654.389	11.23
654.422	2.23
654.455	7.23
654.488	-4.77
654.521	-15.77
654.553	-14.77
654.586	14.23
654.619	12.23
654.652	2.23
654.685	12.23
654.718	11.23
654.751	-1.77
654.783	-8.77
654.816	12.23
654.849	0.23
654.882	-1.77
654.915	-4.77
654.948	14.23
654.98	-6.77
655.013	10.23
655.046	3.23
655.079	-9.77
655.112	14.23
655.144	-4.77
655.177	2.23
655.21	18.23
655.243	26.23
655.276	10.23
655.308	11.23
655.341	4.23
655.374	4.23
655.407	1.23
655.44	15.23
655.472	15.23
655.505	20.23
655.538	1.23
655.571	19.23
655.603	40.23
655.636	-9.77
655.669	9.23
655.702	-7.77
655.734	1.23
655.767	10.23
655.8	20.23
655.833	24.23
655.865	31.23
655.898	18.23
655.931	14.23
655.964	3.23
655.996	27.23
656.029	29.23
656.062	33.23
656.095	42.23
656.127	80.23
656.16	204.23
656.193	620.23
656.225	957.23
656.258	543.23
656.291	208.23
656.324	172.23
656.356	349.23
656.389	776.23
656.422	682.23
656.454	236.23
656.487	80.23
656.52	35.23
656.552	20.23
656.585	27.23
656.618	21.23
656.65	20.23
656.683	-7.77
656.716	4.23
656.748	7.23
656.781	-2.77
656.814	-8.77
656.846	2.23
656.879	-13.77
656.912	1.23
656.944	-12.77
656.977	-14.77
657.01	-2.77
657.042	0.23
657.075	24.23
657.108	5.23
657.14	9.23
657.173	31.23
657.205	29.23
657.238	11.23
657.271	2.23
657.303	-13.77
657.336	9.23
657.369	-0.77
657.401	-1.77
657.434	0.23
657.466	6.23
657.499	-2.77
657.532	22.23
657.564	26.23
657.597	-5.77
657.629	4.23
657.662	0.23
657.694	-3.77
657.727	-24.77
657.76	20.23
657.792	-6.77
657.825	8.23
657.857	12.23
657.89	7.23
657.922	4.23
657.955	-1.77
657.987	-1.77
658.02	13.23
658.053	15.23
658.085	-1.77
658.118	12.23
658.15	26.23
658.183	20.23
658.215	-10.77
658.248	-10.77
658.28	18.23
658.313	17.23
658.345	22.23
658.378	21.23
658.41	-8.77
658.443	12.23
658.475	-4.77
658.508	-5.77
658.54	-9.77
658.573	-10.77
658.605	10.23
658.638	8.23
658.67	-0.77
658.703	-3.77
658.735	-13.77
658.768	2.23
658.8	3.23
658.833	16.23
658.865	3.23
658.898	8.23
658.93	-7.77
658.963	-3.77
658.995	-13.77
659.028	-4.77
659.06	-1.77
659.092	6.23
659.125	-1.77
659.157	-6.77
659.19	-22.77
659.222	0.23
659.255	10.23
659.287	4.23
659.32	3.23
659.352	7.23
659.384	11.23
659.417	3.23
659.449	-1.77
659.482	-0.77
659.514	-19.77
659.546	-1.77
659.579	-5.77
659.611	1.23
659.644	3.23
659.676	-11.77
659.708	8.23
659.741	0.23
659.773	3.23
659.806	-0.77
659.838	-5.77
659.87	-8.77
659.903	4.23
659.935	4.23
659.967	7.23
660	9.23
660.032	-7.77
660.065	17.23
660.097	7.23
660.129	15.23
660.162	2.23
660.194	8.23
660.226	4.23
660.259	11.23
660.291	-4.77
660.323	-8.77
660.356	10.23
660.388	0.23
660.42	0.23
660.453	25.23
660.485	0.23
660.517	21.23
660.55	12.23
660.582	6.23
660.614	11.23
660.647	-11.77
660.679	-13.77
660.711	19.23
660.743	-6.77
660.776	-3.77
660.808	-2.77
660.84	3.23
660.873	-4.77
660.905	-7.77
660.937	6.23
660.969	10.23
661.002	-0.77
661.034	21.23
661.066	-3.77
661.099	-5.77
661.131	15.23
661.163	15.23
661.195	4.23
661.228	10.23
661.26	5.23
661.292	-2.77
661.324	6.23
661.357	14.23
661.389	15.23
661.421	11.23
661.453	15.23
661.485	23.23
661.518	13.23
661.55	-3.77
661.582	-0.77
661.614	-0.77
661.647	13.23
661.679	5.23
661.711	1.23
661.743	-1.77
661.775	6.23
661.808	28.23
661.84	3.23
661.872	0.23
661.904	4.23
661.936	-2.77
661.969	5.23
662.001	-3.77
662.033	-6.77
662.065	-10.77
662.097	21.23
662.129	23.23
662.162	3.23
662.194	11.23
662.226	2.23
662.258	20.23
662.29	2.23
662.322	-14.77
662.355	-11.77
662.387	8.23
662.419	7.23
662.451	14.23
662.483	-2.77
662.515	-3.77
662.547	-0.77
662.58	10.23
662.612	11.23
662.644	-6.77
662.676	4.23
662.708	15.23
662.74	1.23
662.772	2.23
662.804	4.23
662.836	2.23
662.869	-1.77
662.901	7.23
662.933	-10.77
662.965	10.23
662.997	7.23
663.029	-11.77
663.061	-11.77
663.093	7.23
663.125	17.23
663.157	13.23
663.189	6.23
663.221	11.23
663.254	-3.77
663.286	-8.77
663.318	-1.77
663.35	-0.77
663.382	-2.77
663.414	7.23
663.446	-1.77
663.478	-4.77
663.51	17.23
663.542	-18.77
663.574	4.23
663.606	13.23
663.638	-8.77
663.67	-5.77
663.702	-4.77
663.734	-4.77
663.766	3.23
663.798	-1.77
663.83	13.23
663.862	3.23
663.894	26.23
663.926	-1.77
663.958	-0.77
663.99	6.23
664.022	-2.77
664.054	8.23
664.086	-4.77
664.118	13.23
664.15	-8.77
664.182	2.23
664.214	6.23
664.246	12.23
664.278	1.23
664.31	16.23
664.342	10.23
664.374	-6.77
664.406	-8.77
664.438	-1.77
664.47	19.23
664.502	-4.77
664.534	5.23
664.566	-10.77
664.598	2.23
664.63	7.23
664.662	2.23
664.693	7.23
664.725	1.23
664.757	4.23
664.789	-11.77
664.821	7.23
664.853	11.23
664.885	2.23
664.917	8.23
664.949	15.23
664.981	19.23
665.013	8.23
665.045	-23.77
665.076	7.23
665.108	19.23
665.14	20.23
665.172	-4.77
665.204	-4.77
665.236	7.23
665.268	10.23
665.3	9.23
665.331	-11.77
665.363	14.23
665.395	-5.77
665.427	0.23
665.459	1.23
665.491	8.23
665.523	15.23
665.555	7.23
665.586	2.23
665.618	7.23
665.65	-7.77
665.682	9.23
665.714	-6.77
665.746	0.23
665.777	1.23
665.809	-20.77
665.841	7.23
665.873	8.23
665.905	16.23
665.937	10.23
665.968	-1.77
666	5.23
666.032	9.23
666.064	0.23
666.096	0.23
666.127	6.23
666.159	17.23
666.191	2.23
666.223	7.23
666.255	13.23
666.286	11.23
666.318	18.23
666.35	23.23
666.382	-5.77
666.413	-6.77
666.445	-3.77
666.477	-15.77
666.509	-8.77
666.54	-10.77
666.572	-1.77
666.604	15.23
666.636	9.23
666.667	27.23
666.699	12.23
666.731	23.23
666.763	0.23
666.794	5.23
666.826	9.23
666.858	-21.77
666.89	8.23
666.921	11.23
666.953	12.23
666.985	13.23
667.017	9.23
667.048	-5.77
667.08	-9.77
667.112	-5.77
667.143	-3.77
667.175	12.23
667.207	14.23
667.238	12.23
667.27	0.23
667.302	5.23
667.334	-0.77
667.365	13.23
667.397	15.23
667.429	-8.77
667.46	5.23
667.492	10.23
667.524	-3.77
667.555	-11.77
667.587	8.23
667.619	7.23
667.65	2.23
667.682	14.23
667.714	8.23
667.745	2.23
667.777	11.23
667.808	-4.77
667.84	13.23
667.872	12.23
667.903	15.23
667.935	-14.77
667.967	-1.77
667.998	-1.77
668.03	9.23
668.061	4.23
668.093	-2.77
668.125	-1.77
668.156	11.23
668.188	-15.77
668.22	-3.77
668.251	2.23
668.283	18.23
668.314	14.23
668.346	-5.77
668.377	-0.77
668.409	-21.77
668.441	12.23
668.472	0.23
668.504	-7.77
668.535	15.23
668.567	12.23
668.599	11.23
668.63	7.23
668.662	3.23
668.693	2.23
668.725	8.23
668.756	-0.77
668.788	6.23
668.819	7.23
668.851	9.23
668.882	12.23
668.914	4.23
668.946	-5.77
668.977	10.23
669.009	4.23
669.04	-18.77
669.072	16.23
669.103	18.23
669.135	6.23
669.166	6.23
669.198	12.23
669.229	13.23
669.261	12.23
669.292	-5.77
669.324	-1.77
669.355	10.23
669.387	1.23
669.418	3.23
669.45	-0.77
669.481	8.23
669.513	-3.77
669.544	-5.77
669.576	-11.77
669.607	9.23
669.639	20.23
669.67	0.23
669.701	14.23
669.733	-4.77
669.764	-0.77
669.796	-4.77
669.827	5.23
669.859	0.23
669.89	5.23
669.922	5.23
669.953	5.23
669.985	18.23
670.016	14.23
670.047	0.23
670.079	-4.77
670.11	12.23
670.142	5.23
670.173	7.23
670.204	-5.77
670.236	7.23
670.267	-20.77
670.299	10.23
670.33	-2.77
670.362	22.23
670.393	-6.77
670.424	-0.77
670.456	-6.77
670.487	0.23
670.518	20.23
670.55	5.23
670.581	2.23
670.613	13.23
670.644	-2.77
670.675	-22.77
670.707	-3.77
670.738	11.23
670.769	11.23
670.801	-2.77
670.832	0.23
670.864	-3.77
670.895	16.23
670.926	7.23
670.958	-8.77
670.989	10.23
671.02	-1.77
671.052	0.23
671.083	-5.77
671.114	-1.77
671.146	5.23
671.177	-0.77
671.208	-6.77
671.24	-1.77
671.271	-3.77
671.302	16.23
671.333	22.23
671.365	1.23
671.396	-12.77
671.427	0.23
671.459	4.23
671.49	-2.77
671.521	6.23
671.553	16.23
671.584	12.23
671.615	4.23
671.646	11.23
671.678	5.23
671.709	-16.77
671.74	-19.77
671.771	6.23
671.803	-1.77
671.834	1.23
671.865	-10.77
671.896	16.23
671.928	-8.77
671.959	-1.77
671.99	2.23
672.021	14.23
672.053	18.23
672.084	8.23
672.115	12.23
672.146	20.23
672.178	-20.77
672.209	5.23
672.24	8.23
672.271	24.23
672.303	-0.77
672.334	-3.77
672.365	3.23
672.396	-2.77
672.427	17.23
672.459	27.23
672.49	39.23
672.521	15.23
672.552	19.23
672.583	6.23
672.615	0.23
672.646	11.23
672.677	-6.77
672.708	-1.77
672.739	8.23
672.77	22.23
672.802	19.23
672.833	-3.77
672.864	11.23
672.895	7.23
672.926	-6.77
672.957	-0.77
672.989	6.23
673.02	4.23
673.051	1.23
673.082	-5.77
673.113	-0.77
673.144	13.23
673.175	21.23
673.206	17.23
673.238	-2.77
673.269	0.23
673.3	4.23
673.331	4.23
673.362	2.23
673.393	-0.77
673.424	-1.77
673.455	9.23
673.487	2.23
673.518	20.23
673.549	13.23
673.58	2.23
673.611	9.23
673.642	12.23
673.673	-11.77
673.704	8.23
673.735	2.23
673.766	-1.77
673.797	-5.77
673.828	-5.77
673.86	12.23
673.891	-5.77
673.922	-15.77
673.953	-2.77
673.984	2.23
674.015	17.23
674.046	6.23
674.077	13.23
674.108	5.23
674.139	-2.77
674.17	-7.77
674.201	4.23
674.232	-11.77
674.263	0.23
674.294	-2.77
674.325	-4.77
674.356	14.23
674.387	12.23
674.418	-8.77
674.449	-11.77
674.48	1.23
674.511	-12.77
674.542	9.23
674.573	-2.77
674.604	25.23
674.635	10.23
674.666	4.23
674.697	5.23
674.728	3.23
674.759	6.23
674.79	1.23
674.821	-3.77
674.852	-8.77
674.883	-3.77
674.914	6.23
674.945	17.23
674.976	17.23
675.007	3.23
675.038	-2.77
675.069	-4.77
675.1	-6.77
675.131	5.23
675.162	-11.77
675.193	-14.77
675.224	14.23
675.254	4.23
675.285	27.23
675.316	8.23
675.347	-3.77
675.378	7.23
675.409	0.23
675.44	6.23
675.471	-0.77
675.502	-6.77
675.533	2.23
675.564	8.23
675.595	-6.77
675.625	4.23
675.656	12.23
675.687	9.23
675.718	11.23
675.749	8.23
675.78	12.23
675.811	7.23
675.842	19.23
675.873	7.23
675.903	-24.77
675.934	2.23
675.965	-5.77
675.996	-14.77
676.027	9.23
676.058	-11.77
676.089	-8.77
676.119	-5.77
676.15	3.23
676.181	12.23
676.212	-0.77
676.243	-0.77
676.274	-12.77
676.304	6.23
676.335	-17.77
676.366	-3.77
676.397	6.23
676.428	6.23
676.459	3.23
676.489	14.23
676.52	11.23
676.551	7.23
676.582	13.23
676.613	4.23
676.643	-5.77
676.674	8.23
676.705	-7.77
676.736	4.23
676.767	20.23
676.797	20.23
676.828	23.23
676.859	6.23
676.89	-3.77
676.92	1.23
676.951	-5.77
676.982	2.23
677.013	-4.77
677.044	23.23
677.074	14.23
677.105	1.23
677.136	10.23
677.167	-0.77
677.197	14.23
677.228	4.23
677.259	-21.77
677.289	-4.77
677.32	-4.77
677.351	-12.77
677.382	-1.77
677.412	-4.77
677.443	1.23
677.474	3.23
677.505	-15.77
677.535	15.23
677.566	3.23
677.597	-5.77
677.627	-3.77
677.658	3.23
677.689	9.23
677.72	0.23
677.75	-1.77
677.781	-2.77
677.812	-2.77
677.842	6.23
677.873	7.23
677.904	8.23
677.934	7.23
677.965	-2.77
677.996	-12.77
678.026	7.23
678.057	-10.77
678.088	4.23
678.118	14.23
678.149	14.23
678.18	10.23
678.21	14.23
678.241	12.23
678.272	9.23
678.302	6.23
678.333	23.23
678.363	6.23
678.394	7.23
678.425	-1.77
678.455	10.23
678.486	13.23
678.517	4.23
678.547	4.23
678.578	-1.77
678.608	-12.77
678.639	13.23
678.67	-0.77
678.7	-6.77
678.731	-5.77
678.761	6.23
678.792	-0.77
678.823	11.23
678.853	-6.77
678.884	-7.77
678.914	14.23
678.945	12.23
678.975	12.23
679.006	1.23
679.037	6.23
679.067	18.23
679.098	-2.77
679.128	-12.77
679.159	-1.77
679.189	5.23
679.22	-6.77
679.25	0.23
679.281	-3.77
679.312	-12.77
679.342	7.23
679.373	23.23
679.403	3.23
679.434	7.23
679.464	4.23
679.495	2.23
679.525	10.23
679.556	10.23
679.586	30.23
679.617	5.23
679.647	13.23
679.678	-5.77
679.708	11.23
679.739	-11.77
679.769	7.23
679.8	5.23
679.83	12.23
679.861	7.23
679.891	1.23
679.922	-2.77
679.952	0.23
679.983	5.23
680.013	13.23
680.044	0.23
680.074	16.23
680.105	20.23
680.135	5.23
680.165	21.23
680.196	8.23
680.226	5.23
680.257	3.23
680.287	-3.77
680.318	2.23
680.348	-3.77
680.379	-7.77
680.409	1.23
680.439	0.23
680.47	4.23
680.5	4.23
680.531	0.23
680.561	19.23
680.592	5.23
680.622	11.23
680.652	4.23
680.683	23.23
680.713	4.23
680.744	1.23
680.774	-15.77
680.804	30.23
680.835	-2.77
680.865	-1.77
680.896	27.23
680.926	19.23
680.956	12.23
680.987	1.23
681.017	4.23
681.047	0.23
681.078	-7.77
681.108	-10.77
681.139	11.23
681.169	14.23
681.199	7.23
681.23	0.23
681.26	6.23
681.29	10.23
681.321	-9.77
681.351	9.23
681.381	-4.77
681.412	14.23
681.442	5.23
681.472	4.23
681.503	2.23
681.533	1.23
681.563	3.23
681.594	13.23
681.624	16.23
681.654	10.23
681.685	8.23
681.715	11.23
681.745	9.23
681.775	-2.77
681.806	0.23
681.836	-1.77
681.866	-7.77
681.897	3.23
681.927	-3.77
681.957	-27.77
681.987	-0.77
682.018	-2.77
682.048	7.23
682.078	-0.77
682.109	9.23
682.139	7.23
682.169	22.23
682.199	18.23
682.23	-7.77
682.26	-6.77
682.29	-7.77
682.32	5.23
682.351	5.23
682.381	12.23
682.411	8.23
682.441	-3.77
682.472	0.23
682.502	10.23
682.532	13.23
682.562	11.23
682.592	14.23
682.623	14.23
682.653	-9.77
682.683	-0.77
682.713	11.23
682.743	4.23
682.774	-5.77
682.804	7.23
682.834	19.23
682.864	1.23
682.894	-3.77
682.925	-5.77
682.955	1.23
682.985	-8.77
683.015	-7.77
683.045	10.23
683.076	-8.77
683.106	7.23
683.136	1.23
683.166	7.23
683.196	-2.77
683.226	6.23
683.257	-12.77
683.287	-2.77
683.317	-1.77
683.347	8.23
683.377	1.23
683.407	19.23
683.437	3.23
683.468	15.23
683.498	7.23
683.528	6.23
683.558	-14.77
683.588	-8.77
683.618	-8.77
683.648	8.23
683.678	1.23
683.708	6.23
683.739	6.23
683.769	19.23
683.799	-0.77
683.829	-5.77
683.859	-3.77
683.889	9.23
683.919	-5.77
683.949	12.23
683.979	5.23
684.009	3.23
684.039	7.23
684.07	6.23
684.1	20.23
684.13	-4.77
684.16	-0.77
684.19	17.23
684.22	1.23
684.25	4.23
684.28	-4.77
684.31	8.23
684.34	21.23
684.37	7.23
684.4	-1.77
684.43	14.23
684.46	15.23
684.49	18.23
684.52	14.23
684.55	20.23
684.58	13.23
684.61	11.23
684.64	7.23
684.67	8.23
684.7	3.23
684.73	9.23
684.76	-2.77
684.79	3.23
684.82	2.23
684.85	-10.77
684.88	3.23
684.91	9.23
684.94	-5.77
684.97	-13.77
685	-14.77
685.03	-2.77
685.06	-3.77
685.09	9.23
685.12	25.23
685.15	-5.77
685.18	12.23
685.21	8.23
685.24	10.23
685.27	6.23
685.3	-1.77
685.33	-0.77
685.36	-1.77
685.39	6.23
685.42	-0.77
685.45	10.23
685.48	0.23
685.51	-3.77
685.54	17.23
685.569	30.23
685.599	15.23
685.629	16.23
685.659	19.23
685.689	-6.77
685.719	13.23
685.749	7.23
685.779	14.23
685.809	-5.77
685.839	14.23
685.869	4.23
685.898	7.23
685.928	-0.77
685.958	-5.77
685.988	23.23
686.018	3.23
686.048	7.23
686.078	13.23
686.108	9.23
686.137	1.23
686.167	14.23
686.197	-7.77
686.227	-21.77
686.257	20.23
686.287	24.23
686.317	1.23
686.346	-8.77
686.376	-16.77
686.406	3.23
686.436	0.23
686.466	-10.77
686.496	3.23
686.525	14.23
686.555	1.23
686.585	34.23
686.615	32.23
686.645	21.23
686.675	-6.77
686.704	8.23
686.734	18.23
686.764	-19.77
686.794	-7.77
686.824	-8.77
686.853	2.23
686.883	16.23
686.913	14.23
686.943	10.23
686.973	-7.77
687.002	17.23
687.032	-8.77
687.062	-6.77
687.092	14.23
687.121	3.23
687.151	-0.77
687.181	-4.77
687.211	18.23
687.24	16.23
687.27	5.23
687.3	2.23
687.33	-4.77
687.359	-1.77
687.389	16.23
687.419	-2.77
687.449	2.23
687.478	15.23
687.508	6.23
687.538	15.23
687.568	-5.77
687.597	-8.77
687.627	10.23
687.657	13.23
687.686	-5.77
687.716	33.23
687.746	-5.77
687.776	7.23
687.805	11.23
687.835	19.23
687.865	15.23
687.894	10.23
687.924	1.23
687.954	6.23
687.983	9.23
688.013	16.23
688.043	6.23
688.072	3.23
688.102	10.23
688.132	11.23
688.161	6.23
688.191	13.23
688.221	33.23
688.25	-8.77
688.28	14.23
688.31	1.23
688.339	14.23
688.369	-4.77
688.399	-15.77
688.428	-0.77
688.458	-0.77
688.488	7.23
688.517	5.23
688.547	1.23
688.576	45.23
688.606	23.23
688.636	3.23
688.665	10.23
688.695	9.23
688.725	15.23
688.754	5.23
688.784	7.23
688.813	22.23
688.843	6.23
688.873	-6.77
688.902	7.23
688.932	7.23
688.961	12.23
688.991	19.23
689.02	13.23
689.05	-5.77
689.08	14.23
689.109	-0.77
689.139	13.23
689.168	10.23
689.198	15.23
689.227	1.23
689.257	8.23
689.287	6.23
689.316	12.23
689.346	-2.77
689.375	-1.77
689.405	11.23
689.434	6.23
689.464	13.23
689.493	0.23
689.523	-7.77
689.552	1.23
689.582	0.23
689.611	9.23
689.641	4.23
689.67	15.23
689.7	15.23
689.73	30.23
689.759	6.23
689.789	5.23
689.818	9.23
689.848	8.23
689.877	29.23
689.906	-2.77
689.936	1.23
689.965	10.23
689.995	21.23
690.024	12.23
690.054	9.23
690.083	26.23
690.113	1.23
690.142	6.23
690.172	13.23
690.201	10.23
690.231	9.23
690.26	15.23
690.29	0.23
690.319	21.23
690.348	10.23
690.378	10.23
690.407	1.23
690.437	-0.77
690.466	-3.77
690.496	3.23
690.525	15.23
690.555	1.23
690.584	1.23
690.613	-2.77
690.643	1.23
690.672	9.23
690.702	0.23
690.731	-8.77
690.76	5.23
690.79	10.23
690.819	1.23
690.849	11.23
690.878	13.23
690.907	11.23
690.937	27.23
690.966	28.23
690.996	11.23
691.025	-5.77
691.054	-2.77
691.084	12.23
691.113	10.23
691.142	15.23
691.172	15.23
691.201	11.23
691.23	12.23
691.26	28.23
691.289	16.23
691.319	3.23
691.348	7.23
691.377	4.23
691.407	10.23
691.436	12.23
691.465	2.23
691.495	7.23
691.524	7.23
691.553	5.23
691.583	-12.77
691.612	17.23
691.641	10.23
691.67	-2.77
691.7	15.23
691.729	-17.77
691.758	3.23
691.788	-2.77
691.817	-7.77
691.846	11.23
691.876	6.23
691.905	19.23
691.934	-12.77
691.963	12.23
691.993	12.23
692.022	-8.77
692.051	-10.77
692.081	-0.77
692.11	13.23
692.139	8.23
692.168	18.23
692.198	28.23
692.227	23.23
692.256	18.23
692.285	20.23
692.315	4.23
692.344	-7.77
692.373	-13.77
692.402	-22.77
692.432	-19.77
692.461	-6.77
692.49	1.23
692.519	19.23
692.548	3.23
692.578	30.23
692.607	-4.77
692.636	-5.77
692.665	8.23
692.694	-2.77
692.724	6.23
692.753	5.23
692.782	21.23
692.811	6.23
692.84	-0.77
692.87	3.23
692.899	9.23
692.928	1.23
692.957	5.23
692.986	12.23
693.016	4.23
693.045	8.23
693.074	14.23
693.103	-20.77
693.132	1.23
693.161	21.23
693.191	6.23
693.22	-5.77
693.249	12.23
693.278	-0.77
693.307	20.23
693.336	6.23
693.365	-7.77
693.395	-5.77
693.424	9.23
693.453	23.23
693.482	6.23
693.511	24.23
693.54	10.23
693.569	12.23
693.598	8.23
693.628	12.23
693.657	27.23
693.686	42.23
693.715	3.23
693.744	1.23
693.773	10.23
693.802	-0.77
693.831	1.23
693.86	31.23
693.889	6.23
693.919	11.23
693.948	13.23
693.977	12.23
694.006	25.23
694.035	4.23
694.064	-5.77
694.093	8.23
694.122	-6.77
694.151	7.23
694.18	16.23
694.209	23.23
694.238	3.23
694.267	7.23
694.296	17.23
694.325	16.23
694.354	24.23
694.383	12.23
694.412	-2.77
694.441	-3.77
694.471	-0.77
694.5	-4.77
694.529	-2.77
694.558	24.23
694.587	9.23
694.616	3.23
694.645	10.23
694.674	16.23
694.703	13.23
694.732	16.23
694.761	12.23
694.79	25.23
694.819	-8.77
694.848	2.23
694.877	18.23
694.906	39.23
694.935	19.23
694.963	23.23
694.992	-1.77
695.021	5.23
695.05	15.23
695.079	9.23
695.108	12.23
695.137	29.23
695.166	16.23
695.195	0.23
695.224	19.23
695.253	21.23
695.282	17.23
695.311	5.23
695.34	7.23
695.369	10.23
695.398	8.23
695.427	29.23
695.456	12.23
695.485	3.23
695.513	13.23
695.542	2.23
695.571	3.23
695.6	13.23
695.629	6.23
695.658	9.23
695.687	7.23
695.716	0.23
695.745	28.23
695.774	0.23
695.802	-0.77
695.831	22.23
695.86	31.23
695.889	28.23
695.918	17.23
695.947	-11.77
695.976	17.23
696.005	-3.77
696.033	-5.77
696.062	4.23
696.091	11.23
696.12	2.23
696.149	11.23
696.178	11.23
696.207	8.23
696.235	6.23
696.264	13.23
696.293	20.23
696.322	27.23
696.351	24.23
696.38	11.23
696.408	6.23
696.437	4.23
696.466	0.23
696.495	5.23
696.524	20.23
696.553	15.23
696.581	7.23
696.61	-0.77
696.639	-7.77
696.668	22.23
696.697	10.23
696.725	26.23
696.754	17.23
696.783	8.23
696.812	1.23
696.84	16.23
696.869	13.23
696.898	6.23
696.927	10.23
696.956	21.23
696.984	4.23
697.013	13.23
697.042	-3.77
697.071	5.23
697.099	11.23
697.128	29.23
697.157	12.23
697.186	8.23
697.214	-4.77
697.243	23.23
697.272	12.23
697.301	15.23
697.329	10.23
697.358	16.23
697.387	35.23
697.415	7.23
697.444	18.23
697.473	3.23
697.502	-6.77
697.53	14.23
697.559	6.23
697.588	20.23
697.616	3.23
697.645	9.23
697.674	28.23
697.703	9.23
697.731	11.23
697.76	3.23
697.789	6.23
697.817	9.23
697.846	16.23
697.875	34.23
697.903	29.23
697.932	23.23
697.961	10.23
697.989	24.23
698.018	22.23
698.047	7.23
698.075	17.23
698.104	3.23
698.133	4.23
698.161	4.23
698.19	9.23
698.218	3.23
698.247	6.23
698.276	7.23
698.304	15.23
698.333	15.23
698.362	-0.77
698.39	11.23
698.419	8.23
698.447	7.23
698.476	4.23
698.505	17.23
698.533	17.23
698.562	6.23
698.591	6.23
698.619	1.23
698.648	12.23
698.676	15.23
698.705	-9.77
698.733	-12.77
698.762	3.23
698.791	11.23
698.819	3.23
698.848	17.23
698.876	38.23
698.905	11.23
698.933	11.23
698.962	10.23
698.991	10.23
699.019	24.23
699.048	9.23
699.076	17.23
699.105	7.23
699.133	4.23
699.162	11.23
699.19	16.23
699.219	14.23
699.248	14.23
699.276	20.23
699.305	2.23
699.333	7.23
699.362	-2.77
699.39	9.23
699.419	9.23
699.447	9.23
699.476	13.23
699.504	-1.77
699.533	3.23
699.561	9.23
699.59	-0.77
699.618	5.23
699.647	10.23
699.675	12.23
699.704	9.23
699.732	11.23
699.761	26.23
699.789	11.23
699.818	15.23
699.846	13.23
699.874	7.23
699.903	10.23
699.931	10.23
699.96	16.23
699.988	4.23
700.017	11.23
700.045	16.23
700.074	0.23
700.102	3.23
700.13	-2.77
700.159	6.23
700.187	5.23
700.216	7.23
700.244	-5.77
700.273	-9.77
700.301	-6.77
700.329	15.23
700.358	19.23
700.386	6.23
700.415	18.23
700.443	-3.77
700.472	5.23
700.5	17.23
700.528	16.23
700.557	16.23
700.585	-0.77
700.614	-7.77
700.642	18.23
700.67	29.23
700.699	19.23
700.727	6.23
700.755	1.23
700.784	16.23
700.812	3.23
700.841	23.23
700.869	-5.77
700.897	-16.77
700.926	-0.77
700.954	9.23
700.982	-3.77
701.011	2.23
701.039	0.23
701.067	5.23
701.096	12.23
701.124	2.23
701.152	8.23
701.181	7.23
701.209	5.23
701.237	-5.77
701.266	8.23
701.294	-0.77
701.322	10.23
701.351	11.23
701.379	17.23
701.407	0.23
701.435	19.23
701.464	13.23
701.492	16.23
701.52	-4.77
701.549	-6.77
701.577	4.23
701.605	0.23
701.634	20.23
701.662	12.23
701.69	3.23
701.718	3.23
701.747	13.23
701.775	6.23
701.803	-6.77
701.831	13.23
701.86	0.23
701.888	7.23
701.916	7.23
701.944	2.23
701.973	2.23
702.001	-14.77
702.029	1.23
702.057	4.23
702.086	1.23
702.114	-19.77
702.142	4.23
702.17	8.23
702.199	6.23
702.227	9.23
702.255	-0.77
702.283	2.23
702.311	26.23
702.34	9.23
702.368	5.23
702.396	18.23
702.424	6.23
702.452	13.23
702.481	6.23
702.509	-4.77
702.537	10.23
702.565	15.23
702.593	-15.77
702.621	21.23
702.65	17.23
702.678	10.23
702.706	20.23
702.734	-0.77
702.762	1.23
702.79	-1.77
702.819	6.23
702.847	7.23
702.875	8.23
702.903	12.23
702.931	-0.77
702.959	3.23
702.988	7.23
703.016	-5.77
703.044	0.23
703.072	0.23
703.1	-4.77
703.128	19.23
703.156	16.23
703.184	3.23
703.212	-3.77
703.241	11.23
703.269	-1.77
703.297	-5.77
703.325	8.23
703.353	6.23
703.381	6.23
703.409	-7.77
703.437	7.23
703.465	12.23
703.493	4.23
703.522	18.23
703.55	14.23
703.578	-0.77
703.606	-6.77
703.634	-13.77
703.662	1.23
703.69	2.23
703.718	10.23
703.746	24.23
703.774	0.23
703.802	27.23
703.83	-1.77
703.858	-2.77
703.886	2.23
703.914	-1.77
703.942	29.23
703.97	2.23
703.998	-11.77
704.027	14.23
704.055	9.23
704.083	-1.77
704.111	-7.77
704.139	6.23
704.167	4.23
704.195	5.23
704.223	-9.77
704.251	-9.77
704.279	6.23
704.307	0.23
704.335	-25.77
704.363	5.23
704.391	0.23
704.419	-5.77
704.447	6.23
704.475	9.23
704.503	-3.77
704.531	12.23
704.558	16.23
704.586	-0.77
704.614	0.23
704.642	7.23
704.67	-2.77
704.698	-13.77
704.726	6.23
704.754	6.23
704.782	8.23
704.81	-0.77
704.838	16.23
704.866	17.23
704.894	-15.77
704.922	-6.77
704.95	9.23
704.978	26.23
705.006	-5.77
705.034	5.23
705.061	4.23
705.089	2.23
705.117	7.23
705.145	-5.77
705.173	-2.77
705.201	1.23
705.229	10.23
705.257	-1.77
705.285	8.23
705.313	9.23
705.34	9.23
705.368	-2.77
705.396	15.23
705.424	9.23
705.452	8.23
705.48	6.23
705.508	-0.77
705.536	-9.77
705.563	4.23
705.591	3.23
705.619	-14.77
705.647	-3.77
705.675	7.23
705.703	26.23
705.731	7.23
705.758	12.23
705.786	7.23
705.814	12.23
705.842	-4.77
705.87	20.23
705.898	19.23
705.925	-15.77
705.953	-4.77
705.981	3.23
706.009	8.23
706.037	10.23
706.065	-5.77
706.092	-20.77
706.12	10.23
706.148	3.23
706.176	0.23
706.204	14.23
706.231	10.23
706.259	-12.77
706.287	4.23
706.315	6.23
706.342	-0.77
706.37	3.23
706.398	4.23
706.426	-4.77
706.454	17.23
706.481	16.23
706.509	7.23
706.537	4.23
706.565	-7.77
706.592	10.23
706.62	5.23
706.648	-0.77
706.676	-10.77
706.703	6.23
706.731	0.23
706.759	13.23
706.787	12.23
706.814	16.23
706.842	7.23
706.87	-2.77
706.897	4.23
706.925	7.23
706.953	-2.77
706.981	2.23
707.008	7.23
707.036	2.23
707.064	4.23
707.091	-21.77
707.119	3.23
707.147	9.23
707.174	11.23
707.202	11.23
707.23	9.23
707.258	11.23
707.285	6.23
707.313	5.23
707.341	-10.77
707.368	3.23
707.396	8.23
707.424	19.23
707.451	-0.77
707.479	5.23
707.507	8.23
707.534	-4.77
707.562	17.23
707.59	-9.77
707.617	-5.77
707.645	-2.77
707.672	-5.77
707.7	4.23
707.728	11.23
707.755	8.23
707.783	15.23
707.811	-0.77
707.838	0.23
707.866	2.23
707.893	14.23
707.921	6.23
707.949	-12.77
707.976	-3.77
708.004	9.23
708.031	-10.77
708.059	-17.77
708.087	-8.77
708.114	1.23
708.142	16.23
708.169	11.23
708.197	3.23
708.225	17.23
708.252	-4.77
708.28	1.23
708.307	-9.77
708.335	-4.77
708.362	10.23
708.39	-3.77
708.418	20.23
708.445	-2.77
708.473	12.23
708.5	1.23
708.528	17.23
708.555	3.23
708.583	0.23
708.61	2.23
708.638	20.23
708.665	3.23
708.693	-7.77
708.72	-4.77
708.748	-5.77
708.776	8.23
708.803	23.23
708.831	13.23
708.858	5.23
708.886	-4.77
708.913	11.23
708.941	-3.77
708.968	15.23
708.996	4.23
709.023	26.23
709.051	4.23
709.078	-0.77
709.105	6.23
709.133	6.23
709.16	2.23
709.188	7.23
709.215	-1.77
709.243	-15.77
709.27	-0.77
709.298	10.23
709.325	2.23
709.353	2.23
709.38	-0.77
709.408	-7.77
709.435	-1.77
709.462	-14.77
709.49	1.23
709.517	-1.77
709.545	10.23
709.572	-2.77
709.6	4.23
709.627	5.23
709.655	0.23
709.682	3.23
709.709	0.23
709.737	3.23
709.764	1.23
709.792	11.23
709.819	-6.77
709.846	-2.77
709.874	22.23
709.901	10.23
709.929	31.23
709.956	13.23
709.983	-5.77
710.011	-0.77
710.038	-6.77
710.066	19.23
710.093	16.23
710.12	12.23
710.148	2.23
710.175	-3.77
710.202	-15.77
710.23	7.23
710.257	6.23
710.284	11.23
710.312	6.23
710.339	2.23
710.366	13.23
710.394	-2.77
710.421	-3.77
710.448	16.23
710.476	-5.77
710.503	13.23
710.53	15.23
710.558	17.23
710.585	20.23
710.612	-1.77
710.64	4.23
710.667	-0.77
710.694	-3.77
710.722	6.23
710.749	0.23
710.776	-0.77
710.804	28.23
710.831	11.23
710.858	6.23
710.885	8.23
710.913	-1.77
710.94	14.23
710.967	12.23
710.995	4.23
711.022	11.23
711.049	9.23
711.076	11.23
711.104	2.23
711.131	3.23
711.158	5.23
711.185	11.23
711.213	-14.77
711.24	4.23
711.267	-9.77
711.294	11.23
711.322	25.23
711.349	14.23
711.376	-12.77
711.403	23.23
711.431	1.23
711.458	-2.77
711.485	-6.77
711.512	5.23
711.54	-7.77
711.567	9.23
711.594	12.23
711.621	14.23
711.648	10.23
711.676	11.23
711.703	-0.77
711.73	-18.77
711.757	7.23
711.784	5.23
711.812	6.23
711.839	4.23
711.866	7.23
711.893	4.23
711.92	32.23
711.947	4.23
711.975	1.23
712.002	-10.77
712.029	7.23
712.056	7.23
712.083	-1.77
712.11	-22.77
712.138	4.23
712.165	11.23
712.192	7.23
712.219	-21.77
712.246	-8.77
712.273	1.23
712.3	-9.77
712.328	6.23
712.355	2.23
712.382	-7.77
712.409	23.23
712.436	2.23
712.463	21.23
712.49	19.23
712.517	18.23
712.544	6.23
712.572	3.23
712.599	-2.77
712.626	2.23
712.653	7.23
712.68	10.23
712.707	5.23
712.734	9.23
712.761	11.23
712.788	7.23
712.815	4.23
712.842	18.23
712.87	9.23
712.897	-6.77
712.924	-7.77
712.951	5.23
712.978	26.23
713.005	20.23
713.032	12.23
713.059	4.23
713.086	6.23
713.113	-4.77
713.14	-4.77
713.167	15.23
713.194	12.23
713.221	-2.77
713.248	11.23
713.275	10.23
713.302	5.23
713.329	8.23
713.356	18.23
713.383	1.23
713.41	14.23
713.437	-1.77
713.464	5.23
713.491	7.23
713.518	4.23
713.545	11.23
713.572	23.23
713.599	-1.77
713.626	-3.77
713.653	15.23
713.68	-13.77
713.707	2.23
713.734	10.23
713.761	-3.77
713.788	-1.77
713.815	14.23
713.842	2.23
713.869	7.23
713.896	20.23
713.923	-5.77
713.95	-0.77
713.977	-8.77
714.004	16.23
714.031	20.23
714.058	7.23
714.085	14.23
714.112	35.23
714.139	6.23
714.165	8.23
714.192	3.23
714.219	10.23
714.246	14.23
714.273	-3.77
714.3	16.23
714.327	8.23
714.354	14.23
714.381	-0.77
714.408	9.23
714.435	-11.77
714.461	-4.77
714.488	13.23
714.515	2.23
714.542	3.23
714.569	-9.77
714.596	-16.77
714.623	8.23
714.65	-4.77
714.677	-2.77
714.703	11.23
714.73	14.23
714.757	7.23
714.784	3.23
714.811	-22.77
714.838	3.23
714.865	1.23
714.891	23.23
714.918	-0.77
714.945	4.23
714.972	-7.77
714.999	26.23
715.026	-4.77
715.052	14.23
715.079	7.23
715.106	-1.77
715.133	4.23
715.16	0.23
715.187	20.23
715.213	22.23
715.24	-1.77
715.267	11.23
715.294	-0.77
715.321	-15.77
715.347	2.23
715.374	5.23
715.401	-4.77
715.428	6.23
715.455	9.23
715.481	-13.77
715.508	3.23
715.535	4.23
715.562	40.23
715.588	26.23
715.615	9.23
715.642	1.23
715.669	18.23
715.695	4.23
715.722	4.23
715.749	11.23
715.776	38.23
715.802	3.23
715.829	5.23
715.856	-5.77
715.883	23.23
715.909	-0.77
715.936	24.23
715.963	13.23
715.99	-6.77
716.016	4.23
716.043	7.23
716.07	-17.77
716.096	-11.77
716.123	-14.77
716.15	9.23
716.177	5.23
716.203	2.23
716.23	2.23
716.257	12.23
716.283	22.23
716.31	12.23
716.337	5.23
716.363	-2.77
716.39	-1.77
716.417	20.23
716.443	10.23
716.47	10.23
716.497	11.23
716.523	15.23
716.55	7.23
716.577	17.23
716.603	4.23
716.63	13.23
716.657	27.23
716.683	7.23
716.71	-1.77
716.737	3.23
716.763	8.23
716.79	16.23
716.817	3.23
716.843	12.23
716.87	-14.77
716.897	5.23
716.923	9.23
716.95	2.23
716.976	-17.77
717.003	1.23
717.03	9.23
717.056	20.23
717.083	5.23
717.109	15.23
717.136	15.23
717.163	-8.77
717.189	8.23
717.216	5.23
717.242	1.23
717.269	8.23
717.296	6.23
717.322	11.23
717.349	19.23
717.375	12.23
717.402	11.23
717.428	17.23
717.455	-4.77
717.481	2.23
717.508	10.23
717.535	2.23
717.561	15.23
717.588	3.23
717.614	-2.77
717.641	8.23
717.667	6.23
717.694	3.23
717.72	1.23
717.747	6.23
717.773	3.23
717.8	14.23
717.826	4.23
717.853	-4.77
717.88	10.23
717.906	-0.77
717.933	7.23
717.959	14.23
717.986	11.23
718.012	-0.77
718.039	26.23
718.065	21.23
718.092	19.23
718.118	-0.77
718.144	-0.77
718.171	14.23
718.197	29.23
718.224	11.23
718.25	3.23
718.277	-3.77
718.303	15.23
718.33	7.23
718.356	10.23
718.383	-13.77
718.409	11.23
718.436	-2.77
718.462	3.23
718.489	-8.77
718.515	20.23
718.541	29.23
718.568	18.23
718.594	18.23
718.621	6.23
718.647	-3.77
718.674	9.23
718.7	17.23
718.726	11.23
718.753	-3.77
718.779	13.23
718.806	4.23
718.832	1.23
718.858	7.23
718.885	-2.77
718.911	2.23
718.938	-0.77
718.964	-5.77
718.99	11.23
719.017	0.23
719.043	3.23
719.07	16.23
719.096	5.23
719.122	20.23
719.149	4.23
719.175	-1.77
719.201	7.23
719.228	-0.77
719.254	6.23
719.281	2.23
719.307	0.23
719.333	2.23
719.36	8.23
719.386	5.23
719.412	12.23
719.439	-0.77
719.465	-14.77
719.491	-0.77
719.518	-0.77
719.544	8.23
719.57	23.23
719.597	6.23
719.623	-0.77
719.649	18.23
719.675	16.23
719.702	19.23
719.728	22.23
719.754	-4.77
719.781	11.23
719.807	1.23
719.833	6.23
719.86	0.23
719.886	0.23
719.912	6.23
719.938	2.23
719.965	5.23
719.991	7.23
720.017	11.23
720.044	12.23
720.07	19.23
720.096	5.23
720.122	15.23
720.149	15.23
720.175	20.23
720.201	9.23
720.227	-4.77
720.254	-13.77
720.28	-0.77
720.306	-0.77
720.332	11.23
720.359	13.23
720.385	23.23
720.411	7.23
720.437	8.23
720.463	3.23
720.49	2.23
720.516	3.23
720.542	-4.77
720.568	1.23
720.595	-4.77
720.621	14.23
720.647	5.23
720.673	9.23
720.699	5.23
720.725	22.23
720.752	10.23
720.778	23.23
720.804	9.23
720.83	10.23
720.856	-0.77
720.883	5.23
720.909	13.23
720.935	24.23
720.961	23.23
720.987	15.23
721.013	4.23
721.04	9.23
721.066	0.23
721.092	-2.77
721.118	12.23
721.144	3.23
721.17	-9.77
721.196	4.23
721.223	-3.77
721.249	11.23
721.275	19.23
721.301	10.23
721.327	2.23
721.353	6.23
721.379	3.23
721.405	7.23
721.432	21.23
721.458	1.23
721.484	21.23
721.51	-8.77
721.536	3.23
721.562	10.23
721.588	16.23
721.614	10.23
721.64	3.23
721.666	-6.77
721.693	-3.77
721.719	5.23
721.745	2.23
721.771	-3.77
721.797	-1.77
721.823	-1.77
721.849	3.23
721.875	12.23
721.901	15.23
721.927	6.23
721.953	2.23
721.979	23.23
722.005	16.23
722.031	3.23
722.057	8.23
722.083	0.23
722.109	12.23
722.135	20.23
722.161	14.23
722.187	0.23
722.214	-9.77
722.24	3.23
722.266	1.23
722.292	13.23
722.318	36.23
722.344	16.23
722.37	26.23
722.396	9.23
722.422	11.23
722.448	1.23
722.474	-18.77
722.5	17.23
722.526	0.23
722.552	-4.77
722.578	4.23
722.603	8.23
722.629	-10.77
722.655	12.23
722.681	-0.77
722.707	3.23
722.733	9.23
722.759	3.23
722.785	0.23
722.811	-3.77
722.837	-14.77
722.863	16.23
722.889	4.23
722.915	2.23
722.941	-6.77
722.967	0.23
722.993	14.23
723.019	0.23
723.045	14.23
723.071	8.23
723.097	4.23
723.122	4.23
723.148	-5.77
723.174	-5.77
723.2	10.23
723.226	13.23
723.252	9.23
723.278	6.23
723.304	3.23
723.33	16.23
723.356	-8.77
723.381	-3.77
723.407	-4.77
723.433	5.23
723.459	-16.77
723.485	11.23
723.511	16.23
723.537	-8.77
723.563	8.23
723.588	3.23
723.614	2.23
723.64	3.23
723.666	-8.77
723.692	17.23
723.718	-5.77
723.744	2.23
723.769	3.23
723.795	-7.77
723.821	14.23
723.847	2.23
723.873	-3.77
723.899	1.23
723.924	-1.77
723.95	12.23
723.976	5.23
724.002	7.23
724.028	4.23
724.053	-8.77
724.079	-3.77
724.105	14.23
724.131	13.23
724.157	11.23
724.182	12.23
724.208	3.23
724.234	10.23
724.26	-5.77
724.286	3.23
724.311	-5.77
724.337	-2.77
724.363	-16.77
724.389	4.23
724.415	7.23
724.44	12.23
724.466	-2.77
724.492	-3.77
724.518	8.23
724.543	4.23
724.569	19.23
724.595	15.23
724.621	-15.77
724.646	-0.77
724.672	7.23
724.698	10.23
724.723	7.23
724.749	22.23
724.775	12.23
724.801	5.23
724.826	-2.77
724.852	-14.77
724.878	-5.77
724.904	-8.77
724.929	5.23
724.955	-0.77
724.981	12.23
725.006	6.23
725.032	4.23
725.058	14.23
725.083	11.23
725.109	6.23
725.135	2.23
725.161	9.23
725.186	2.23
725.212	-1.77
725.238	3.23
725.263	1.23
725.289	-4.77
725.315	-6.77
725.34	1.23
725.366	10.23
725.392	-5.77
725.417	8.23
725.443	21.23
725.468	22.23
725.494	10.23
725.52	27.23
725.545	2.23
725.571	-0.77
725.597	0.23
725.622	-10.77
725.648	23.23
725.674	20.23
725.699	4.23
725.725	-0.77
725.75	28.23
725.776	6.23
725.802	9.23
725.827	14.23
725.853	0.23
725.878	13.23
725.904	-1.77
725.93	-4.77
725.955	-5.77
725.981	-2.77
726.006	0.23
726.032	12.23
726.057	-4.77
726.083	-3.77
726.109	12.23
726.134	3.23
726.16	8.23
726.185	-5.77
726.211	5.23
726.236	8.23
726.262	-6.77
726.288	-3.77
726.313	10.23
726.339	23.23
726.364	4.23
726.39	23.23
726.415	7.23
726.441	-4.77
726.466	2.23
726.492	-0.77
726.517	12.23
726.543	-0.77
726.568	3.23
726.594	-8.77
726.619	-2.77
726.645	4.23
726.67	16.23
726.696	23.23
726.721	-4.77
726.747	-4.77
726.772	8.23
726.798	4.23
726.823	14.23
726.849	6.23
726.874	14.23
726.9	23.23
726.925	7.23
726.951	-6.77
726.976	25.23
727.002	11.23
727.027	13.23
727.053	16.23
727.078	-13.77
727.104	-2.77
727.129	-2.77
727.155	-14.77
727.18	8.23
727.205	7.23
727.231	3.23
727.256	2.23
727.282	4.23
727.307	3.23
727.333	11.23
727.358	-5.77
727.383	-9.77
727.409	-14.77
727.434	15.23
727.46	6.23
727.485	4.23
727.511	-7.77
727.536	-13.77
727.561	11.23
727.587	7.23
727.612	11.23
727.637	12.23
727.663	3.23
727.688	14.23
727.714	-6.77
727.739	-7.77
727.764	0.23
727.79	4.23
727.815	8.23
727.841	2.23
727.866	8.23
727.891	11.23
727.917	-7.77
727.942	6.23
727.967	6.23
727.993	-22.77
728.018	-4.77
728.043	12.23
728.069	8.23
728.094	37.23
728.119	8.23
728.145	3.23
728.17	3.23
728.195	4.23
728.221	4.23
728.246	0.23
728.271	1.23
728.297	3.23
728.322	8.23
728.347	14.23
728.373	-5.77
728.398	14.23
728.423	7.23
728.448	12.23
728.474	11.23
728.499	6.23
728.524	-11.77
728.55	-7.77
728.575	-4.77
728.6	12.23
728.625	10.23
728.651	14.23
728.676	7.23
728.701	-22.77
728.727	-7.77
728.752	-6.77
728.777	6.23
728.802	15.23
728.828	14.23
728.853	23.23
728.878	13.23
728.903	-4.77
728.929	3.23
728.954	3.23
728.979	18.23
729.004	-1.77
729.03	0.23
729.055	-4.77
729.08	-0.77
729.105	2.23
729.13	18.23
729.156	4.23
729.181	8.23
729.206	-2.77
729.231	-3.77
729.256	10.23
729.282	8.23
729.307	0.23
729.332	-0.77
729.357	-2.77
729.382	2.23
729.408	9.23
729.433	9.23
729.458	2.23
729.483	18.23
729.508	9.23
729.533	2.23
729.559	-2.77
729.584	-11.77
729.609	3.23
729.634	12.23
729.659	-0.77
729.684	-6.77
729.71	24.23
729.735	7.23
729.76	15.23
729.785	3.23
729.81	12.23
729.835	-5.77
729.86	-7.77
729.886	13.23
729.911	8.23
729.936	0.23
729.961	0.23
729.986	-15.77
730.011	2.23
730.036	11.23
730.061	6.23
730.086	19.23
730.112	22.23
730.137	12.23
730.162	13.23
730.187	8.23
730.212	12.23
730.237	-0.77
730.262	8.23
730.287	2.23
730.312	20.23
730.337	-9.77
730.362	14.23
730.387	8.23
730.413	20.23
730.438	6.23
730.463	4.23
730.488	-9.77
730.513	0.23
730.538	-3.77
730.563	17.23
730.588	14.23
730.613	19.23
730.638	8.23
730.663	8.23
730.688	20.23
730.713	14.23
730.738	11.23
730.763	13.23
730.788	-10.77
730.813	20.23
730.838	12.23
730.863	3.23
730.888	-8.77
730.913	-1.77
730.938	-20.77
730.963	4.23
730.988	22.23
731.013	20.23
731.038	17.23
731.063	-6.77
731.088	13.23
731.113	5.23
731.138	-0.77
731.163	8.23
731.188	-1.77
731.213	11.23
731.238	32.23
731.263	11.23
731.288	-3.77
731.313	3.23
731.338	11.23
731.363	2.23
731.388	17.23
731.413	1.23
731.438	14.23
731.463	6.23
731.487	15.23
731.512	4.23
731.537	0.23
731.562	15.23
731.587	17.23
731.612	8.23
731.637	11.23
731.662	16.23
731.687	4.23
731.712	-12.77
731.737	14.23
731.762	17.23
731.786	19.23
731.811	7.23
731.836	1.23
731.861	-4.77
731.886	7.23
731.911	10.23
731.936	19.23
731.961	6.23
731.986	6.23
732.01	11.23
732.035	4.23
732.06	24.23
732.085	6.23
732.11	6.23
732.135	12.23
732.16	10.23
732.184	2.23
732.209	3.23
732.234	6.23
732.259	20.23
732.284	18.23
732.309	-6.77
732.334	5.23
732.358	-4.77
732.383	13.23
732.408	1.23
732.433	-0.77
732.458	15.23
732.482	20.23
732.507	7.23
732.532	10.23
732.557	9.23
732.582	10.23
732.607	10.23
732.631	-2.77
732.656	-4.77
732.681	9.23
732.706	13.23
732.73	7.23
732.755	15.23
732.78	12.23
732.805	8.23
732.83	12.23
732.854	4.23
732.879	11.23
732.904	-0.77
732.929	2.23
732.953	0.23
732.978	8.23
733.003	-4.77
733.028	6.23
733.052	3.23
733.077	-2.77
733.102	22.23
733.127	6.23
733.151	2.23
733.176	15.23
733.201	2.23
733.226	10.23
733.25	21.23
733.275	19.23
733.3	15.23
733.324	13.23
733.349	6.23
733.374	11.23
733.399	1.23
733.423	13.23
733.448	21.23
733.473	12.23
733.497	11.23
733.522	9.23
733.547	16.23
733.571	20.23
733.596	3.23
733.621	10.23
733.646	9.23
733.67	11.23
733.695	-4.77
733.72	4.23
733.744	22.23
733.769	22.23
733.794	19.23
733.818	-0.77
733.843	-7.77
733.867	-0.77
733.892	4.23
733.917	-10.77
733.941	-0.77
733.966	-1.77
733.991	-5.77
734.015	16.23
734.04	12.23
734.065	25.23
734.089	30.23
734.114	-13.77
734.138	10.23
734.163	3.23
734.188	14.23
734.212	25.23
734.237	42.23
734.261	21.23
734.286	15.23
734.311	6.23
734.335	0.23
734.36	-4.77
734.384	12.23
734.409	12.23
734.434	-11.77
734.458	4.23
734.483	8.23
734.507	3.23
734.532	-2.77
734.556	23.23
734.581	11.23
734.606	16.23
734.63	9.23
734.655	11.23
734.679	8.23
734.704	7.23
734.728	11.23
734.753	3.23
734.777	0.23
734.802	-4.77
734.826	-0.77
734.851	4.23
734.876	10.23
734.9	23.23
734.925	20.23
734.949	11.23
734.974	11.23
734.998	2.23
735.023	-9.77
735.047	-16.77
735.072	22.23
735.096	11.23
735.121	18.23
735.145	21.23
735.17	17.23
735.194	12.23
735.219	3.23
735.243	11.23
735.268	14.23
735.292	10.23
735.317	-0.77
735.341	2.23
735.365	-4.77
735.39	6.23
735.414	4.23
735.439	1.23
735.463	16.23
735.488	9.23
735.512	3.23
735.537	11.23
735.561	2.23
735.586	5.23
735.61	15.23
735.634	-0.77
735.659	6.23
735.683	19.23
735.708	0.23
735.732	0.23
735.757	0.23
735.781	16.23
735.805	8.23
735.83	3.23
735.854	9.23
735.879	17.23
735.903	22.23
735.927	9.23
735.952	-3.77
735.976	-3.77
736.001	13.23
736.025	-2.77
736.049	6.23
736.074	11.23
736.098	7.23
736.123	4.23
736.147	6.23
736.171	-0.77
736.196	3.23
736.22	-12.77
736.244	-2.77
736.269	17.23
736.293	0.23
736.317	-0.77
736.342	14.23
736.366	18.23
736.39	6.23
736.415	3.23
736.439	-12.77
736.463	13.23
736.488	16.23
736.512	2.23
736.536	12.23
736.561	18.23
736.585	8.23
736.609	16.23
736.634	15.23
736.658	3.23
736.682	-7.77
736.707	0.23
736.731	2.23
736.755	15.23
736.78	27.23
736.804	8.23
736.828	12.23
736.852	-3.77
736.877	9.23
736.901	8.23
736.925	11.23
736.949	9.23
736.974	2.23
736.998	-8.77
737.022	9.23
737.047	-14.77
737.071	-1.77
737.095	9.23
737.119	24.23
737.144	3.23
737.168	5.23
737.192	-1.77
737.216	9.23
737.241	11.23
737.265	16.23
737.289	0.23
737.313	0.23
737.337	2.23
737.362	13.23
737.386	5.23
737.41	-2.77
737.434	9.23
737.459	10.23
737.483	12.23
737.507	19.23
737.531	18.23
737.555	24.23
737.58	15.23
737.604	3.23
737.628	-12.77
737.652	-0.77
737.676	-1.77
737.701	2.23
737.725	20.23
737.749	11.23
737.773	8.23
737.797	5.23
737.821	-14.77
737.846	-1.77
737.87	39.23
737.894	4.23
737.918	-1.77
737.942	4.23
737.966	11.23
737.99	26.23
738.015	14.23
738.039	2.23
738.063	-5.77
738.087	5.23
738.111	-2.77
738.135	12.23
738.159	3.23
738.184	5.23
738.208	24.23
738.232	15.23
738.256	28.23
738.28	8.23
738.304	26.23
738.328	3.23
738.352	3.23
738.376	12.23
738.4	15.23
738.425	21.23
738.449	-0.77
738.473	11.23
738.497	3.23
738.521	12.23
738.545	20.23
738.569	13.23
738.593	25.23
738.617	6.23
738.641	-0.77
738.665	-0.77
738.689	-2.77
738.713	10.23
738.737	-2.77
738.762	16.23
738.786	14.23
738.81	-1.77
738.834	7.23
738.858	-0.77
738.882	28.23
738.906	-0.77
738.93	9.23
738.954	6.23
738.978	9.23
739.002	-3.77
739.026	4.23
739.05	17.23
739.074	6.23
739.098	32.23
739.122	11.23
739.146	12.23
739.17	19.23
739.194	15.23
739.218	6.23
739.242	-1.77
739.266	0.23
739.29	0.23
739.314	11.23
739.338	4.23
739.362	0.23
739.386	20.23
739.41	-5.77
739.434	3.23
739.458	10.23
739.482	18.23
739.506	30.23
739.53	3.23
739.554	11.23
739.577	-3.77
739.601	15.23
739.625	-1.77
739.649	19.23
739.673	0.23
739.697	24.23
739.721	7.23
739.745	23.23
739.769	18.23
739.793	17.23
739.817	18.23
739.841	-6.77
739.865	9.23
739.889	4.23
739.912	30.23
739.936	-7.77
739.96	11.23
739.984	31.23
740.008	20.23
740.032	3.23
740.056	9.23
740.08	12.23
740.104	5.23
740.127	16.23
740.151	9.23
740.175	22.23
740.199	21.23
740.223	41.23
740.247	14.23
740.271	7.23
740.295	3.23
740.318	-7.77
740.342	-4.77
740.366	12.23
740.39	20.23
740.414	12.23
740.438	3.23
740.461	20.23
740.485	8.23
740.509	-6.77
740.533	16.23
740.557	15.23
740.581	10.23
740.604	-8.77
740.628	0.23
740.652	11.23
740.676	4.23
740.7	14.23
740.723	10.23
740.747	8.23
740.771	3.23
740.795	3.23
740.819	20.23
740.842	4.23
740.866	17.23
740.89	4.23
740.914	-4.77
740.938	4.23
740.961	10.23
740.985	4.23
741.009	2.23
741.033	1.23
741.056	9.23
741.08	7.23
741.104	-0.77
741.128	4.23
741.151	16.23
741.175	-0.77
741.199	13.23
741.223	12.23
741.246	1.23
741.27	19.23
741.294	25.23
741.318	-0.77
741.341	0.23
741.365	7.23
741.389	2.23
741.413	7.23
741.436	11.23
741.46	11.23
741.484	13.23
741.507	9.23
741.531	15.23
741.555	14.23
741.579	-0.77
741.602	-7.77
741.626	8.23
741.65	0.23
741.673	-0.77
741.697	2.23
741.721	12.23
741.744	-8.77
741.768	1.23
741.792	6.23
741.815	3.23
741.839	6.23
741.863	10.23
741.886	17.23
741.91	18.23
741.934	-0.77
741.957	3.23
741.981	26.23
742.005	13.23
742.028	-5.77
742.052	-4.77
742.075	18.23
742.099	16.23
742.123	-4.77
742.146	18.23
742.17	19.23
742.194	-0.77
742.217	-1.77
742.241	0.23
742.264	-1.77
742.288	-1.77
742.312	6.23
742.335	4.23
742.359	2.23
742.382	12.23
742.406	13.23
742.43	11.23
742.453	12.23
742.477	-0.77
742.5	0.23
742.524	-10.77
742.548	-5.77
742.571	-0.77
742.595	2.23
742.618	9.23
742.642	8.23
742.665	6.23
742.689	-5.77
742.712	2.23
742.736	0.23
742.76	14.23
742.783	1.23
742.807	12.23
742.83	18.23
742.854	4.23
742.877	0.23
742.901	-1.77
742.924	-5.77
742.948	9.23
742.971	16.23
742.995	13.23
743.018	2.23
743.042	1.23
743.065	11.23
743.089	-2.77
743.112	5.23
743.136	-7.77
743.159	-11.77
743.183	-9.77
743.206	3.23
743.23	-1.77
743.253	0.23
743.277	14.23
743.3	0.23
743.324	2.23
743.347	2.23
743.371	5.23
743.394	6.23
743.418	15.23
743.441	10.23
743.465	1.23
743.488	12.23
743.512	-11.77
743.535	3.23
743.558	4.23
743.582	-3.77
743.605	16.23
743.629	12.23
743.652	14.23
743.676	4.23
743.699	10.23
743.723	14.23
743.746	21.23
743.769	1.23
743.793	5.23
743.816	12.23
743.84	18.23
743.863	-7.77
743.886	9.23
743.91	4.23
743.933	12.23
743.957	4.23
743.98	3.23
744.003	7.23
744.027	12.23
744.05	0.23
744.074	10.23
744.097	-9.77
744.12	7.23
744.144	0.23
744.167	-1.77
744.19	3.23
744.214	8.23
744.237	-0.77
744.26	15.23
744.284	2.23
744.307	-9.77
744.331	-1.77
744.354	-6.77
744.377	-4.77
744.401	-5.77
744.424	-1.77
744.447	-9.77
744.471	-4.77
