Data from LowRes_H2_15_26_11_07_2024_HR4C61881__50__15-28-18-637.txt Node

Date: Thu Nov 07 15:28:18 EST 2024
User: crc00042
Spectrometer: HR4C6188
Trigger mode: 4
Integration Time (sec): 1.000000E-1
Scans to average: 1
Electric dark correction enabled: true
Nonlinearity correction enabled: false
Boxcar width: 0
XAxis mode: Wavelengths
Number of Pixels in Spectrum: 3648
>>>>>Begin Spectral Data<<<<<
245.66	-108.69
245.797	-108.69
245.934	-108.69
246.071	-92.69
246.208	14.31
246.344	8.31
246.481	-22.69
246.618	-13.69
246.755	2.31
246.892	0.31
247.029	-5.69
247.165	-6.69
247.302	2.31
247.439	7.31
247.576	-6.69
247.713	1.31
247.849	35.31
247.986	-1.69
248.123	-2.69
248.26	-6.69
248.396	7.31
248.533	-8.69
248.67	-6.69
248.806	-3.69
248.943	-20.69
249.08	-6.69
249.216	15.31
249.353	-0.69
249.49	-6.69
249.626	-8.69
249.763	7.31
249.9	-7.69
250.036	15.31
250.173	9.31
250.309	-4.69
250.446	7.31
250.582	-10.69
250.719	-37.69
250.856	-6.69
250.992	10.31
251.129	-16.69
251.265	-3.69
251.402	2.31
251.538	12.31
251.675	-3.69
251.811	10.31
251.948	14.31
252.084	-8.69
252.221	-10.69
252.357	-8.69
252.493	21.31
252.63	7.31
252.766	18.31
252.903	3.31
253.039	2.31
253.175	8.31
253.312	5.31
253.448	-15.69
253.585	-14.69
253.721	14.31
253.857	-14.69
253.994	0.31
254.13	4.31
254.266	-2.69
254.403	11.31
254.539	21.31
254.675	6.31
254.811	0.31
254.948	14.31
255.084	-14.69
255.22	-15.69
255.356	1.31
255.493	4.31
255.629	-4.69
255.765	20.31
255.901	19.31
256.037	10.31
256.174	-8.69
256.31	0.31
256.446	-14.69
256.582	-3.69
256.718	7.31
256.854	9.31
256.991	-3.69
257.127	-4.69
257.263	4.31
257.399	6.31
257.535	-5.69
257.671	-1.69
257.807	-28.69
257.943	-24.69
258.079	-2.69
258.215	-13.69
258.351	27.31
258.487	4.31
258.623	24.31
258.759	8.31
258.895	9.31
259.031	-2.69
259.167	-16.69
259.303	7.31
259.439	-24.69
259.575	-21.69
259.711	-5.69
259.847	-32.69
259.983	17.31
260.119	-12.69
260.255	-16.69
260.391	2.31
260.527	5.31
260.663	17.31
260.799	18.31
260.934	-7.69
261.07	-17.69
261.206	-6.69
261.342	-9.69
261.478	6.31
261.614	3.31
261.749	4.31
261.885	-10.69
262.021	-7.69
262.157	23.31
262.293	11.31
262.428	1.31
262.564	3.31
262.7	-5.69
262.836	-3.69
262.971	8.31
263.107	12.31
263.243	-0.69
263.378	-1.69
263.514	-11.69
263.65	9.31
263.785	0.31
263.921	-9.69
264.057	11.31
264.192	5.31
264.328	18.31
264.464	-10.69
264.599	19.31
264.735	11.31
264.871	-13.69
265.006	-8.69
265.142	1.31
265.277	3.31
265.413	7.31
265.548	12.31
265.684	30.31
265.819	-9.69
265.955	-13.69
266.091	-6.69
266.226	-14.69
266.362	2.31
266.497	15.31
266.633	2.31
266.768	-6.69
266.903	6.31
267.039	5.31
267.174	7.31
267.31	-0.69
267.445	-7.69
267.581	-3.69
267.716	10.31
267.851	9.31
267.987	2.31
268.122	2.31
268.258	0.31
268.393	-13.69
268.528	-5.69
268.664	-23.69
268.799	-19.69
268.934	-12.69
269.07	-8.69
269.205	1.31
269.34	22.31
269.476	-6.69
269.611	-20.69
269.746	15.31
269.881	15.31
270.017	23.31
270.152	-5.69
270.287	0.31
270.422	8.31
270.558	-4.69
270.693	6.31
270.828	3.31
270.963	-11.69
271.098	-4.69
271.234	0.31
271.369	13.31
271.504	-13.69
271.639	2.31
271.774	-9.69
271.909	0.31
272.045	-24.69
272.18	-3.69
272.315	-0.69
272.45	16.31
272.585	-14.69
272.72	-8.69
272.855	-18.69
272.99	7.31
273.125	2.31
273.26	-15.69
273.395	-4.69
273.53	-6.69
273.665	25.31
273.8	-5.69
273.935	15.31
274.07	9.31
274.205	17.31
274.34	3.31
274.475	-1.69
274.61	8.31
274.745	2.31
274.88	12.31
275.015	6.31
275.15	23.31
275.285	7.31
275.42	3.31
275.555	7.31
275.69	9.31
275.825	-9.69
275.959	15.31
276.094	3.31
276.229	4.31
276.364	-20.69
276.499	1.31
276.634	10.31
276.768	-10.69
276.903	-2.69
277.038	2.31
277.173	-10.69
277.308	0.31
277.442	-11.69
277.577	-3.69
277.712	-0.69
277.847	-0.69
277.981	6.31
278.116	-16.69
278.251	1.31
278.386	-4.69
278.52	5.31
278.655	-2.69
278.79	13.31
278.924	-5.69
279.059	-8.69
279.194	-3.69
279.328	48.31
279.463	6.31
279.598	20.31
279.732	18.31
279.867	24.31
280.001	11.31
280.136	1.31
280.271	2.31
280.405	-10.69
280.54	1.31
280.674	-4.69
280.809	22.31
280.943	10.31
281.078	5.31
281.213	17.31
281.347	19.31
281.482	6.31
281.616	-16.69
281.751	-2.69
281.885	-6.69
282.02	12.31
282.154	24.31
282.288	-14.69
282.423	-14.69
282.557	-9.69
282.692	-1.69
282.826	3.31
282.961	17.31
283.095	-6.69
283.229	-6.69
283.364	-5.69
283.498	-5.69
283.633	13.31
283.767	-5.69
283.901	-0.69
284.036	-8.69
284.17	-22.69
284.304	-18.69
284.439	10.31
284.573	-7.69
284.707	7.31
284.842	-25.69
284.976	-2.69
285.11	-9.69
285.244	-13.69
285.379	43.31
285.513	-9.69
285.647	14.31
285.781	2.31
285.916	-2.69
286.05	-4.69
286.184	27.31
286.318	19.31
286.453	-7.69
286.587	-18.69
286.721	4.31
286.855	9.31
286.989	9.31
287.123	-7.69
287.258	5.31
287.392	5.31
287.526	21.31
287.66	1.31
287.794	8.31
287.928	-9.69
288.062	-0.69
288.196	0.31
288.33	15.31
288.464	17.31
288.598	-0.69
288.733	-8.69
288.867	24.31
289.001	14.31
289.135	10.31
289.269	-8.69
289.403	-7.69
289.537	2.31
289.671	-0.69
289.805	-15.69
289.939	3.31
290.073	-8.69
290.207	24.31
290.34	0.31
290.474	7.31
290.608	3.31
290.742	2.31
290.876	-5.69
291.01	0.31
291.144	23.31
291.278	4.31
291.412	-8.69
291.546	0.31
291.679	-2.69
291.813	19.31
291.947	3.31
292.081	4.31
292.215	7.31
292.349	17.31
292.482	-2.69
292.616	-10.69
292.75	3.31
292.884	13.31
293.018	8.31
293.151	-9.69
293.285	9.31
293.419	0.31
293.553	-10.69
293.686	-10.69
293.82	-21.69
293.954	40.31
294.088	22.31
294.221	-11.69
294.355	-27.69
294.489	-6.69
294.622	-5.69
294.756	10.31
294.89	8.31
295.023	-6.69
295.157	-7.69
295.291	8.31
295.424	10.31
295.558	-0.69
295.691	12.31
295.825	4.31
295.959	3.31
296.092	-24.69
296.226	11.31
296.359	-0.69
296.493	0.31
296.627	-1.69
296.76	-11.69
296.894	-7.69
297.027	-12.69
297.161	-8.69
297.294	-22.69
297.428	-9.69
297.561	17.31
297.695	-5.69
297.828	-1.69
297.962	-2.69
298.095	-10.69
298.229	-2.69
298.362	-12.69
298.495	-8.69
298.629	-39.69
298.762	-14.69
298.896	-2.69
299.029	-20.69
299.162	-15.69
299.296	12.31
299.429	-1.69
299.563	1.31
299.696	5.31
299.829	7.31
299.963	4.31
300.096	8.31
300.229	-0.69
300.363	4.31
300.496	8.31
300.629	-14.69
300.763	-21.69
300.896	-11.69
301.029	7.31
301.162	-16.69
301.296	-21.69
301.429	-2.69
301.562	-4.69
301.695	6.31
301.829	13.31
301.962	22.31
302.095	7.31
302.228	-16.69
302.362	-17.69
302.495	-14.69
302.628	1.31
302.761	7.31
302.894	-7.69
303.027	9.31
303.161	-2.69
303.294	-12.69
303.427	18.31
303.56	5.31
303.693	-0.69
303.826	15.31
303.959	-4.69
304.092	-1.69
304.225	-1.69
304.359	6.31
304.492	-6.69
304.625	-11.69
304.758	8.31
304.891	-10.69
305.024	-0.69
305.157	-2.69
305.29	-19.69
305.423	-3.69
305.556	-0.69
305.689	20.31
305.822	-4.69
305.955	-13.69
306.088	-11.69
306.221	-3.69
306.354	-12.69
306.487	-17.69
306.62	-5.69
306.752	1.31
306.885	1.31
307.018	2.31
307.151	-10.69
307.284	30.31
307.417	-9.69
307.55	7.31
307.683	-11.69
307.816	0.31
307.948	9.31
308.081	20.31
308.214	4.31
308.347	7.31
308.48	-7.69
308.613	-10.69
308.745	3.31
308.878	8.31
309.011	7.31
309.144	11.31
309.277	6.31
309.409	2.31
309.542	-16.69
309.675	2.31
309.808	-0.69
309.94	14.31
310.073	-27.69
310.206	-3.69
310.339	1.31
310.471	-10.69
310.604	22.31
310.737	17.31
310.869	-2.69
311.002	-15.69
311.135	-14.69
311.267	-22.69
311.4	9.31
311.533	18.31
311.665	13.31
311.798	-4.69
311.93	12.31
312.063	25.31
312.196	7.31
312.328	-11.69
312.461	4.31
312.593	10.31
312.726	19.31
312.859	9.31
312.991	8.31
313.124	-20.69
313.256	9.31
313.389	1.31
313.521	-7.69
313.654	-7.69
313.786	-25.69
313.919	-4.69
314.051	-13.69
314.184	2.31
314.316	3.31
314.449	-15.69
314.581	-8.69
314.714	-13.69
314.846	11.31
314.978	5.31
315.111	-27.69
315.243	-8.69
315.376	12.31
315.508	8.31
315.641	-2.69
315.773	14.31
315.905	1.31
316.038	8.31
316.17	5.31
316.302	-2.69
316.435	1.31
316.567	2.31
316.699	26.31
316.832	-9.69
316.964	-2.69
317.096	-9.69
317.229	-17.69
317.361	-16.69
317.493	-9.69
317.625	-10.69
317.758	0.31
317.89	0.31
318.022	-1.69
318.155	-0.69
318.287	-2.69
318.419	8.31
318.551	12.31
318.683	3.31
318.816	-8.69
318.948	5.31
319.08	-9.69
319.212	15.31
319.344	17.31
319.477	18.31
319.609	13.31
319.741	2.31
319.873	-15.69
320.005	5.31
320.137	-3.69
320.269	3.31
320.401	2.31
320.534	-4.69
320.666	-24.69
320.798	-11.69
320.93	-8.69
321.062	-3.69
321.194	0.31
321.326	-4.69
321.458	6.31
321.59	-12.69
321.722	1.31
321.854	7.31
321.986	-3.69
322.118	2.31
322.25	-6.69
322.382	6.31
322.514	6.31
322.646	-27.69
322.778	16.31
322.91	-1.69
323.042	-12.69
323.174	-4.69
323.306	-22.69
323.438	-21.69
323.57	-18.69
323.702	-1.69
323.834	10.31
323.966	-5.69
324.097	3.31
324.229	20.31
324.361	15.31
324.493	-2.69
324.625	-25.69
324.757	20.31
324.889	5.31
325.021	26.31
325.152	-0.69
325.284	-1.69
325.416	-4.69
325.548	-0.69
325.68	-1.69
325.811	28.31
325.943	12.31
326.075	-18.69
326.207	-9.69
326.339	10.31
326.47	-8.69
326.602	7.31
326.734	15.31
326.866	20.31
326.997	-14.69
327.129	-5.69
327.261	-25.69
327.392	-11.69
327.524	-0.69
327.656	-0.69
327.787	10.31
327.919	-4.69
328.051	-4.69
328.182	19.31
328.314	21.31
328.446	5.31
328.577	9.31
328.709	18.31
328.841	-15.69
328.972	-20.69
329.104	-13.69
329.235	-22.69
329.367	8.31
329.499	3.31
329.63	-3.69
329.762	3.31
329.893	10.31
330.025	-1.69
330.156	8.31
330.288	5.31
330.419	32.31
330.551	31.31
330.683	4.31
330.814	1.31
330.946	4.31
331.077	8.31
331.208	-16.69
331.34	2.31
331.471	-11.69
331.603	-20.69
331.734	-15.69
331.866	-0.69
331.997	-2.69
332.129	-7.69
332.26	-10.69
332.392	17.31
332.523	-0.69
332.654	-14.69
332.786	-8.69
332.917	-10.69
333.048	17.31
333.18	21.31
333.311	-12.69
333.443	7.31
333.574	-8.69
333.705	29.31
333.837	5.31
333.968	9.31
334.099	15.31
334.231	11.31
334.362	-10.69
334.493	16.31
334.624	17.31
334.756	-6.69
334.887	2.31
335.018	5.31
335.15	7.31
335.281	1.31
335.412	23.31
335.543	-4.69
335.675	2.31
335.806	2.31
335.937	-9.69
336.068	10.31
336.199	15.31
336.331	-11.69
336.462	-6.69
336.593	23.31
336.724	2.31
336.855	12.31
336.986	19.31
337.118	12.31
337.249	10.31
337.38	4.31
337.511	3.31
337.642	11.31
337.773	-10.69
337.904	11.31
338.035	18.31
338.166	13.31
338.298	10.31
338.429	6.31
338.56	8.31
338.691	19.31
338.822	-1.69
338.953	2.31
339.084	8.31
339.215	-11.69
339.346	12.31
339.477	-3.69
339.608	2.31
339.739	-11.69
339.87	-7.69
340.001	1.31
340.132	1.31
340.263	-1.69
340.394	-0.69
340.525	-4.69
340.656	-24.69
340.787	-29.69
340.918	18.31
341.049	29.31
341.179	-0.69
341.31	-7.69
341.441	30.31
341.572	1.31
341.703	9.31
341.834	-14.69
341.965	11.31
342.096	-0.69
342.227	3.31
342.357	3.31
342.488	5.31
342.619	8.31
342.75	3.31
342.881	-5.69
343.012	20.31
343.142	15.31
343.273	-14.69
343.404	0.31
343.535	43.31
343.666	17.31
343.796	14.31
343.927	-4.69
344.058	32.31
344.189	7.31
344.319	15.31
344.45	4.31
344.581	1.31
344.712	-16.69
344.842	-6.69
344.973	7.31
345.104	-8.69
345.234	1.31
345.365	-13.69
345.496	-7.69
345.626	9.31
345.757	17.31
345.888	-6.69
346.018	19.31
346.149	-5.69
346.28	33.31
346.41	-4.69
346.541	5.31
346.672	-9.69
346.802	14.31
346.933	7.31
347.063	0.31
347.194	-5.69
347.325	1.31
347.455	7.31
347.586	-5.69
347.716	-10.69
347.847	2.31
347.977	1.31
348.108	33.31
348.238	12.31
348.369	5.31
348.499	13.31
348.63	-9.69
348.76	-1.69
348.891	16.31
349.021	-11.69
349.152	1.31
349.282	7.31
349.413	9.31
349.543	29.31
349.674	24.31
349.804	16.31
349.935	-9.69
350.065	0.31
350.196	5.31
350.326	10.31
350.456	-4.69
350.587	32.31
350.717	-12.69
350.848	5.31
350.978	18.31
351.108	-12.69
351.239	4.31
351.369	-14.69
351.499	-5.69
351.63	24.31
351.76	10.31
351.89	-4.69
352.021	-0.69
352.151	-5.69
352.281	24.31
352.412	4.31
352.542	11.31
352.672	-0.69
352.803	-7.69
352.933	-15.69
353.063	14.31
353.193	11.31
353.324	17.31
353.454	7.31
353.584	28.31
353.714	6.31
353.845	11.31
353.975	5.31
354.105	2.31
354.235	-7.69
354.365	4.31
354.496	-12.69
354.626	-0.69
354.756	3.31
354.886	-0.69
355.016	26.31
355.146	4.31
355.277	-6.69
355.407	-21.69
355.537	1.31
355.667	5.31
355.797	20.31
355.927	3.31
356.057	5.31
356.187	-18.69
356.318	10.31
356.448	-5.69
356.578	-8.69
356.708	9.31
356.838	14.31
356.968	7.31
357.098	9.31
357.228	19.31
357.358	7.31
357.488	-2.69
357.618	21.31
357.748	13.31
357.878	7.31
358.008	-7.69
358.138	-6.69
358.268	-18.69
358.398	26.31
358.528	3.31
358.658	-9.69
358.788	5.31
358.918	3.31
359.048	-2.69
359.178	12.31
359.308	6.31
359.438	18.31
359.568	15.31
359.698	8.31
359.827	-10.69
359.957	7.31
360.087	12.31
360.217	-2.69
360.347	-5.69
360.477	8.31
360.607	-0.69
360.737	21.31
360.866	-15.69
360.996	-22.69
361.126	0.31
361.256	27.31
361.386	5.31
361.516	20.31
361.645	-9.69
361.775	16.31
361.905	-14.69
362.035	9.31
362.165	-7.69
362.294	12.31
362.424	22.31
362.554	9.31
362.684	-0.69
362.813	7.31
362.943	13.31
363.073	-0.69
363.203	-4.69
363.332	3.31
363.462	-1.69
363.592	-6.69
363.721	-3.69
363.851	0.31
363.981	17.31
364.111	-20.69
364.24	-5.69
364.37	3.31
364.5	17.31
364.629	4.31
364.759	-21.69
364.888	-26.69
365.018	2.31
365.148	-13.69
365.277	13.31
365.407	14.31
365.537	27.31
365.666	4.31
365.796	1.31
365.925	15.31
366.055	30.31
366.184	8.31
366.314	-0.69
366.444	1.31
366.573	-5.69
366.703	1.31
366.832	10.31
366.962	8.31
367.091	27.31
367.221	8.31
367.35	13.31
367.48	33.31
367.609	18.31
367.739	23.31
367.868	-4.69
367.998	6.31
368.127	18.31
368.257	22.31
368.386	23.31
368.516	9.31
368.645	17.31
368.775	5.31
368.904	8.31
369.033	-24.69
369.163	-10.69
369.292	-1.69
369.422	9.31
369.551	14.31
369.68	21.31
369.81	7.31
369.939	-10.69
370.069	41.31
370.198	14.31
370.327	-20.69
370.457	-1.69
370.586	5.31
370.715	1.31
370.845	1.31
370.974	13.31
371.103	30.31
371.233	-7.69
371.362	8.31
371.491	-6.69
371.621	17.31
371.75	11.31
371.879	-2.69
372.008	14.31
372.138	9.31
372.267	4.31
372.396	-3.69
372.525	10.31
372.655	9.31
372.784	-7.69
372.913	-12.69
373.042	-5.69
373.172	28.31
373.301	-14.69
373.43	-6.69
373.559	-4.69
373.688	21.31
373.818	24.31
373.947	21.31
374.076	0.31
374.205	11.31
374.334	4.31
374.463	-20.69
374.593	19.31
374.722	10.31
374.851	15.31
374.98	-9.69
375.109	9.31
375.238	15.31
375.367	44.31
375.496	-16.69
375.625	-21.69
375.755	15.31
375.884	16.31
376.013	9.31
376.142	-12.69
376.271	-1.69
376.4	-2.69
376.529	10.31
376.658	-4.69
376.787	-23.69
376.916	-17.69
377.045	-9.69
377.174	3.31
377.303	8.31
377.432	32.31
377.561	9.31
377.69	10.31
377.819	29.31
377.948	-13.69
378.077	-13.69
378.206	0.31
378.335	-0.69
378.464	1.31
378.593	11.31
378.722	-7.69
378.851	3.31
378.98	24.31
379.108	-17.69
379.237	4.31
379.366	5.31
379.495	20.31
379.624	22.31
379.753	16.31
379.882	-4.69
380.011	-3.69
380.14	-9.69
380.268	1.31
380.397	1.31
380.526	10.31
380.655	4.31
380.784	-11.69
380.913	-8.69
381.041	15.31
381.17	-5.69
381.299	-9.69
381.428	-5.69
381.557	10.31
381.685	7.31
381.814	-5.69
381.943	0.31
382.072	-10.69
382.2	-0.69
382.329	-0.69
382.458	1.31
382.587	20.31
382.715	19.31
382.844	21.31
382.973	3.31
383.102	0.31
383.23	-6.69
383.359	-19.69
383.488	14.31
383.616	7.31
383.745	-20.69
383.874	-9.69
384.003	-9.69
384.131	-13.69
384.26	-11.69
384.389	19.31
384.517	2.31
384.646	8.31
384.774	-5.69
384.903	18.31
385.032	29.31
385.16	15.31
385.289	3.31
385.418	3.31
385.546	6.31
385.675	12.31
385.803	-4.69
385.932	-13.69
386.06	-10.69
386.189	-1.69
386.318	-15.69
386.446	5.31
386.575	20.31
386.703	-3.69
386.832	-2.69
386.96	-13.69
387.089	19.31
387.217	9.31
387.346	-14.69
387.474	6.31
387.603	3.31
387.731	8.31
387.86	9.31
387.988	-5.69
388.117	6.31
388.245	12.31
388.374	-3.69
388.502	13.31
388.631	-5.69
388.759	-5.69
388.888	9.31
389.016	-13.69
389.144	-8.69
389.273	14.31
389.401	9.31
389.53	-10.69
389.658	21.31
389.786	-0.69
389.915	-17.69
390.043	-22.69
390.172	8.31
390.3	22.31
390.428	8.31
390.557	-12.69
390.685	3.31
390.813	24.31
390.942	8.31
391.07	-0.69
391.198	-14.69
391.327	0.31
391.455	-29.69
391.583	12.31
391.712	9.31
391.84	0.31
391.968	-18.69
392.096	4.31
392.225	5.31
392.353	8.31
392.481	-3.69
392.609	10.31
392.738	11.31
392.866	2.31
392.994	-18.69
393.122	18.31
393.251	3.31
393.379	8.31
393.507	-2.69
393.635	-14.69
393.764	14.31
393.892	16.31
394.02	-4.69
394.148	12.31
394.276	5.31
394.404	29.31
394.533	5.31
394.661	31.31
394.789	23.31
394.917	25.31
395.045	-6.69
395.173	-9.69
395.302	4.31
395.43	13.31
395.558	20.31
395.686	9.31
395.814	7.31
395.942	6.31
396.07	11.31
396.198	6.31
396.326	14.31
396.454	23.31
396.582	2.31
396.711	-2.69
396.839	6.31
396.967	18.31
397.095	0.31
397.223	18.31
397.351	20.31
397.479	25.31
397.607	-2.69
397.735	15.31
397.863	4.31
397.991	18.31
398.119	-0.69
398.247	-10.69
398.375	-12.69
398.503	-0.69
398.631	18.31
398.759	9.31
398.887	5.31
399.015	3.31
399.143	-9.69
399.271	7.31
399.399	9.31
399.526	9.31
399.654	10.31
399.782	-3.69
399.91	9.31
400.038	18.31
400.166	1.31
400.294	14.31
400.422	-6.69
400.55	16.31
400.678	6.31
400.805	-8.69
400.933	-4.69
401.061	11.31
401.189	7.31
401.317	22.31
401.445	34.31
401.573	-0.69
401.7	-8.69
401.828	0.31
401.956	0.31
402.084	-3.69
402.212	4.31
402.34	10.31
402.467	-4.69
402.595	-12.69
402.723	-6.69
402.851	40.31
402.978	7.31
403.106	6.31
403.234	17.31
403.362	39.31
403.489	4.31
403.617	16.31
403.745	-2.69
403.873	-14.69
404	7.31
404.128	3.31
404.256	26.31
404.384	30.31
404.511	14.31
404.639	3.31
404.767	-4.69
404.894	2.31
405.022	3.31
405.15	12.31
405.277	-21.69
405.405	7.31
405.533	-11.69
405.66	-7.69
405.788	-35.69
405.916	-14.69
406.043	-26.69
406.171	-1.69
406.299	17.31
406.426	17.31
406.554	2.31
406.681	29.31
406.809	6.31
406.937	-10.69
407.064	-1.69
407.192	16.31
407.319	4.31
407.447	-0.69
407.574	21.31
407.702	6.31
407.83	-4.69
407.957	-3.69
408.085	3.31
408.212	11.31
408.34	4.31
408.467	-13.69
408.595	-13.69
408.722	9.31
408.85	6.31
408.977	3.31
409.105	13.31
409.232	9.31
409.36	9.31
409.487	3.31
409.615	15.31
409.742	26.31
409.87	29.31
409.997	32.31
410.125	30.31
410.252	53.31
410.379	59.31
410.507	35.31
410.634	2.31
410.762	20.31
410.889	19.31
411.017	10.31
411.144	-2.69
411.271	0.31
411.399	-2.69
411.526	25.31
411.653	13.31
411.781	16.31
411.908	5.31
412.036	0.31
412.163	23.31
412.29	24.31
412.418	2.31
412.545	31.31
412.672	-5.69
412.8	32.31
412.927	-9.69
413.054	12.31
413.182	-4.69
413.309	6.31
413.436	-2.69
413.564	8.31
413.691	-5.69
413.818	9.31
413.945	-12.69
414.073	2.31
414.2	9.31
414.327	0.31
414.454	8.31
414.582	0.31
414.709	-6.69
414.836	0.31
414.963	6.31
415.091	-9.69
415.218	3.31
415.345	-7.69
415.472	11.31
415.6	3.31
415.727	16.31
415.854	6.31
415.981	-1.69
416.108	11.31
416.236	-2.69
416.363	5.31
416.49	3.31
416.617	-7.69
416.744	18.31
416.871	6.31
416.998	1.31
417.126	-11.69
417.253	-9.69
417.38	17.31
417.507	-2.69
417.634	6.31
417.761	20.31
417.888	14.31
418.015	10.31
418.143	7.31
418.27	25.31
418.397	14.31
418.524	-2.69
418.651	5.31
418.778	7.31
418.905	29.31
419.032	16.31
419.159	6.31
419.286	41.31
419.413	19.31
419.54	3.31
419.667	-14.69
419.794	-1.69
419.921	20.31
420.048	16.31
420.175	20.31
420.302	-0.69
420.429	4.31
420.556	-23.69
420.683	-14.69
420.81	-9.69
420.937	20.31
421.064	15.31
421.191	0.31
421.318	25.31
421.445	35.31
421.572	-0.69
421.699	-1.69
421.826	11.31
421.953	-6.69
422.08	-8.69
422.207	-10.69
422.334	-23.69
422.461	12.31
422.588	-9.69
422.714	19.31
422.841	30.31
422.968	5.31
423.095	-2.69
423.222	-2.69
423.349	0.31
423.476	6.31
423.603	-3.69
423.729	4.31
423.856	9.31
423.983	6.31
424.11	8.31
424.237	9.31
424.364	13.31
424.491	10.31
424.617	-13.69
424.744	8.31
424.871	11.31
424.998	-11.69
425.125	-6.69
425.251	11.31
425.378	6.31
425.505	1.31
425.632	-4.69
425.758	-9.69
425.885	11.31
426.012	22.31
426.139	21.31
426.266	-8.69
426.392	-0.69
426.519	10.31
426.646	8.31
426.772	2.31
426.899	8.31
427.026	11.31
427.153	-7.69
427.279	33.31
427.406	-5.69
427.533	3.31
427.659	6.31
427.786	-17.69
427.913	15.31
428.039	19.31
428.166	0.31
428.293	-3.69
428.419	23.31
428.546	7.31
428.673	-0.69
428.799	-12.69
428.926	7.31
429.053	32.31
429.179	3.31
429.306	18.31
429.433	22.31
429.559	18.31
429.686	-20.69
429.812	-1.69
429.939	-1.69
430.066	5.31
430.192	13.31
430.319	4.31
430.445	-9.69
430.572	-7.69
430.699	-6.69
430.825	-6.69
430.952	0.31
431.078	-8.69
431.205	15.31
431.331	10.31
431.458	12.31
431.584	29.31
431.711	15.31
431.837	11.31
431.964	5.31
432.09	10.31
432.217	-26.69
432.343	1.31
432.47	34.31
432.596	12.31
432.723	3.31
432.849	8.31
432.976	6.31
433.102	7.31
433.229	5.31
433.355	42.31
433.482	72.31
433.608	152.31
433.735	152.31
433.861	130.31
433.987	161.31
434.114	235.31
434.24	199.31
434.367	74.31
434.493	9.31
434.62	30.31
434.746	21.31
434.872	14.31
434.999	26.31
435.125	6.31
435.252	-9.69
435.378	1.31
435.504	19.31
435.631	12.31
435.757	3.31
435.883	15.31
436.01	8.31
436.136	14.31
436.262	18.31
436.389	5.31
436.515	3.31
436.641	14.31
436.768	24.31
436.894	26.31
437.02	19.31
437.147	12.31
437.273	16.31
437.399	1.31
437.526	22.31
437.652	9.31
437.778	2.31
437.904	-8.69
438.031	9.31
438.157	4.31
438.283	-1.69
438.409	-1.69
438.536	-19.69
438.662	14.31
438.788	1.31
438.914	18.31
439.041	-1.69
439.167	42.31
439.293	7.31
439.419	5.31
439.546	15.31
439.672	17.31
439.798	3.31
439.924	11.31
440.05	10.31
440.177	22.31
440.303	6.31
440.429	1.31
440.555	12.31
440.681	-7.69
440.807	6.31
440.934	-4.69
441.06	9.31
441.186	10.31
441.312	6.31
441.438	9.31
441.564	23.31
441.69	10.31
441.816	3.31
441.943	0.31
442.069	3.31
442.195	10.31
442.321	23.31
442.447	11.31
442.573	2.31
442.699	-11.69
442.825	1.31
442.951	2.31
443.077	13.31
443.203	9.31
443.33	1.31
443.456	2.31
443.582	3.31
443.708	-2.69
443.834	4.31
443.96	22.31
444.086	9.31
444.212	33.31
444.338	27.31
444.464	32.31
444.59	29.31
444.716	11.31
444.842	14.31
444.968	-1.69
445.094	6.31
445.22	1.31
445.346	-21.69
445.472	8.31
445.598	4.31
445.724	15.31
445.85	12.31
445.976	16.31
446.102	8.31
446.228	13.31
446.354	11.31
446.48	2.31
446.605	2.31
446.731	2.31
446.857	-2.69
446.983	-6.69
447.109	15.31
447.235	-1.69
447.361	-2.69
447.487	24.31
447.613	18.31
447.739	11.31
447.865	-14.69
447.99	15.31
448.116	5.31
448.242	-3.69
448.368	7.31
448.494	2.31
448.62	4.31
448.746	13.31
448.872	4.31
448.997	-5.69
449.123	17.31
449.249	23.31
449.375	16.31
449.501	8.31
449.627	-0.69
449.752	21.31
449.878	-7.69
450.004	-11.69
450.13	3.31
450.256	-9.69
450.381	21.31
450.507	29.31
450.633	23.31
450.759	20.31
450.884	-1.69
451.01	7.31
451.136	1.31
451.262	2.31
451.388	14.31
451.513	-7.69
451.639	2.31
451.765	5.31
451.89	1.31
452.016	-4.69
452.142	-10.69
452.268	6.31
452.393	19.31
452.519	-9.69
452.645	5.31
452.771	4.31
452.896	9.31
453.022	-3.69
453.148	18.31
453.273	9.31
453.399	6.31
453.525	-12.69
453.65	3.31
453.776	21.31
453.902	9.31
454.027	29.31
454.153	11.31
454.279	10.31
454.404	0.31
454.53	22.31
454.656	43.31
454.781	6.31
454.907	-13.69
455.032	2.31
455.158	2.31
455.284	17.31
455.409	6.31
455.535	9.31
455.66	31.31
455.786	17.31
455.912	-3.69
456.037	-21.69
456.163	-14.69
456.288	11.31
456.414	-13.69
456.539	-4.69
456.665	29.31
456.791	18.31
456.916	-5.69
457.042	13.31
457.167	9.31
457.293	15.31
457.418	5.31
457.544	8.31
457.669	17.31
457.795	9.31
457.92	9.31
458.046	8.31
458.171	16.31
458.297	2.31
458.422	-10.69
458.548	13.31
458.673	22.31
458.799	0.31
458.924	-14.69
459.05	9.31
459.175	13.31
459.301	8.31
459.426	5.31
459.552	6.31
459.677	-2.69
459.803	32.31
459.928	9.31
460.053	11.31
460.179	11.31
460.304	22.31
460.43	-0.69
460.555	1.31
460.681	2.31
460.806	5.31
460.931	-6.69
461.057	21.31
461.182	5.31
461.308	23.31
461.433	9.31
461.558	-4.69
461.684	7.31
461.809	23.31
461.934	13.31
462.06	0.31
462.185	-11.69
462.311	9.31
462.436	23.31
462.561	7.31
462.687	9.31
462.812	7.31
462.937	-2.69
463.063	6.31
463.188	-7.69
463.313	24.31
463.439	19.31
463.564	10.31
463.689	-10.69
463.814	10.31
463.94	14.31
464.065	15.31
464.19	18.31
464.316	1.31
464.441	-6.69
464.566	17.31
464.692	5.31
464.817	15.31
464.942	3.31
465.067	11.31
465.193	-16.69
465.318	-20.69
465.443	-3.69
465.568	-1.69
465.694	-0.69
465.819	15.31
465.944	-2.69
466.069	13.31
466.194	13.31
466.32	19.31
466.445	-0.69
466.57	7.31
466.695	-11.69
466.82	-2.69
466.946	19.31
467.071	4.31
467.196	2.31
467.321	10.31
467.446	9.31
467.572	4.31
467.697	2.31
467.822	22.31
467.947	22.31
468.072	-1.69
468.197	7.31
468.323	-5.69
468.448	-0.69
468.573	-3.69
468.698	-8.69
468.823	10.31
468.948	26.31
469.073	7.31
469.198	29.31
469.324	23.31
469.449	-14.69
469.574	23.31
469.699	16.31
469.824	17.31
469.949	7.31
470.074	24.31
470.199	41.31
470.324	19.31
470.449	16.31
470.574	1.31
470.7	14.31
470.825	27.31
470.95	29.31
471.075	3.31
471.2	7.31
471.325	4.31
471.45	7.31
471.575	-7.69
471.7	4.31
471.825	12.31
471.95	5.31
472.075	-7.69
472.2	10.31
472.325	-2.69
472.45	2.31
472.575	-2.69
472.7	9.31
472.825	37.31
472.95	23.31
473.075	6.31
473.2	2.31
473.325	11.31
473.45	-0.69
473.575	-14.69
473.7	14.31
473.825	-6.69
473.95	2.31
474.075	18.31
474.2	8.31
474.325	1.31
474.45	19.31
474.574	15.31
474.699	15.31
474.824	15.31
474.949	-2.69
475.074	-0.69
475.199	3.31
475.324	14.31
475.449	2.31
475.574	6.31
475.699	5.31
475.824	-0.69
475.949	-0.69
476.073	-13.69
476.198	2.31
476.323	24.31
476.448	9.31
476.573	1.31
476.698	4.31
476.823	6.31
476.947	-4.69
477.072	-5.69
477.197	0.31
477.322	-4.69
477.447	-1.69
477.572	13.31
477.697	6.31
477.821	11.31
477.946	2.31
478.071	15.31
478.196	13.31
478.321	-1.69
478.445	2.31
478.57	-10.69
478.695	11.31
478.82	8.31
478.945	30.31
479.069	-10.69
479.194	-1.69
479.319	20.31
479.444	13.31
479.569	6.31
479.693	11.31
479.818	2.31
479.943	15.31
480.068	20.31
480.192	12.31
480.317	22.31
480.442	1.31
480.567	7.31
480.691	4.31
480.816	6.31
480.941	9.31
481.066	9.31
481.19	25.31
481.315	6.31
481.44	-18.69
481.564	4.31
481.689	27.31
481.814	22.31
481.938	14.31
482.063	19.31
482.188	13.31
482.313	26.31
482.437	2.31
482.562	16.31
482.687	16.31
482.811	24.31
482.936	39.31
483.061	16.31
483.185	16.31
483.31	28.31
483.435	20.31
483.559	8.31
483.684	7.31
483.808	46.31
483.933	-1.69
484.058	1.31
484.182	17.31
484.307	21.31
484.432	22.31
484.556	25.31
484.681	23.31
484.805	25.31
484.93	16.31
485.055	36.31
485.179	57.31
485.304	117.31
485.428	348.31
485.553	1245.31
485.678	1708.31
485.802	1614.31
485.927	1799.31
486.051	2671.31
486.176	1656.31
486.3	455.31
486.425	166.31
486.549	92.31
486.674	63.31
486.799	44.31
486.923	23.31
487.048	8.31
487.172	14.31
487.297	13.31
487.421	27.31
487.546	2.31
487.67	7.31
487.795	6.31
487.919	20.31
488.044	34.31
488.168	20.31
488.293	7.31
488.417	2.31
488.542	18.31
488.666	6.31
488.791	13.31
488.915	21.31
489.04	15.31
489.164	23.31
489.289	38.31
489.413	-10.69
489.538	20.31
489.662	14.31
489.786	13.31
489.911	4.31
490.035	7.31
490.16	2.31
490.284	5.31
490.409	-2.69
490.533	11.31
490.658	35.31
490.782	15.31
490.906	18.31
491.031	16.31
491.155	11.31
491.28	39.31
491.404	30.31
491.528	22.31
491.653	4.31
491.777	18.31
491.902	4.31
492.026	26.31
492.15	15.31
492.275	30.31
492.399	24.31
492.524	28.31
492.648	44.31
492.772	11.31
492.897	27.31
493.021	10.31
493.145	17.31
493.27	24.31
493.394	11.31
493.518	1.31
493.643	-0.69
493.767	22.31
493.891	-3.69
494.016	19.31
494.14	8.31
494.264	11.31
494.389	23.31
494.513	-7.69
494.637	2.31
494.762	9.31
494.886	26.31
495.01	10.31
495.134	7.31
495.259	17.31
495.383	10.31
495.507	17.31
495.632	31.31
495.756	38.31
495.88	13.31
496.004	13.31
496.129	18.31
496.253	18.31
496.377	4.31
496.501	22.31
496.626	6.31
496.75	6.31
496.874	-8.69
496.998	-7.69
497.123	34.31
497.247	18.31
497.371	5.31
497.495	2.31
497.62	24.31
497.744	7.31
497.868	15.31
497.992	16.31
498.116	15.31
498.241	13.31
498.365	16.31
498.489	0.31
498.613	32.31
498.737	16.31
498.862	15.31
498.986	1.31
499.11	17.31
499.234	-0.69
499.358	-1.69
499.482	15.31
499.607	17.31
499.731	23.31
499.855	34.31
499.979	12.31
500.103	13.31
500.227	22.31
500.351	20.31
500.476	11.31
500.6	8.31
500.724	5.31
500.848	9.31
500.972	22.31
501.096	25.31
501.22	36.31
501.344	-0.69
501.469	-6.69
501.593	11.31
501.717	8.31
501.841	15.31
501.965	-6.69
502.089	8.31
502.213	34.31
502.337	14.31
502.461	0.31
502.585	3.31
502.709	12.31
502.834	6.31
502.958	8.31
503.082	5.31
503.206	0.31
503.33	25.31
503.454	9.31
503.578	31.31
503.702	32.31
503.826	33.31
503.95	27.31
504.074	11.31
504.198	8.31
504.322	-12.69
504.446	7.31
504.57	-1.69
504.694	19.31
504.818	14.31
504.942	32.31
505.066	21.31
505.19	21.31
505.314	16.31
505.438	29.31
505.562	23.31
505.686	13.31
505.81	23.31
505.934	43.31
506.058	34.31
506.182	18.31
506.306	9.31
506.43	3.31
506.554	10.31
506.678	15.31
506.802	15.31
506.926	10.31
507.05	15.31
507.174	21.31
507.298	31.31
507.422	25.31
507.546	32.31
507.67	18.31
507.794	-16.69
507.918	6.31
508.042	10.31
508.165	3.31
508.289	8.31
508.413	16.31
508.537	6.31
508.661	11.31
508.785	23.31
508.909	20.31
509.033	17.31
509.157	22.31
509.281	6.31
509.405	3.31
509.528	40.31
509.652	23.31
509.776	6.31
509.9	15.31
510.024	12.31
510.148	14.31
510.272	22.31
510.396	20.31
510.519	-9.69
510.643	17.31
510.767	17.31
510.891	-1.69
511.015	-4.69
511.139	15.31
511.263	39.31
511.386	8.31
511.51	20.31
511.634	13.31
511.758	-0.69
511.882	-6.69
512.006	14.31
512.129	19.31
512.253	49.31
512.377	7.31
512.501	19.31
512.625	19.31
512.748	9.31
512.872	2.31
512.996	4.31
513.12	5.31
513.244	-18.69
513.367	12.31
513.491	8.31
513.615	23.31
513.739	-1.69
513.862	7.31
513.986	6.31
514.11	34.31
514.234	19.31
514.358	11.31
514.481	9.31
514.605	3.31
514.729	2.31
514.853	28.31
514.976	-6.69
515.1	-0.69
515.224	6.31
515.348	17.31
515.471	7.31
515.595	18.31
515.719	23.31
515.842	34.31
515.966	6.31
516.09	17.31
516.214	0.31
516.337	45.31
516.461	26.31
516.585	39.31
516.708	13.31
516.832	14.31
516.956	-5.69
517.08	4.31
517.203	14.31
517.327	0.31
517.451	34.31
517.574	36.31
517.698	-5.69
517.822	13.31
517.945	39.31
518.069	25.31
518.193	49.31
518.316	40.31
518.44	34.31
518.564	12.31
518.687	18.31
518.811	22.31
518.935	48.31
519.058	23.31
519.182	27.31
519.306	29.31
519.429	23.31
519.553	59.31
519.676	23.31
519.8	15.31
519.924	-0.69
520.047	14.31
520.171	6.31
520.294	-5.69
520.418	32.31
520.542	6.31
520.665	23.31
520.789	-2.69
520.913	-2.69
521.036	-16.69
521.16	-8.69
521.283	9.31
521.407	-2.69
521.53	1.31
521.654	-9.69
521.778	31.31
521.901	30.31
522.025	3.31
522.148	4.31
522.272	1.31
522.395	11.31
522.519	11.31
522.643	8.31
522.766	9.31
522.89	22.31
523.013	31.31
523.137	-3.69
523.26	2.31
523.384	16.31
523.507	10.31
523.631	12.31
523.754	5.31
523.878	24.31
524.002	16.31
524.125	22.31
524.249	-4.69
524.372	23.31
524.496	18.31
524.619	10.31
524.743	30.31
524.866	6.31
524.99	7.31
525.113	-7.69
525.237	20.31
525.36	9.31
525.484	8.31
525.607	-7.69
525.731	-9.69
525.854	16.31
525.978	29.31
526.101	22.31
526.224	-2.69
526.348	-1.69
526.471	24.31
526.595	21.31
526.718	14.31
526.842	4.31
526.965	10.31
527.089	17.31
527.212	7.31
527.336	17.31
527.459	15.31
527.582	25.31
527.706	23.31
527.829	-0.69
527.953	1.31
528.076	-7.69
528.2	5.31
528.323	33.31
528.446	43.31
528.57	26.31
528.693	25.31
528.817	10.31
528.94	17.31
529.064	27.31
529.187	19.31
529.31	18.31
529.434	17.31
529.557	1.31
529.68	12.31
529.804	15.31
529.927	7.31
530.051	-9.69
530.174	1.31
530.297	5.31
530.421	21.31
530.544	25.31
530.668	19.31
530.791	-3.69
530.914	14.31
531.038	6.31
531.161	10.31
531.284	-1.69
531.408	8.31
531.531	-7.69
531.654	-1.69
531.778	8.31
531.901	-5.69
532.024	22.31
532.148	18.31
532.271	18.31
532.394	14.31
532.518	30.31
532.641	23.31
532.764	26.31
532.888	25.31
533.011	4.31
533.134	-14.69
533.258	23.31
533.381	-0.69
533.504	11.31
533.628	25.31
533.751	8.31
533.874	12.31
533.997	8.31
534.121	4.31
534.244	3.31
534.367	2.31
534.491	0.31
534.614	-2.69
534.737	26.31
534.86	20.31
534.984	-5.69
535.107	-13.69
535.23	9.31
535.354	3.31
535.477	-5.69
535.6	12.31
535.723	18.31
535.847	6.31
535.97	-5.69
536.093	3.31
536.216	-21.69
536.34	8.31
536.463	3.31
536.586	11.31
536.709	17.31
536.833	15.31
536.956	14.31
537.079	7.31
537.202	34.31
537.325	19.31
537.449	9.31
537.572	10.31
537.695	2.31
537.818	-4.69
537.941	10.31
538.065	0.31
538.188	15.31
538.311	15.31
538.434	22.31
538.558	15.31
538.681	15.31
538.804	27.31
538.927	17.31
539.05	18.31
539.173	12.31
539.297	-1.69
539.42	18.31
539.543	1.31
539.666	7.31
539.789	27.31
539.913	6.31
540.036	-2.69
540.159	14.31
540.282	-1.69
540.405	-3.69
540.528	-2.69
540.651	20.31
540.775	24.31
540.898	15.31
541.021	13.31
541.144	19.31
541.267	3.31
541.39	12.31
541.513	23.31
541.637	4.31
541.76	2.31
541.883	7.31
542.006	22.31
542.129	22.31
542.252	7.31
542.375	14.31
542.498	6.31
542.622	10.31
542.745	11.31
542.868	11.31
542.991	18.31
543.114	26.31
543.237	29.31
543.36	34.31
543.483	20.31
543.606	11.31
543.73	23.31
543.853	1.31
543.976	15.31
544.099	6.31
544.222	7.31
544.345	-4.69
544.468	22.31
544.591	9.31
544.714	19.31
544.837	27.31
544.96	23.31
545.083	12.31
545.206	11.31
545.329	20.31
545.453	3.31
545.576	-2.69
545.699	13.31
545.822	3.31
545.945	4.31
546.068	-0.69
546.191	26.31
546.314	28.31
546.437	15.31
546.56	5.31
546.683	16.31
546.806	-3.69
546.929	-2.69
547.052	-4.69
547.175	-8.69
547.298	11.31
547.421	-2.69
547.544	-1.69
547.667	10.31
547.79	11.31
547.913	13.31
548.036	-9.69
548.159	6.31
548.282	6.31
548.405	6.31
548.528	21.31
548.651	15.31
548.774	27.31
548.897	11.31
549.02	15.31
549.143	27.31
549.266	1.31
549.389	3.31
549.512	-10.69
549.635	23.31
549.758	25.31
549.881	3.31
550.004	17.31
550.127	15.31
550.25	10.31
550.373	6.31
550.496	22.31
550.619	1.31
550.742	-5.69
550.865	-14.69
550.988	-1.69
551.111	12.31
551.234	11.31
551.356	-9.69
551.479	-13.69
551.602	-2.69
551.725	7.31
551.848	22.31
551.971	27.31
552.094	19.31
552.217	4.31
552.34	14.31
552.463	-12.69
552.586	19.31
552.709	-10.69
552.832	11.31
552.955	0.31
553.077	14.31
553.2	6.31
553.323	-0.69
553.446	3.31
553.569	-0.69
553.692	15.31
553.815	4.31
553.938	5.31
554.061	19.31
554.184	-4.69
554.306	15.31
554.429	15.31
554.552	21.31
554.675	0.31
554.798	5.31
554.921	16.31
555.044	-0.69
555.167	13.31
555.29	-0.69
555.412	16.31
555.535	15.31
555.658	-0.69
555.781	10.31
555.904	0.31
556.027	17.31
556.15	10.31
556.272	-9.69
556.395	13.31
556.518	-2.69
556.641	-0.69
556.764	17.31
556.887	11.31
557.01	0.31
557.132	-11.69
557.255	-0.69
557.378	15.31
557.501	17.31
557.624	9.31
557.747	4.31
557.869	14.31
557.992	18.31
558.115	-0.69
558.238	18.31
558.361	22.31
558.483	30.31
558.606	18.31
558.729	1.31
558.852	40.31
558.975	35.31
559.098	21.31
559.22	15.31
559.343	-5.69
559.466	14.31
559.589	9.31
559.712	5.31
559.834	-5.69
559.957	11.31
560.08	-0.69
560.203	15.31
560.325	30.31
560.448	14.31
560.571	1.31
560.694	-2.69
560.817	33.31
560.939	12.31
561.062	-0.69
561.185	14.31
561.308	5.31
561.43	-1.69
561.553	-2.69
561.676	9.31
561.799	14.31
561.921	7.31
562.044	32.31
562.167	0.31
562.29	27.31
562.413	25.31
562.535	24.31
562.658	-5.69
562.781	-11.69
562.903	9.31
563.026	15.31
563.149	34.31
563.272	-2.69
563.394	14.31
563.517	23.31
563.64	3.31
563.763	-4.69
563.885	25.31
564.008	22.31
564.131	17.31
564.254	-4.69
564.376	-4.69
564.499	-20.69
564.622	-4.69
564.744	21.31
564.867	-9.69
564.99	3.31
565.113	11.31
565.235	2.31
565.358	-5.69
565.481	-2.69
565.603	13.31
565.726	12.31
565.849	20.31
565.971	26.31
566.094	-1.69
566.217	10.31
566.34	26.31
566.462	5.31
566.585	1.31
566.708	31.31
566.83	10.31
566.953	24.31
567.076	2.31
567.198	16.31
567.321	-6.69
567.444	3.31
567.566	7.31
567.689	-14.69
567.812	9.31
567.934	7.31
568.057	2.31
568.18	6.31
568.302	3.31
568.425	12.31
568.548	11.31
568.67	8.31
568.793	17.31
568.916	26.31
569.038	0.31
569.161	10.31
569.283	14.31
569.406	17.31
569.529	13.31
569.651	-11.69
569.774	-7.69
569.897	6.31
570.019	25.31
570.142	35.31
570.265	14.31
570.387	14.31
570.51	8.31
570.632	10.31
570.755	-1.69
570.878	11.31
571	1.31
571.123	3.31
571.246	26.31
571.368	11.31
571.491	7.31
571.613	18.31
571.736	7.31
571.859	-1.69
571.981	-10.69
572.104	1.31
572.226	2.31
572.349	-9.69
572.472	2.31
572.594	19.31
572.717	17.31
572.839	-3.69
572.962	8.31
573.085	11.31
573.207	13.31
573.33	7.31
573.452	25.31
573.575	19.31
573.697	14.31
573.82	16.31
573.943	-1.69
574.065	8.31
574.188	-0.69
574.31	16.31
574.433	22.31
574.555	15.31
574.678	14.31
574.801	10.31
574.923	-5.69
575.046	11.31
575.168	8.31
575.291	-11.69
575.413	2.31
575.536	1.31
575.659	17.31
575.781	0.31
575.904	-0.69
576.026	21.31
576.149	-6.69
576.271	23.31
576.394	0.31
576.516	5.31
576.639	5.31
576.761	7.31
576.884	-8.69
577.007	-15.69
577.129	10.31
577.252	3.31
577.374	27.31
577.497	-0.69
577.619	3.31
577.742	3.31
577.864	12.31
577.987	16.31
578.109	30.31
578.232	31.31
578.354	30.31
578.477	0.31
578.599	11.31
578.722	0.31
578.844	7.31
578.967	12.31
579.089	-4.69
579.212	2.31
579.334	14.31
579.457	2.31
579.579	8.31
579.702	-4.69
579.824	11.31
579.947	-1.69
580.069	7.31
580.192	1.31
580.314	26.31
580.437	14.31
580.559	35.31
580.682	-4.69
580.804	6.31
580.927	-1.69
581.049	16.31
581.172	0.31
581.294	3.31
581.417	22.31
581.539	2.31
581.662	11.31
581.784	24.31
581.907	7.31
582.029	10.31
582.152	-9.69
582.274	25.31
582.396	12.31
582.519	4.31
582.641	2.31
582.764	9.31
582.886	16.31
583.009	4.31
583.131	9.31
583.254	13.31
583.376	37.31
583.499	7.31
583.621	22.31
583.743	22.31
583.866	13.31
583.988	11.31
584.111	14.31
584.233	13.31
584.356	21.31
584.478	-4.69
584.601	-14.69
584.723	6.31
584.845	21.31
584.968	4.31
585.09	-8.69
585.213	5.31
585.335	0.31
585.458	9.31
585.58	6.31
585.702	27.31
585.825	9.31
585.947	15.31
586.07	5.31
586.192	14.31
586.315	29.31
586.437	9.31
586.559	1.31
586.682	-10.69
586.804	5.31
586.927	9.31
587.049	7.31
587.171	8.31
587.294	15.31
587.416	28.31
587.539	7.31
587.661	-1.69
587.783	11.31
587.906	14.31
588.028	0.31
588.151	18.31
588.273	20.31
588.395	16.31
588.518	-1.69
588.64	1.31
588.763	26.31
588.885	19.31
589.007	19.31
589.13	-10.69
589.252	-6.69
589.375	5.31
589.497	12.31
589.619	17.31
589.742	7.31
589.864	11.31
589.986	12.31
590.109	-8.69
590.231	-12.69
590.354	-4.69
590.476	-8.69
590.598	-15.69
590.721	-19.69
590.843	7.31
590.965	18.31
591.088	13.31
591.21	-4.69
591.332	5.31
591.455	-0.69
591.577	6.31
591.7	13.31
591.822	4.31
591.944	3.31
592.067	3.31
592.189	2.31
592.311	3.31
592.434	-10.69
592.556	11.31
592.678	11.31
592.801	16.31
592.923	9.31
593.045	8.31
593.168	19.31
593.29	10.31
593.412	27.31
593.535	11.31
593.657	-1.69
593.779	9.31
593.902	11.31
594.024	18.31
594.146	24.31
594.269	18.31
594.391	-16.69
594.513	6.31
594.636	6.31
594.758	-2.69
594.88	15.31
595.003	15.31
595.125	14.31
595.247	9.31
595.37	14.31
595.492	-4.69
595.614	21.31
595.737	11.31
595.859	10.31
595.981	-7.69
596.104	5.31
596.226	8.31
596.348	-9.69
596.471	-6.69
596.593	-12.69
596.715	2.31
596.838	7.31
596.96	2.31
597.082	-0.69
597.204	-0.69
597.327	-13.69
597.449	7.31
597.571	12.31
597.694	29.31
597.816	11.31
597.938	7.31
598.061	-3.69
598.183	9.31
598.305	24.31
598.427	26.31
598.55	14.31
598.672	16.31
598.794	18.31
598.917	5.31
599.039	0.31
599.161	6.31
599.283	5.31
599.406	8.31
599.528	4.31
599.65	24.31
599.773	9.31
599.895	39.31
600.017	16.31
600.139	12.31
600.262	-10.69
600.384	-5.69
600.506	25.31
600.628	23.31
600.751	23.31
600.873	18.31
600.995	13.31
601.118	11.31
601.24	17.31
601.362	40.31
601.484	25.31
601.607	29.31
601.729	2.31
601.851	10.31
601.973	7.31
602.096	37.31
602.218	21.31
602.34	8.31
602.462	24.31
602.585	15.31
602.707	16.31
602.829	22.31
602.951	9.31
603.074	-3.69
603.196	13.31
603.318	11.31
603.44	17.31
603.563	11.31
603.685	5.31
603.807	9.31
603.929	-5.69
604.052	9.31
604.174	21.31
604.296	5.31
604.418	14.31
604.541	15.31
604.663	4.31
604.785	-6.69
604.907	8.31
605.03	-2.69
605.152	27.31
605.274	5.31
605.396	2.31
605.519	-0.69
605.641	6.31
605.763	13.31
605.885	6.31
606.008	11.31
606.13	-9.69
606.252	10.31
606.374	-10.69
606.496	-6.69
606.619	5.31
606.741	-5.69
606.863	25.31
606.985	27.31
607.108	20.31
607.23	10.31
607.352	11.31
607.474	3.31
607.596	4.31
607.719	-6.69
607.841	6.31
607.963	17.31
608.085	10.31
608.207	49.31
608.33	14.31
608.452	-14.69
608.574	-2.69
608.696	23.31
608.819	1.31
608.941	5.31
609.063	2.31
609.185	8.31
609.307	-3.69
609.43	0.31
609.552	9.31
609.674	0.31
609.796	13.31
609.918	25.31
610.041	2.31
610.163	19.31
610.285	22.31
610.407	5.31
610.529	-13.69
610.652	7.31
610.774	16.31
610.896	6.31
611.018	5.31
611.14	6.31
611.263	-2.69
611.385	-1.69
611.507	10.31
611.629	-2.69
611.751	13.31
611.873	23.31
611.996	18.31
612.118	32.31
612.24	7.31
612.362	8.31
612.484	20.31
612.607	9.31
612.729	35.31
612.851	15.31
612.973	9.31
613.095	3.31
613.218	-11.69
613.34	14.31
613.462	17.31
613.584	9.31
613.706	1.31
613.828	36.31
613.951	-0.69
614.073	-1.69
614.195	-16.69
614.317	19.31
614.439	14.31
614.561	28.31
614.684	17.31
614.806	-10.69
614.928	25.31
615.05	19.31
615.172	22.31
615.294	10.31
615.417	12.31
615.539	14.31
615.661	7.31
615.783	17.31
615.905	25.31
616.027	67.31
616.15	104.31
616.272	81.31
616.394	36.31
616.516	33.31
616.638	4.31
616.76	12.31
616.883	7.31
617.005	-6.69
617.127	6.31
617.249	17.31
617.371	6.31
617.493	4.31
617.615	22.31
617.738	7.31
617.86	1.31
617.982	6.31
618.104	4.31
618.226	-16.69
618.348	-15.69
618.471	12.31
618.593	3.31
618.715	4.31
618.837	23.31
618.959	8.31
619.081	24.31
619.203	-1.69
619.326	3.31
619.448	1.31
619.57	20.31
619.692	19.31
619.814	16.31
619.936	10.31
620.058	7.31
620.181	25.31
620.303	1.31
620.425	15.31
620.547	6.31
620.669	6.31
620.791	4.31
620.913	-5.69
621.036	-17.69
621.158	10.31
621.28	30.31
621.402	-6.69
621.524	-8.69
621.646	11.31
621.768	-6.69
621.891	-11.69
622.013	16.31
622.135	7.31
622.257	1.31
622.379	7.31
622.501	-0.69
622.623	0.31
622.745	6.31
622.868	18.31
622.99	19.31
623.112	11.31
623.234	10.31
623.356	-9.69
623.478	-8.69
623.6	10.31
623.722	7.31
623.845	20.31
623.967	9.31
624.089	7.31
624.211	2.31
624.333	-8.69
624.455	2.31
624.577	-0.69
624.699	10.31
624.822	19.31
624.944	-9.69
625.066	-3.69
625.188	-6.69
625.31	2.31
625.432	27.31
625.554	19.31
625.676	23.31
625.799	-2.69
625.921	-14.69
626.043	4.31
626.165	5.31
626.287	-28.69
626.409	12.31
626.531	13.31
626.653	-2.69
626.775	9.31
626.898	11.31
627.02	5.31
627.142	13.31
627.264	2.31
627.386	-7.69
627.508	4.31
627.63	-6.69
627.752	4.31
627.874	4.31
627.997	6.31
628.119	7.31
628.241	14.31
628.363	19.31
628.485	3.31
628.607	12.31
628.729	-3.69
628.851	-1.69
628.973	-3.69
629.096	-17.69
629.218	3.31
629.34	16.31
629.462	-6.69
629.584	4.31
629.706	13.31
629.828	27.31
629.95	9.31
630.072	10.31
630.195	10.31
630.317	9.31
630.439	13.31
630.561	13.31
630.683	3.31
630.805	4.31
630.927	0.31
631.049	-6.69
631.171	-11.69
631.293	5.31
631.416	15.31
631.538	10.31
631.66	2.31
631.782	10.31
631.904	17.31
632.026	8.31
632.148	30.31
632.27	0.31
632.392	2.31
632.514	19.31
632.637	0.31
632.759	-5.69
632.881	-7.69
633.003	-8.69
633.125	-15.69
633.247	-25.69
633.369	2.31
633.491	22.31
633.613	17.31
633.735	14.31
633.858	13.31
633.98	13.31
634.102	3.31
634.224	-13.69
634.346	1.31
634.468	8.31
634.59	3.31
634.712	13.31
634.834	12.31
634.956	-6.69
635.078	-12.69
635.201	-3.69
635.323	13.31
635.445	-4.69
635.567	-11.69
635.689	18.31
635.811	21.31
635.933	0.31
636.055	11.31
636.177	-1.69
636.299	45.31
636.421	8.31
636.544	-6.69
636.666	9.31
636.788	14.31
636.91	3.31
637.032	8.31
637.154	-5.69
637.276	20.31
637.398	20.31
637.52	16.31
637.642	11.31
637.764	1.31
637.887	1.31
638.009	-5.69
638.131	11.31
638.253	8.31
638.375	25.31
638.497	9.31
638.619	3.31
638.741	-1.69
638.863	-25.69
638.985	-2.69
639.107	1.31
639.23	5.31
639.352	10.31
639.474	6.31
639.596	9.31
639.718	12.31
639.84	12.31
639.962	17.31
640.084	7.31
640.206	7.31
640.328	-4.69
640.45	-1.69
640.573	5.31
640.695	-4.69
640.817	11.31
640.939	28.31
641.061	8.31
641.183	-4.69
641.305	6.31
641.427	5.31
641.549	8.31
641.671	11.31
641.793	-1.69
641.915	10.31
642.038	-0.69
642.16	-8.69
642.282	-12.69
642.404	-2.69
642.526	10.31
642.648	12.31
642.77	-1.69
642.892	-0.69
643.014	15.31
643.136	5.31
643.258	4.31
643.381	23.31
643.503	22.31
643.625	-2.69
643.747	-12.69
643.869	13.31
643.991	25.31
644.113	14.31
644.235	-1.69
644.357	20.31
644.479	16.31
644.601	16.31
644.723	11.31
644.846	3.31
644.968	-3.69
645.09	-6.69
645.212	-4.69
645.334	10.31
645.456	8.31
645.578	9.31
645.7	7.31
645.822	22.31
645.944	24.31
646.066	-4.69
646.188	-2.69
646.311	11.31
646.433	8.31
646.555	35.31
646.677	38.31
646.799	37.31
646.921	20.31
647.043	30.31
647.165	-6.69
647.287	17.31
647.409	9.31
647.531	23.31
647.654	-0.69
647.776	19.31
647.898	10.31
648.02	-2.69
648.142	-13.69
648.264	-1.69
648.386	-8.69
648.508	-22.69
648.63	8.31
648.752	17.31
648.874	7.31
648.997	8.31
649.119	20.31
649.241	11.31
649.363	17.31
649.485	11.31
649.607	-14.69
649.729	3.31
649.851	9.31
649.973	9.31
650.095	17.31
650.217	6.31
650.34	0.31
650.462	19.31
650.584	11.31
650.706	7.31
650.828	14.31
650.95	-1.69
651.072	26.31
651.194	0.31
651.316	2.31
651.438	17.31
651.56	-8.69
651.683	0.31
651.805	21.31
651.927	-0.69
652.049	1.31
652.171	9.31
652.293	10.31
652.415	1.31
652.537	-8.69
652.659	1.31
652.781	8.31
652.903	10.31
653.026	35.31
653.148	11.31
653.27	11.31
653.392	-1.69
653.514	-1.69
653.636	13.31
653.758	8.31
653.88	6.31
654.002	10.31
654.124	2.31
654.247	2.31
654.369	18.31
654.491	7.31
654.613	21.31
654.735	16.31
654.857	16.31
654.979	1.31
655.101	15.31
655.223	45.31
655.345	36.31
655.468	23.31
655.59	23.31
655.712	32.31
655.834	21.31
655.956	42.31
656.078	32.31
656.2	45.31
656.322	35.31
656.444	22.31
656.566	62.31
656.689	45.31
656.811	51.31
656.933	95.31
657.055	90.31
657.177	165.31
657.299	248.31
657.421	506.31
657.543	1897.31
657.665	12574.31
657.787	15172.31
657.91	15253.31
658.032	15660.31
658.154	4638.31
658.276	3547.31
658.398	1183.31
658.52	1070.31
658.642	487.31
658.764	599.31
658.886	284.31
659.009	418.31
659.131	199.31
659.253	310.31
659.375	147.31
659.497	232.31
659.619	132.31
659.741	214.31
659.863	94.31
659.985	160.31
660.108	94.31
660.23	142.31
660.352	63.31
660.474	138.31
660.596	65.31
660.718	125.31
660.84	77.31
660.962	129.31
661.084	45.31
661.207	88.31
661.329	60.31
661.451	87.31
661.573	49.31
661.695	105.31
661.817	67.31
661.939	94.31
662.061	76.31
662.184	74.31
662.306	31.31
662.428	74.31
662.55	62.31
662.672	79.31
662.794	53.31
662.916	59.31
663.038	36.31
663.161	61.31
663.283	51.31
663.405	70.31
663.527	43.31
663.649	53.31
663.771	25.31
663.893	55.31
664.015	32.31
664.138	49.31
664.26	34.31
664.382	58.31
664.504	13.31
664.626	35.31
664.748	11.31
664.87	39.31
664.992	29.31
665.115	48.31
665.237	19.31
665.359	37.31
665.481	20.31
665.603	61.31
665.725	19.31
665.847	9.31
665.97	30.31
666.092	56.31
666.214	33.31
666.336	43.31
666.458	36.31
666.58	47.31
666.702	11.31
666.825	22.31
666.947	0.31
667.069	45.31
667.191	21.31
667.313	37.31
667.435	24.31
667.557	31.31
667.68	17.31
667.802	20.31
667.924	-5.69
668.046	27.31
668.168	17.31
668.29	36.31
668.412	1.31
668.535	23.31
668.657	10.31
668.779	21.31
668.901	18.31
669.023	39.31
669.145	0.31
669.267	49.31
669.39	22.31
669.512	35.31
669.634	19.31
669.756	29.31
669.878	16.31
670	20.31
670.123	10.31
670.245	19.31
670.367	10.31
670.489	18.31
670.611	8.31
670.733	17.31
670.856	16.31
670.978	24.31
671.1	36.31
671.222	27.31
671.344	19.31
671.466	22.31
671.589	-6.69
671.711	23.31
671.833	6.31
671.955	3.31
672.077	19.31
672.199	32.31
672.322	43.31
672.444	41.31
672.566	15.31
672.688	12.31
672.81	20.31
672.932	19.31
673.055	7.31
673.177	1.31
673.299	9.31
673.421	-0.69
673.543	6.31
673.665	26.31
673.788	22.31
673.91	9.31
674.032	8.31
674.154	14.31
674.276	12.31
674.399	3.31
674.521	13.31
674.643	15.31
674.765	0.31
674.887	16.31
675.009	9.31
675.132	2.31
675.254	8.31
675.376	22.31
675.498	-1.69
675.62	31.31
675.743	5.31
675.865	19.31
675.987	13.31
676.109	12.31
676.231	18.31
676.354	31.31
676.476	-5.69
676.598	34.31
676.72	14.31
676.842	17.31
676.965	2.31
677.087	36.31
677.209	29.31
677.331	28.31
677.453	16.31
677.576	13.31
677.698	22.31
677.82	9.31
677.942	-12.69
678.064	8.31
678.187	-1.69
678.309	14.31
678.431	3.31
678.553	21.31
678.675	29.31
678.798	39.31
678.92	10.31
679.042	13.31
679.164	-12.69
679.286	21.31
679.409	13.31
679.531	21.31
679.653	-0.69
679.775	19.31
679.898	-2.69
680.02	16.31
680.142	7.31
680.264	14.31
680.386	-10.69
680.509	18.31
680.631	13.31
680.753	24.31
680.875	2.31
680.998	24.31
681.12	-4.69
681.242	19.31
681.364	-10.69
681.486	9.31
681.609	3.31
681.731	-0.69
681.853	-2.69
681.975	13.31
682.098	-0.69
682.22	21.31
682.342	11.31
682.464	23.31
682.587	8.31
682.709	7.31
682.831	-1.69
682.953	-1.69
683.076	-4.69
683.198	16.31
683.32	11.31
683.442	31.31
683.565	12.31
683.687	14.31
683.809	1.31
683.931	-13.69
684.054	19.31
684.176	15.31
684.298	18.31
684.42	3.31
684.543	1.31
684.665	8.31
684.787	-6.69
684.909	-2.69
685.032	8.31
685.154	-4.69
685.276	13.31
685.398	11.31
685.521	-11.69
685.643	11.31
685.765	4.31
685.887	11.31
686.01	4.31
686.132	25.31
686.254	23.31
686.377	8.31
686.499	15.31
686.621	20.31
686.743	18.31
686.866	5.31
686.988	21.31
687.11	27.31
687.232	-0.69
687.355	-3.69
687.477	9.31
687.599	17.31
687.722	3.31
687.844	10.31
687.966	7.31
688.088	14.31
688.211	27.31
688.333	24.31
688.455	16.31
688.578	23.31
688.7	20.31
688.822	10.31
688.944	-22.69
689.067	38.31
689.189	17.31
689.311	4.31
689.434	5.31
689.556	13.31
689.678	18.31
689.801	7.31
689.923	17.31
690.045	32.31
690.167	15.31
690.29	12.31
690.412	22.31
690.534	11.31
690.657	1.31
690.779	-6.69
690.901	7.31
691.024	7.31
691.146	-2.69
691.268	2.31
691.391	18.31
691.513	15.31
691.635	5.31
691.758	9.31
691.88	25.31
692.002	0.31
692.125	2.31
692.247	15.31
692.369	3.31
692.492	-6.69
692.614	14.31
692.736	-2.69
692.859	4.31
692.981	25.31
693.103	10.31
693.226	5.31
693.348	19.31
693.47	20.31
693.593	3.31
693.715	-5.69
693.837	2.31
693.96	-1.69
694.082	-22.69
694.204	-5.69
694.327	-11.69
694.449	-0.69
694.571	18.31
694.694	15.31
694.816	14.31
694.938	7.31
695.061	10.31
695.183	9.31
695.305	14.31
695.428	2.31
695.55	-1.69
695.672	3.31
695.795	5.31
695.917	17.31
696.04	1.31
696.162	-9.69
696.284	-1.69
696.407	-9.69
696.529	2.31
696.651	34.31
696.774	17.31
696.896	23.31
697.019	17.31
697.141	8.31
697.263	-4.69
697.386	15.31
697.508	-3.69
697.63	15.31
697.753	17.31
697.875	-3.69
697.998	6.31
698.12	19.31
698.242	-6.69
698.365	0.31
698.487	-3.69
698.61	10.31
698.732	11.31
698.854	27.31
698.977	7.31
699.099	16.31
699.221	0.31
699.344	-4.69
699.466	32.31
699.589	15.31
699.711	-4.69
699.834	-4.69
699.956	-2.69
700.078	-1.69
700.201	-3.69
700.323	20.31
700.446	10.31
700.568	-4.69
700.69	13.31
700.813	7.31
700.935	-6.69
701.058	17.31
701.18	19.31
701.302	17.31
701.425	2.31
701.547	1.31
701.67	-3.69
701.792	8.31
701.915	5.31
702.037	-5.69
702.159	-3.69
702.282	4.31
702.404	-11.69
702.527	5.31
702.649	30.31
702.772	24.31
702.894	9.31
703.017	19.31
703.139	9.31
703.261	15.31
703.384	-7.69
703.506	-7.69
703.629	14.31
703.751	17.31
703.874	12.31
703.996	-5.69
704.119	-13.69
704.241	11.31
704.364	-11.69
704.486	14.31
704.608	5.31
704.731	5.31
704.853	11.31
704.976	-8.69
705.098	12.31
705.221	1.31
705.343	6.31
705.466	9.31
705.588	18.31
705.711	1.31
705.833	7.31
705.956	-1.69
706.078	4.31
706.201	-2.69
706.323	7.31
706.446	6.31
