Data from LowRes_H2_15_26_11_07_2024_HR4C61881__89__15-28-22-536.txt Node

Date: Thu Nov 07 15:28:22 EST 2024
User: crc00042
Spectrometer: HR4C6188
Trigger mode: 4
Integration Time (sec): 1.000000E-1
Scans to average: 1
Electric dark correction enabled: true
Nonlinearity correction enabled: false
Boxcar width: 0
XAxis mode: Wavelengths
Number of Pixels in Spectrum: 3648
>>>>>Begin Spectral Data<<<<<
245.66	-80.15
245.797	-80.15
245.934	-80.15
246.071	-86.15
246.208	9.85
246.344	-8.15
246.481	-8.15
246.618	-26.15
246.755	-0.15
246.892	-12.15
247.029	-0.15
247.165	-17.15
247.302	13.85
247.439	0.85
247.576	19.85
247.713	8.85
247.849	37.85
247.986	-9.15
248.123	-9.15
248.26	-3.15
248.396	12.85
248.533	-1.15
248.67	-4.15
248.806	0.85
248.943	-14.15
249.08	9.85
249.216	4.85
249.353	-20.15
249.49	15.85
249.626	10.85
249.763	-1.15
249.9	-20.15
250.036	5.85
250.173	12.85
250.309	11.85
250.446	17.85
250.582	10.85
250.719	6.85
250.856	-2.15
250.992	-4.15
251.129	-1.15
251.265	-11.15
251.402	0.85
251.538	0.85
251.675	-6.15
251.811	3.85
251.948	12.85
252.084	11.85
252.221	-0.15
252.357	-8.15
252.493	27.85
252.63	3.85
252.766	-4.15
252.903	7.85
253.039	-6.15
253.175	-9.15
253.312	-0.15
253.448	-21.15
253.585	-19.15
253.721	14.85
253.857	2.85
253.994	12.85
254.13	17.85
254.266	-8.15
254.403	11.85
254.539	8.85
254.675	16.85
254.811	1.85
254.948	18.85
255.084	-3.15
255.22	-19.15
255.356	-1.15
255.493	8.85
255.629	-0.15
255.765	1.85
255.901	11.85
256.037	6.85
256.174	25.85
256.31	3.85
256.446	-4.15
256.582	-6.15
256.718	12.85
256.854	6.85
256.991	0.85
257.127	5.85
257.263	11.85
257.399	13.85
257.535	-29.15
257.671	-0.15
257.807	-8.15
257.943	12.85
258.079	-23.15
258.215	4.85
258.351	3.85
258.487	0.85
258.623	22.85
258.759	-15.15
258.895	21.85
259.031	6.85
259.167	-19.15
259.303	30.85
259.439	1.85
259.575	4.85
259.711	-8.15
259.847	2.85
259.983	-0.15
260.119	-15.15
260.255	-7.15
260.391	-0.15
260.527	19.85
260.663	22.85
260.799	12.85
260.934	5.85
261.07	-0.15
261.206	-25.15
261.342	-6.15
261.478	14.85
261.614	9.85
261.749	-6.15
261.885	-15.15
262.021	9.85
262.157	35.85
262.293	-5.15
262.428	-7.15
262.564	-2.15
262.7	6.85
262.836	-13.15
262.971	0.85
263.107	3.85
263.243	20.85
263.378	-12.15
263.514	-27.15
263.65	2.85
263.785	-6.15
263.921	-6.15
264.057	-16.15
264.192	-5.15
264.328	17.85
264.464	-14.15
264.599	5.85
264.735	27.85
264.871	1.85
265.006	14.85
265.142	7.85
265.277	14.85
265.413	27.85
265.548	12.85
265.684	18.85
265.819	-2.15
265.955	-16.15
266.091	-11.15
266.226	-14.15
266.362	-0.15
266.497	8.85
266.633	4.85
266.768	14.85
266.903	16.85
267.039	25.85
267.174	26.85
267.31	-4.15
267.445	-15.15
267.581	-23.15
267.716	-7.15
267.851	9.85
267.987	4.85
268.122	7.85
268.258	-0.15
268.393	0.85
268.528	22.85
268.664	4.85
268.799	3.85
268.934	-6.15
269.07	-10.15
269.205	-4.15
269.34	15.85
269.476	-13.15
269.611	-14.15
269.746	16.85
269.881	0.85
270.017	32.85
270.152	11.85
270.287	-5.15
270.422	7.85
270.558	9.85
270.693	8.85
270.828	-10.15
270.963	-6.15
271.098	-10.15
271.234	-6.15
271.369	16.85
271.504	-4.15
271.639	-15.15
271.774	2.85
271.909	11.85
272.045	-9.15
272.18	-8.15
272.315	11.85
272.45	5.85
272.585	-20.15
272.72	-7.15
272.855	5.85
272.99	17.85
273.125	-19.15
273.26	-12.15
273.395	-19.15
273.53	3.85
273.665	8.85
273.8	2.85
273.935	4.85
274.07	19.85
274.205	-1.15
274.34	-7.15
274.475	-0.15
274.61	26.85
274.745	1.85
274.88	14.85
275.015	-4.15
275.15	17.85
275.285	14.85
275.42	13.85
275.555	16.85
275.69	-0.15
275.825	5.85
275.959	-1.15
276.094	-2.15
276.229	0.85
276.364	-14.15
276.499	5.85
276.634	-4.15
276.768	5.85
276.903	14.85
277.038	9.85
277.173	8.85
277.308	-9.15
277.442	8.85
277.577	-4.15
277.712	-0.15
277.847	-3.15
277.981	-2.15
278.116	-17.15
278.251	11.85
278.386	3.85
278.52	9.85
278.655	-6.15
278.79	19.85
278.924	1.85
279.059	0.85
279.194	-8.15
279.328	30.85
279.463	-3.15
279.598	18.85
279.732	17.85
279.867	18.85
280.001	8.85
280.136	10.85
280.271	3.85
280.405	22.85
280.54	7.85
280.674	-17.15
280.809	11.85
280.943	3.85
281.078	2.85
281.213	4.85
281.347	18.85
281.482	-3.15
281.616	-8.15
281.751	13.85
281.885	-40.15
282.02	-18.15
282.154	3.85
282.288	-11.15
282.423	-11.15
282.557	-5.15
282.692	0.85
282.826	3.85
282.961	-17.15
283.095	1.85
283.229	-17.15
283.364	-18.15
283.498	-10.15
283.633	8.85
283.767	0.85
283.901	11.85
284.036	0.85
284.17	-7.15
284.304	-5.15
284.439	-8.15
284.573	-5.15
284.707	15.85
284.842	-3.15
284.976	0.85
285.11	-13.15
285.244	-6.15
285.379	42.85
285.513	-12.15
285.647	15.85
285.781	1.85
285.916	6.85
286.05	-1.15
286.184	21.85
286.318	-4.15
286.453	-11.15
286.587	-28.15
286.721	-31.15
286.855	9.85
286.989	12.85
287.123	-2.15
287.258	-6.15
287.392	1.85
287.526	8.85
287.66	0.85
287.794	5.85
287.928	-8.15
288.062	17.85
288.196	3.85
288.33	-0.15
288.464	7.85
288.598	7.85
288.733	4.85
288.867	7.85
289.001	9.85
289.135	3.85
289.269	9.85
289.403	-7.15
289.537	-1.15
289.671	8.85
289.805	-2.15
289.939	-8.15
290.073	9.85
290.207	14.85
290.34	-4.15
290.474	12.85
290.608	12.85
290.742	-0.15
290.876	-12.15
291.01	-2.15
291.144	29.85
291.278	29.85
291.412	14.85
291.546	3.85
291.679	-3.15
291.813	-16.15
291.947	1.85
292.081	-15.15
292.215	-12.15
292.349	15.85
292.482	3.85
292.616	-12.15
292.75	4.85
292.884	5.85
293.018	0.85
293.151	-17.15
293.285	-1.15
293.419	-12.15
293.553	-1.15
293.686	-8.15
293.82	-4.15
293.954	0.85
294.088	35.85
294.221	2.85
294.355	2.85
294.489	-8.15
294.622	-6.15
294.756	8.85
294.89	14.85
295.023	17.85
295.157	1.85
295.291	-4.15
295.424	14.85
295.558	7.85
295.691	8.85
295.825	1.85
295.959	1.85
296.092	-14.15
296.226	-7.15
296.359	-6.15
296.493	3.85
296.627	1.85
296.76	-6.15
296.894	-13.15
297.027	-7.15
297.161	10.85
297.294	-7.15
297.428	-15.15
297.561	14.85
297.695	-7.15
297.828	6.85
297.962	-15.15
298.095	-14.15
298.229	-5.15
298.362	-7.15
298.495	-1.15
298.629	0.85
298.762	-11.15
298.896	8.85
299.029	-29.15
299.162	-2.15
299.296	2.85
299.429	-12.15
299.563	-7.15
299.696	5.85
299.829	-2.15
299.963	29.85
300.096	20.85
300.229	19.85
300.363	8.85
300.496	10.85
300.629	-17.15
300.763	-11.15
300.896	0.85
301.029	-4.15
301.162	-4.15
301.296	-9.15
301.429	-2.15
301.562	-15.15
301.695	5.85
301.829	14.85
301.962	33.85
302.095	12.85
302.228	-11.15
302.362	4.85
302.495	-24.15
302.628	-8.15
302.761	-7.15
302.894	10.85
303.027	16.85
303.161	-2.15
303.294	-19.15
303.427	17.85
303.56	5.85
303.693	-0.15
303.826	-3.15
303.959	9.85
304.092	0.85
304.225	-3.15
304.359	-0.15
304.492	8.85
304.625	-6.15
304.758	3.85
304.891	1.85
305.024	9.85
305.157	4.85
305.29	-19.15
305.423	-5.15
305.556	7.85
305.689	21.85
305.822	10.85
305.955	0.85
306.088	-6.15
306.221	-1.15
306.354	-3.15
306.487	-14.15
306.62	1.85
306.752	10.85
306.885	7.85
307.018	5.85
307.151	28.85
307.284	29.85
307.417	-0.15
307.55	10.85
307.683	0.85
307.816	22.85
307.948	12.85
308.081	10.85
308.214	22.85
308.347	34.85
308.48	-8.15
308.613	12.85
308.745	14.85
308.878	-5.15
309.011	3.85
309.144	9.85
309.277	0.85
309.409	11.85
309.542	-2.15
309.675	2.85
309.808	-3.15
309.94	10.85
310.073	13.85
310.206	9.85
310.339	20.85
310.471	-9.15
310.604	-0.15
310.737	-6.15
310.869	1.85
311.002	8.85
311.135	-16.15
311.267	-21.15
311.4	-0.15
311.533	24.85
311.665	-7.15
311.798	-13.15
311.93	4.85
312.063	12.85
312.196	15.85
312.328	-12.15
312.461	0.85
312.593	-1.15
312.726	13.85
312.859	9.85
312.991	2.85
313.124	-22.15
313.256	-10.15
313.389	7.85
313.521	4.85
313.654	-7.15
313.786	-7.15
313.919	-16.15
314.051	-3.15
314.184	7.85
314.316	11.85
314.449	-7.15
314.581	-8.15
314.714	-1.15
314.846	5.85
314.978	-29.15
315.111	3.85
315.243	3.85
315.376	-7.15
315.508	13.85
315.641	6.85
315.773	35.85
315.905	1.85
316.038	-4.15
316.17	18.85
316.302	2.85
316.435	-1.15
316.567	27.85
316.699	37.85
316.832	0.85
316.964	16.85
317.096	-13.15
317.229	-7.15
317.361	-8.15
317.493	-1.15
317.625	-13.15
317.758	1.85
317.89	24.85
318.022	22.85
318.155	-14.15
318.287	-3.15
318.419	0.85
318.551	2.85
318.683	0.85
318.816	6.85
318.948	1.85
319.08	-6.15
319.212	7.85
319.344	3.85
319.477	7.85
319.609	9.85
319.741	14.85
319.873	4.85
320.005	6.85
320.137	8.85
320.269	-0.15
320.401	10.85
320.534	15.85
320.666	-6.15
320.798	-20.15
320.93	1.85
321.062	-21.15
321.194	-7.15
321.326	-2.15
321.458	5.85
321.59	-8.15
321.722	-12.15
321.854	-1.15
321.986	8.85
322.118	7.85
322.25	-7.15
322.382	-3.15
322.514	-3.15
322.646	1.85
322.778	32.85
322.91	-15.15
323.042	19.85
323.174	15.85
323.306	-7.15
323.438	-30.15
323.57	5.85
323.702	19.85
323.834	14.85
323.966	-19.15
324.097	-15.15
324.229	11.85
324.361	14.85
324.493	13.85
324.625	10.85
324.757	3.85
324.889	4.85
325.021	6.85
325.152	20.85
325.284	30.85
325.416	-10.15
325.548	-2.15
325.68	4.85
325.811	20.85
325.943	13.85
326.075	-12.15
326.207	13.85
326.339	1.85
326.47	1.85
326.602	11.85
326.734	-12.15
326.866	13.85
326.997	-25.15
327.129	-15.15
327.261	-11.15
327.392	-7.15
327.524	8.85
327.656	-4.15
327.787	32.85
327.919	1.85
328.051	4.85
328.182	16.85
328.314	28.85
328.446	2.85
328.577	32.85
328.709	6.85
328.841	-13.15
328.972	0.85
329.104	7.85
329.235	13.85
329.367	-1.15
329.499	18.85
329.63	12.85
329.762	15.85
329.893	8.85
330.025	1.85
330.156	-13.15
330.288	18.85
330.419	17.85
330.551	-0.15
330.683	13.85
330.814	-9.15
330.946	30.85
331.077	8.85
331.208	-22.15
331.34	-21.15
331.471	-7.15
331.603	12.85
331.734	-3.15
331.866	7.85
331.997	2.85
332.129	13.85
332.26	-7.15
332.392	9.85
332.523	6.85
332.654	-14.15
332.786	17.85
332.917	-10.15
333.048	25.85
333.18	13.85
333.311	-3.15
333.443	9.85
333.574	9.85
333.705	-0.15
333.837	-6.15
333.968	-2.15
334.099	18.85
334.231	18.85
334.362	7.85
334.493	11.85
334.624	13.85
334.756	-2.15
334.887	5.85
335.018	16.85
335.15	25.85
335.281	15.85
335.412	30.85
335.543	14.85
335.675	-2.15
335.806	4.85
335.937	3.85
336.068	21.85
336.199	46.85
336.331	1.85
336.462	11.85
336.593	27.85
336.724	14.85
336.855	10.85
336.986	6.85
337.118	18.85
337.249	10.85
337.38	15.85
337.511	1.85
337.642	15.85
337.773	-7.15
337.904	5.85
338.035	0.85
338.166	-2.15
338.298	21.85
338.429	9.85
338.56	15.85
338.691	10.85
338.822	16.85
338.953	13.85
339.084	17.85
339.215	25.85
339.346	11.85
339.477	0.85
339.608	-25.15
339.739	-19.15
339.87	22.85
340.001	2.85
340.132	20.85
340.263	17.85
340.394	14.85
340.525	7.85
340.656	-34.15
340.787	-1.15
340.918	25.85
341.049	4.85
341.179	14.85
341.31	15.85
341.441	12.85
341.572	4.85
341.703	-0.15
341.834	-14.15
341.965	8.85
342.096	-11.15
342.227	4.85
342.357	-2.15
342.488	11.85
342.619	13.85
342.75	4.85
342.881	-10.15
343.012	21.85
343.142	21.85
343.273	12.85
343.404	38.85
343.535	45.85
343.666	22.85
343.796	12.85
343.927	16.85
344.058	2.85
344.189	0.85
344.319	-5.15
344.45	24.85
344.581	13.85
344.712	-18.15
344.842	9.85
344.973	6.85
345.104	10.85
345.234	8.85
345.365	-18.15
345.496	-7.15
345.626	11.85
345.757	15.85
345.888	3.85
346.018	12.85
346.149	-1.15
346.28	17.85
346.41	-7.15
346.541	8.85
346.672	-2.15
346.802	-0.15
346.933	-7.15
347.063	-0.15
347.194	18.85
347.325	-0.15
347.455	13.85
347.586	2.85
347.716	-6.15
347.847	4.85
347.977	9.85
348.108	18.85
348.238	15.85
348.369	1.85
348.499	13.85
348.63	17.85
348.76	-12.15
348.891	-12.15
349.021	14.85
349.152	18.85
349.282	17.85
349.413	3.85
349.543	16.85
349.674	3.85
349.804	12.85
349.935	-2.15
350.065	-6.15
350.196	-3.15
350.326	-8.15
350.456	10.85
350.587	33.85
350.717	1.85
350.848	20.85
350.978	12.85
351.108	-22.15
351.239	13.85
351.369	4.85
351.499	-14.15
351.63	-3.15
351.76	4.85
351.89	-1.15
352.021	6.85
352.151	3.85
352.281	18.85
352.412	17.85
352.542	6.85
352.672	9.85
352.803	10.85
352.933	3.85
353.063	-9.15
353.193	10.85
353.324	20.85
353.454	20.85
353.584	21.85
353.714	4.85
353.845	21.85
353.975	18.85
354.105	-13.15
354.235	20.85
354.365	14.85
354.496	-5.15
354.626	5.85
354.756	14.85
354.886	-7.15
355.016	12.85
355.146	-4.15
355.277	-7.15
355.407	-26.15
355.537	10.85
355.667	9.85
355.797	18.85
355.927	5.85
356.057	23.85
356.187	-1.15
356.318	-2.15
356.448	-7.15
356.578	2.85
356.708	2.85
356.838	3.85
356.968	-3.15
357.098	5.85
357.228	31.85
357.358	0.85
357.488	-19.15
357.618	32.85
357.748	9.85
357.878	-2.15
358.008	-0.15
358.138	-3.15
358.268	-4.15
358.398	21.85
358.528	-20.15
358.658	-2.15
358.788	-1.15
358.918	18.85
359.048	21.85
359.178	13.85
359.308	-19.15
359.438	14.85
359.568	26.85
359.698	-4.15
359.827	0.85
359.957	11.85
360.087	5.85
360.217	7.85
360.347	22.85
360.477	-6.15
360.607	-7.15
360.737	16.85
360.866	-0.15
360.996	-6.15
361.126	4.85
361.256	18.85
361.386	2.85
361.516	12.85
361.645	-5.15
361.775	8.85
361.905	-21.15
362.035	7.85
362.165	5.85
362.294	12.85
362.424	14.85
362.554	11.85
362.684	-12.15
362.813	2.85
362.943	2.85
363.073	7.85
363.203	-8.15
363.332	10.85
363.462	-12.15
363.592	-14.15
363.721	-12.15
363.851	6.85
363.981	18.85
364.111	-7.15
364.24	-21.15
364.37	9.85
364.5	22.85
364.629	17.85
364.759	-11.15
364.888	-13.15
365.018	-0.15
365.148	-6.15
365.277	-0.15
365.407	4.85
365.537	8.85
365.666	8.85
365.796	-4.15
365.925	8.85
366.055	-2.15
366.184	-8.15
366.314	-12.15
366.444	10.85
366.573	6.85
366.703	-6.15
366.832	0.85
366.962	15.85
367.091	15.85
367.221	25.85
367.35	13.85
367.48	45.85
367.609	17.85
367.739	3.85
367.868	-13.15
367.998	7.85
368.127	22.85
368.257	12.85
368.386	34.85
368.516	28.85
368.645	-5.15
368.775	-7.15
368.904	11.85
369.033	-9.15
369.163	-11.15
369.292	20.85
369.422	17.85
369.551	1.85
369.68	11.85
369.81	26.85
369.939	6.85
370.069	28.85
370.198	12.85
370.327	0.85
370.457	-2.15
370.586	9.85
370.715	-3.15
370.845	5.85
370.974	-5.15
371.103	16.85
371.233	-1.15
371.362	4.85
371.491	-5.15
371.621	7.85
371.75	5.85
371.879	-22.15
372.008	6.85
372.138	14.85
372.267	3.85
372.396	10.85
372.525	-7.15
372.655	-1.15
372.784	-4.15
372.913	1.85
373.042	6.85
373.172	16.85
373.301	7.85
373.43	-8.15
373.559	8.85
373.688	4.85
373.818	15.85
373.947	15.85
374.076	8.85
374.205	16.85
374.334	-23.15
374.463	-7.15
374.593	3.85
374.722	23.85
374.851	21.85
374.98	3.85
375.109	-7.15
375.238	25.85
375.367	35.85
375.496	-9.15
375.625	-0.15
375.755	2.85
375.884	7.85
376.013	1.85
376.142	-10.15
376.271	-2.15
376.4	2.85
376.529	21.85
376.658	8.85
376.787	10.85
376.916	14.85
377.045	21.85
377.174	4.85
377.303	3.85
377.432	14.85
377.561	15.85
377.69	-2.15
377.819	12.85
377.948	2.85
378.077	-9.15
378.206	4.85
378.335	8.85
378.464	-11.15
378.593	22.85
378.722	-1.15
378.851	6.85
378.98	12.85
379.108	-11.15
379.237	-18.15
379.366	-0.15
379.495	20.85
379.624	10.85
379.753	3.85
379.882	20.85
380.011	0.85
380.14	1.85
380.268	-1.15
380.397	-18.15
380.526	20.85
380.655	0.85
380.784	-20.15
380.913	-5.15
381.041	-4.15
381.17	-9.15
381.299	15.85
381.428	18.85
381.557	21.85
381.685	5.85
381.814	10.85
381.943	20.85
382.072	-5.15
382.2	-2.15
382.329	-9.15
382.458	-5.15
382.587	4.85
382.715	21.85
382.844	21.85
382.973	13.85
383.102	-1.15
383.23	15.85
383.359	1.85
383.488	12.85
383.616	6.85
383.745	-1.15
383.874	16.85
384.003	5.85
384.131	-22.15
384.26	-6.15
384.389	4.85
384.517	-10.15
384.646	-10.15
384.774	-18.15
384.903	11.85
385.032	12.85
385.16	5.85
385.289	-2.15
385.418	11.85
385.546	25.85
385.675	21.85
385.803	12.85
385.932	13.85
386.06	0.85
386.189	-5.15
386.318	7.85
386.446	-3.15
386.575	9.85
386.703	16.85
386.832	0.85
386.96	-6.15
387.089	27.85
387.217	8.85
387.346	4.85
387.474	5.85
387.603	0.85
387.731	14.85
387.86	27.85
387.988	14.85
388.117	-3.15
388.245	-1.15
388.374	23.85
388.502	7.85
388.631	-6.15
388.759	-19.15
388.888	0.85
389.016	6.85
389.144	0.85
389.273	9.85
389.401	-17.15
389.53	-8.15
389.658	17.85
389.786	-20.15
389.915	-1.15
390.043	-13.15
390.172	13.85
390.3	7.85
390.428	8.85
390.557	-8.15
390.685	-4.15
390.813	13.85
390.942	18.85
391.07	-7.15
391.198	-10.15
391.327	5.85
391.455	4.85
391.583	26.85
391.712	17.85
391.84	-7.15
391.968	-6.15
392.096	2.85
392.225	6.85
392.353	13.85
392.481	16.85
392.609	25.85
392.738	9.85
392.866	20.85
392.994	-9.15
393.122	16.85
393.251	-0.15
393.379	-0.15
393.507	-13.15
393.635	5.85
393.764	-0.15
393.892	1.85
394.02	-4.15
394.148	5.85
394.276	8.85
394.404	20.85
394.533	7.85
394.661	7.85
394.789	22.85
394.917	29.85
395.045	5.85
395.173	-7.15
395.302	-20.15
395.43	6.85
395.558	2.85
395.686	20.85
395.814	10.85
395.942	12.85
396.07	6.85
396.198	6.85
396.326	20.85
396.454	9.85
396.582	16.85
396.711	2.85
396.839	9.85
396.967	0.85
397.095	6.85
397.223	18.85
397.351	17.85
397.479	11.85
397.607	-7.15
397.735	3.85
397.863	13.85
397.991	16.85
398.119	-3.15
398.247	-10.15
398.375	8.85
398.503	8.85
398.631	11.85
398.759	16.85
398.887	-2.15
399.015	1.85
399.143	-3.15
399.271	5.85
399.399	23.85
399.526	0.85
399.654	11.85
399.782	-4.15
399.91	15.85
400.038	23.85
400.166	13.85
400.294	0.85
400.422	6.85
400.55	17.85
400.678	10.85
400.805	18.85
400.933	16.85
401.061	8.85
401.189	-8.15
401.317	11.85
401.445	15.85
401.573	23.85
401.7	0.85
401.828	1.85
401.956	16.85
402.084	21.85
402.212	10.85
402.34	8.85
402.467	13.85
402.595	10.85
402.723	15.85
402.851	19.85
402.978	7.85
403.106	30.85
403.234	2.85
403.362	24.85
403.489	13.85
403.617	-2.15
403.745	23.85
403.873	-12.15
404	9.85
404.128	17.85
404.256	13.85
404.384	10.85
404.511	7.85
404.639	-2.15
404.767	-3.15
404.894	10.85
405.022	10.85
405.15	10.85
405.277	0.85
405.405	0.85
405.533	11.85
405.66	2.85
405.788	-29.15
405.916	-14.15
406.043	4.85
406.171	8.85
406.299	18.85
406.426	5.85
406.554	16.85
406.681	16.85
406.809	6.85
406.937	0.85
407.064	10.85
407.192	29.85
407.319	16.85
407.447	1.85
407.574	23.85
407.702	0.85
407.83	8.85
407.957	-9.15
408.085	0.85
408.212	-0.15
408.34	17.85
408.467	3.85
408.595	10.85
408.722	15.85
408.85	25.85
408.977	4.85
409.105	5.85
409.232	8.85
409.36	2.85
409.487	19.85
409.615	31.85
409.742	21.85
409.87	24.85
409.997	28.85
410.125	40.85
410.252	69.85
410.379	53.85
410.507	20.85
410.634	15.85
410.762	5.85
410.889	0.85
411.017	0.85
411.144	5.85
411.271	7.85
411.399	20.85
411.526	-6.15
411.653	17.85
411.781	25.85
411.908	18.85
412.036	5.85
412.163	25.85
412.29	22.85
412.418	-0.15
412.545	12.85
412.672	12.85
412.8	42.85
412.927	13.85
413.054	17.85
413.182	0.85
413.309	-4.15
413.436	-15.15
413.564	9.85
413.691	10.85
413.818	14.85
413.945	-4.15
414.073	-4.15
414.2	7.85
414.327	7.85
414.454	26.85
414.582	13.85
414.709	-12.15
414.836	5.85
414.963	11.85
415.091	13.85
415.218	-4.15
415.345	-3.15
415.472	9.85
415.6	2.85
415.727	16.85
415.854	17.85
415.981	27.85
416.108	6.85
416.236	-6.15
416.363	7.85
416.49	5.85
416.617	16.85
416.744	38.85
416.871	20.85
416.998	7.85
417.126	3.85
417.253	3.85
417.38	4.85
417.507	1.85
417.634	9.85
417.761	21.85
417.888	9.85
418.015	9.85
418.143	2.85
418.27	10.85
418.397	2.85
418.524	17.85
418.651	5.85
418.778	20.85
418.905	38.85
419.032	29.85
419.159	10.85
419.286	33.85
419.413	32.85
419.54	34.85
419.667	-3.15
419.794	-5.15
419.921	6.85
420.048	24.85
420.175	16.85
420.302	10.85
420.429	16.85
420.556	23.85
420.683	-6.15
420.81	10.85
420.937	23.85
421.064	26.85
421.191	1.85
421.318	13.85
421.445	32.85
421.572	-12.15
421.699	23.85
421.826	19.85
421.953	3.85
422.08	5.85
422.207	-10.15
422.334	2.85
422.461	17.85
422.588	3.85
422.714	24.85
422.841	15.85
422.968	18.85
423.095	7.85
423.222	-6.15
423.349	11.85
423.476	30.85
423.603	15.85
423.729	-4.15
423.856	7.85
423.983	18.85
424.11	-4.15
424.237	7.85
424.364	17.85
424.491	-2.15
424.617	-4.15
424.744	10.85
424.871	14.85
424.998	15.85
425.125	12.85
425.251	12.85
425.378	-7.15
425.505	12.85
425.632	9.85
425.758	-3.15
425.885	2.85
426.012	30.85
426.139	36.85
426.266	11.85
426.392	0.85
426.519	22.85
426.646	5.85
426.772	16.85
426.899	5.85
427.026	5.85
427.153	0.85
427.279	21.85
427.406	12.85
427.533	18.85
427.659	16.85
427.786	3.85
427.913	7.85
428.039	-0.15
428.166	10.85
428.293	22.85
428.419	46.85
428.546	22.85
428.673	8.85
428.799	-6.15
428.926	13.85
429.053	20.85
429.179	15.85
429.306	28.85
429.433	23.85
429.559	28.85
429.686	7.85
429.812	7.85
429.939	-3.15
430.066	8.85
430.192	1.85
430.319	7.85
430.445	10.85
430.572	11.85
430.699	1.85
430.825	-2.15
430.952	4.85
431.078	4.85
431.205	8.85
431.331	-4.15
431.458	2.85
431.584	5.85
431.711	1.85
431.837	6.85
431.964	10.85
432.09	2.85
432.217	-6.15
432.343	5.85
432.47	26.85
432.596	6.85
432.723	12.85
432.849	-7.15
432.976	7.85
433.102	3.85
433.229	9.85
433.355	20.85
433.482	68.85
433.608	157.85
433.735	144.85
433.861	113.85
433.987	158.85
434.114	232.85
434.24	203.85
434.367	60.85
434.493	17.85
434.62	12.85
434.746	5.85
434.872	7.85
434.999	11.85
435.125	-3.15
435.252	-0.15
435.378	8.85
435.504	9.85
435.631	9.85
435.757	1.85
435.883	15.85
436.01	23.85
436.136	7.85
436.262	4.85
436.389	0.85
436.515	15.85
436.641	9.85
436.768	22.85
436.894	19.85
437.02	-0.15
437.147	11.85
437.273	13.85
437.399	13.85
437.526	16.85
437.652	-1.15
437.778	4.85
437.904	-16.15
438.031	-12.15
438.157	6.85
438.283	-7.15
438.409	4.85
438.536	-3.15
438.662	36.85
438.788	33.85
438.914	17.85
439.041	22.85
439.167	33.85
439.293	3.85
439.419	7.85
439.546	25.85
439.672	8.85
439.798	16.85
439.924	11.85
440.05	20.85
440.177	12.85
440.303	-0.15
440.429	0.85
440.555	22.85
440.681	-3.15
440.807	21.85
440.934	8.85
441.06	13.85
441.186	7.85
441.312	7.85
441.438	12.85
441.564	38.85
441.69	43.85
441.816	10.85
441.943	4.85
442.069	8.85
442.195	14.85
442.321	22.85
442.447	-8.15
442.573	-4.15
442.699	-7.15
442.825	-10.15
442.951	9.85
443.077	17.85
443.203	27.85
443.33	-1.15
443.456	-25.15
443.582	10.85
443.708	5.85
443.834	25.85
443.96	23.85
444.086	7.85
444.212	22.85
444.338	31.85
444.464	25.85
444.59	36.85
444.716	16.85
444.842	7.85
444.968	6.85
445.094	-4.15
445.22	-17.15
445.346	-3.15
445.472	1.85
445.598	5.85
445.724	-0.15
445.85	-2.15
445.976	9.85
446.102	1.85
446.228	28.85
446.354	12.85
446.48	-0.15
446.605	15.85
446.731	21.85
446.857	-2.15
446.983	6.85
447.109	23.85
447.235	1.85
447.361	-10.15
447.487	-0.15
447.613	5.85
447.739	11.85
447.865	1.85
447.99	11.85
448.116	12.85
448.242	19.85
448.368	-3.15
448.494	0.85
448.62	3.85
448.746	14.85
448.872	-2.15
448.997	-9.15
449.123	-4.15
449.249	18.85
449.375	28.85
449.501	5.85
449.627	12.85
449.752	28.85
449.878	3.85
450.004	15.85
450.13	6.85
450.256	3.85
450.381	8.85
450.507	4.85
450.633	8.85
450.759	35.85
450.884	2.85
451.01	17.85
451.136	5.85
451.262	8.85
451.388	11.85
451.513	0.85
451.639	20.85
451.765	19.85
451.89	25.85
452.016	13.85
452.142	-6.15
452.268	13.85
452.393	5.85
452.519	-0.15
452.645	4.85
452.771	4.85
452.896	-10.15
453.022	-3.15
453.148	15.85
453.273	16.85
453.399	-8.15
453.525	-4.15
453.65	-0.15
453.776	13.85
453.902	14.85
454.027	20.85
454.153	23.85
454.279	22.85
454.404	9.85
454.53	4.85
454.656	30.85
454.781	3.85
454.907	8.85
455.032	6.85
455.158	29.85
455.284	29.85
455.409	20.85
455.535	16.85
455.66	19.85
455.786	20.85
455.912	25.85
456.037	-5.15
456.163	11.85
456.288	19.85
456.414	11.85
456.539	3.85
456.665	24.85
456.791	21.85
456.916	5.85
457.042	21.85
457.167	3.85
457.293	-0.15
457.418	-4.15
457.544	15.85
457.669	-3.15
457.795	1.85
457.92	20.85
458.046	9.85
458.171	27.85
458.297	-8.15
458.422	15.85
458.548	7.85
458.673	10.85
458.799	23.85
458.924	-0.15
459.05	-2.15
459.175	7.85
459.301	15.85
459.426	30.85
459.552	36.85
459.677	11.85
459.803	33.85
459.928	18.85
460.053	22.85
460.179	15.85
460.304	23.85
460.43	-2.15
460.555	7.85
460.681	7.85
460.806	4.85
460.931	17.85
461.057	11.85
461.182	19.85
461.308	20.85
461.433	12.85
461.558	15.85
461.684	31.85
461.809	24.85
461.934	14.85
462.06	25.85
462.185	0.85
462.311	17.85
462.436	10.85
462.561	9.85
462.687	4.85
462.812	14.85
462.937	2.85
463.063	7.85
463.188	1.85
463.313	25.85
463.439	17.85
463.564	-7.15
463.689	27.85
463.814	21.85
463.94	6.85
464.065	27.85
464.19	10.85
464.316	-16.15
464.441	8.85
464.566	1.85
464.692	3.85
464.817	1.85
464.942	1.85
465.067	11.85
465.193	-0.15
465.318	-11.15
465.443	3.85
465.568	3.85
465.694	9.85
465.819	43.85
465.944	28.85
466.069	5.85
466.194	7.85
466.32	14.85
466.445	11.85
466.57	-14.15
466.695	0.85
466.82	23.85
466.946	19.85
467.071	20.85
467.196	8.85
467.321	33.85
467.446	10.85
467.572	24.85
467.697	-13.15
467.822	2.85
467.947	18.85
468.072	18.85
468.197	18.85
468.323	7.85
468.448	8.85
468.573	-18.15
468.698	-0.15
468.823	26.85
468.948	7.85
469.073	15.85
469.198	19.85
469.324	22.85
469.449	-0.15
469.574	18.85
469.699	33.85
469.824	20.85
469.949	9.85
470.074	19.85
470.199	32.85
470.324	21.85
470.449	14.85
470.574	8.85
470.7	6.85
470.825	20.85
470.95	29.85
471.075	6.85
471.2	16.85
471.325	16.85
471.45	1.85
471.575	-7.15
471.7	-2.15
471.825	-2.15
471.95	25.85
472.075	7.85
472.2	1.85
472.325	6.85
472.45	-3.15
472.575	16.85
472.7	11.85
472.825	31.85
472.95	7.85
473.075	5.85
473.2	0.85
473.325	8.85
473.45	8.85
473.575	-4.15
473.7	15.85
473.825	20.85
473.95	19.85
474.075	23.85
474.2	7.85
474.325	24.85
474.45	30.85
474.574	39.85
474.699	18.85
474.824	11.85
474.949	9.85
475.074	13.85
475.199	18.85
475.324	23.85
475.449	12.85
475.574	14.85
475.699	17.85
475.824	2.85
475.949	21.85
476.073	7.85
476.198	16.85
476.323	13.85
476.448	18.85
476.573	1.85
476.698	5.85
476.823	25.85
476.947	21.85
477.072	10.85
477.197	0.85
477.322	15.85
477.447	12.85
477.572	16.85
477.697	3.85
477.821	10.85
477.946	27.85
478.071	35.85
478.196	8.85
478.321	5.85
478.445	7.85
478.57	1.85
478.695	14.85
478.82	34.85
478.945	24.85
479.069	8.85
479.194	4.85
479.319	18.85
479.444	23.85
479.569	2.85
479.693	20.85
479.818	16.85
479.943	20.85
480.068	21.85
480.192	9.85
480.317	17.85
480.442	13.85
480.567	7.85
480.691	24.85
480.816	4.85
480.941	12.85
481.066	19.85
481.19	29.85
481.315	22.85
481.44	7.85
481.564	2.85
481.689	18.85
481.814	35.85
481.938	8.85
482.063	3.85
482.188	5.85
482.313	28.85
482.437	8.85
482.562	17.85
482.687	17.85
482.811	27.85
482.936	23.85
483.061	27.85
483.185	6.85
483.31	20.85
483.435	19.85
483.559	15.85
483.684	29.85
483.808	38.85
483.933	11.85
484.058	12.85
484.182	4.85
484.307	-5.15
484.432	27.85
484.556	12.85
484.681	16.85
484.805	21.85
484.93	23.85
485.055	52.85
485.179	92.85
485.304	126.85
485.428	376.85
485.553	1273.85
485.678	1786.85
485.802	1708.85
485.927	1874.85
486.051	2754.85
486.176	1697.85
486.3	474.85
486.425	138.85
486.549	88.85
486.674	70.85
486.799	53.85
486.923	33.85
487.048	21.85
487.172	24.85
487.297	34.85
487.421	33.85
487.546	28.85
487.67	39.85
487.795	13.85
487.919	27.85
488.044	31.85
488.168	19.85
488.293	5.85
488.417	2.85
488.542	24.85
488.666	31.85
488.791	27.85
488.915	26.85
489.04	21.85
489.164	26.85
489.289	19.85
489.413	5.85
489.538	28.85
489.662	37.85
489.786	-6.15
489.911	33.85
490.035	17.85
490.16	14.85
490.284	13.85
490.409	7.85
490.533	20.85
490.658	47.85
490.782	19.85
490.906	24.85
491.031	36.85
491.155	13.85
491.28	22.85
491.404	27.85
491.528	19.85
491.653	13.85
491.777	35.85
491.902	-2.15
492.026	25.85
492.15	24.85
492.275	39.85
492.399	14.85
492.524	17.85
492.648	13.85
492.772	22.85
492.897	33.85
493.021	20.85
493.145	23.85
493.27	13.85
493.394	15.85
493.518	7.85
493.643	-3.15
493.767	23.85
493.891	4.85
494.016	15.85
494.14	5.85
494.264	13.85
494.389	-2.15
494.513	-5.15
494.637	5.85
494.762	29.85
494.886	24.85
495.01	21.85
495.134	16.85
495.259	14.85
495.383	9.85
495.507	25.85
495.632	39.85
495.756	35.85
495.88	18.85
496.004	4.85
496.129	5.85
496.253	31.85
496.377	9.85
496.501	31.85
496.626	-3.15
496.75	15.85
496.874	8.85
496.998	12.85
497.123	28.85
497.247	21.85
497.371	14.85
497.495	4.85
497.62	12.85
497.744	13.85
497.868	11.85
497.992	0.85
498.116	4.85
498.241	24.85
498.365	23.85
498.489	20.85
498.613	22.85
498.737	6.85
498.862	7.85
498.986	-4.15
499.11	13.85
499.234	15.85
499.358	16.85
499.482	21.85
499.607	11.85
499.731	10.85
499.855	30.85
499.979	19.85
500.103	2.85
500.227	9.85
500.351	18.85
500.476	4.85
500.6	4.85
500.724	8.85
500.848	-3.15
500.972	21.85
501.096	17.85
501.22	31.85
501.344	7.85
501.469	27.85
501.593	19.85
501.717	27.85
501.841	18.85
501.965	16.85
502.089	8.85
502.213	18.85
502.337	5.85
502.461	11.85
502.585	20.85
502.709	12.85
502.834	2.85
502.958	27.85
503.082	-1.15
503.206	8.85
503.33	38.85
503.454	25.85
503.578	16.85
503.702	13.85
503.826	21.85
503.95	31.85
504.074	11.85
504.198	27.85
504.322	8.85
504.446	0.85
504.57	3.85
504.694	29.85
504.818	12.85
504.942	32.85
505.066	17.85
505.19	18.85
505.314	6.85
505.438	-0.15
505.562	16.85
505.686	19.85
505.81	13.85
505.934	23.85
506.058	11.85
506.182	33.85
506.306	36.85
506.43	0.85
506.554	6.85
506.678	10.85
506.802	4.85
506.926	15.85
507.05	23.85
507.174	11.85
507.298	2.85
507.422	25.85
507.546	15.85
507.67	20.85
507.794	5.85
507.918	18.85
508.042	-2.15
508.165	0.85
508.289	-0.15
508.413	7.85
508.537	-6.15
508.661	26.85
508.785	11.85
508.909	21.85
509.033	20.85
509.157	18.85
509.281	21.85
509.405	9.85
509.528	14.85
509.652	13.85
509.776	1.85
509.9	24.85
510.024	17.85
510.148	33.85
510.272	8.85
510.396	15.85
510.519	-5.15
510.643	43.85
510.767	16.85
510.891	18.85
511.015	1.85
511.139	9.85
511.263	30.85
511.386	18.85
511.51	6.85
511.634	1.85
511.758	15.85
511.882	20.85
512.006	28.85
512.129	24.85
512.253	32.85
512.377	1.85
512.501	28.85
512.625	16.85
512.748	7.85
512.872	-2.15
512.996	8.85
513.12	22.85
513.244	13.85
513.367	13.85
513.491	18.85
513.615	2.85
513.739	-6.15
513.862	6.85
513.986	2.85
514.11	21.85
514.234	7.85
514.358	18.85
514.481	23.85
514.605	28.85
514.729	17.85
514.853	16.85
514.976	1.85
515.1	14.85
515.224	22.85
515.348	-0.15
515.471	8.85
515.595	14.85
515.719	-8.15
515.842	40.85
515.966	16.85
516.09	29.85
516.214	8.85
516.337	37.85
516.461	47.85
516.585	23.85
516.708	24.85
516.832	31.85
516.956	9.85
517.08	13.85
517.203	14.85
517.327	31.85
517.451	40.85
517.574	54.85
517.698	15.85
517.822	2.85
517.945	28.85
518.069	28.85
518.193	33.85
518.316	30.85
518.44	22.85
518.564	17.85
518.687	17.85
518.811	26.85
518.935	64.85
519.058	36.85
519.182	31.85
519.306	38.85
519.429	17.85
519.553	60.85
519.676	20.85
519.8	17.85
519.924	7.85
520.047	24.85
520.171	0.85
520.294	25.85
520.418	15.85
520.542	9.85
520.665	8.85
520.789	3.85
520.913	-7.15
521.036	-24.15
521.16	-7.15
521.283	12.85
521.407	7.85
521.53	9.85
521.654	7.85
521.778	-1.15
521.901	12.85
522.025	25.85
522.148	9.85
522.272	-16.15
522.395	13.85
522.519	7.85
522.643	0.85
522.766	2.85
522.89	4.85
523.013	35.85
523.137	-4.15
523.26	16.85
523.384	22.85
523.507	11.85
523.631	23.85
523.754	17.85
523.878	0.85
524.002	17.85
524.125	1.85
524.249	1.85
524.372	11.85
524.496	15.85
524.619	27.85
524.743	8.85
524.866	10.85
524.99	21.85
525.113	6.85
525.237	33.85
525.36	19.85
525.484	-1.15
525.607	-7.15
525.731	3.85
525.854	31.85
525.978	37.85
526.101	13.85
526.224	15.85
526.348	13.85
526.471	20.85
526.595	24.85
526.718	9.85
526.842	4.85
526.965	19.85
527.089	12.85
527.212	25.85
527.336	16.85
527.459	21.85
527.582	13.85
527.706	20.85
527.829	20.85
527.953	5.85
528.076	-11.15
528.2	6.85
528.323	9.85
528.446	24.85
528.57	25.85
528.693	21.85
528.817	-0.15
528.94	6.85
529.064	25.85
529.187	-12.15
529.31	-4.15
529.434	2.85
529.557	0.85
529.68	-2.15
529.804	6.85
529.927	26.85
530.051	3.85
530.174	-10.15
530.297	20.85
530.421	21.85
530.544	8.85
530.668	13.85
530.791	4.85
530.914	25.85
531.038	12.85
531.161	13.85
531.284	26.85
531.408	11.85
531.531	6.85
531.654	-2.15
531.778	1.85
531.901	-11.15
532.024	11.85
532.148	-1.15
532.271	13.85
532.394	7.85
532.518	22.85
532.641	22.85
532.764	35.85
532.888	24.85
533.011	-15.15
533.134	3.85
533.258	28.85
533.381	-7.15
533.504	30.85
533.628	16.85
533.751	9.85
533.874	4.85
533.997	1.85
534.121	0.85
534.244	18.85
534.367	9.85
534.491	9.85
534.614	11.85
534.737	21.85
534.86	12.85
534.984	2.85
535.107	-5.15
535.23	25.85
535.354	-0.15
535.477	-7.15
535.6	11.85
535.723	21.85
535.847	1.85
535.97	-0.15
536.093	14.85
536.216	13.85
536.34	4.85
536.463	7.85
536.586	35.85
536.709	18.85
536.833	13.85
536.956	20.85
537.079	1.85
537.202	13.85
537.325	1.85
537.449	-1.15
537.572	15.85
537.695	1.85
537.818	13.85
537.941	11.85
538.065	11.85
538.188	-4.15
538.311	15.85
538.434	11.85
538.558	20.85
538.681	20.85
538.804	14.85
538.927	9.85
539.05	19.85
539.173	5.85
539.297	6.85
539.42	7.85
539.543	8.85
539.666	24.85
539.789	30.85
539.913	22.85
540.036	21.85
540.159	8.85
540.282	17.85
540.405	-0.15
540.528	7.85
540.651	26.85
540.775	8.85
540.898	24.85
541.021	-17.15
541.144	21.85
541.267	8.85
541.39	1.85
541.513	25.85
541.637	-4.15
541.76	2.85
541.883	19.85
542.006	10.85
542.129	13.85
542.252	-0.15
542.375	11.85
542.498	16.85
542.622	16.85
542.745	3.85
542.868	11.85
542.991	19.85
543.114	5.85
543.237	18.85
543.36	22.85
543.483	20.85
543.606	25.85
543.73	40.85
543.853	10.85
543.976	0.85
544.099	0.85
544.222	5.85
544.345	6.85
544.468	4.85
544.591	10.85
544.714	11.85
544.837	29.85
544.96	6.85
545.083	21.85
545.206	-14.15
545.329	7.85
545.453	12.85
545.576	20.85
545.699	4.85
545.822	17.85
545.945	19.85
546.068	1.85
546.191	19.85
546.314	2.85
546.437	20.85
546.56	22.85
546.683	25.85
546.806	37.85
546.929	16.85
547.052	-7.15
547.175	-1.15
547.298	21.85
547.421	-11.15
547.544	-6.15
547.667	2.85
547.79	15.85
547.913	-12.15
548.036	-3.15
548.159	14.85
548.282	18.85
548.405	-1.15
548.528	18.85
548.651	4.85
548.774	32.85
548.897	24.85
549.02	28.85
549.143	20.85
549.266	8.85
549.389	38.85
549.512	22.85
549.635	26.85
549.758	26.85
549.881	1.85
550.004	19.85
550.127	12.85
550.25	6.85
550.373	-2.15
550.496	15.85
550.619	12.85
550.742	1.85
550.865	0.85
550.988	8.85
551.111	32.85
551.234	12.85
551.356	-5.15
551.479	-1.15
551.602	-3.15
551.725	29.85
551.848	28.85
551.971	18.85
552.094	6.85
552.217	3.85
552.34	3.85
552.463	-4.15
552.586	4.85
552.709	-4.15
552.832	13.85
552.955	16.85
553.077	11.85
553.2	10.85
553.323	-1.15
553.446	12.85
553.569	4.85
553.692	16.85
553.815	19.85
553.938	16.85
554.061	27.85
554.184	25.85
554.306	19.85
554.429	12.85
554.552	17.85
554.675	10.85
554.798	15.85
554.921	17.85
555.044	5.85
555.167	15.85
555.29	-1.15
555.412	13.85
555.535	13.85
555.658	19.85
555.781	21.85
555.904	20.85
556.027	11.85
556.15	22.85
556.272	17.85
556.395	1.85
556.518	2.85
556.641	21.85
556.764	12.85
556.887	9.85
557.01	6.85
557.132	-11.15
557.255	9.85
557.378	18.85
557.501	0.85
557.624	10.85
557.747	17.85
557.869	24.85
557.992	43.85
558.115	22.85
558.238	-8.15
558.361	8.85
558.483	37.85
558.606	22.85
558.729	15.85
558.852	26.85
558.975	22.85
559.098	27.85
559.22	17.85
559.343	7.85
559.466	6.85
559.589	5.85
559.712	23.85
559.834	21.85
559.957	19.85
560.08	18.85
560.203	19.85
560.325	23.85
560.448	39.85
560.571	25.85
560.694	-4.15
560.817	14.85
560.939	4.85
561.062	5.85
561.185	8.85
561.308	0.85
561.43	-1.15
561.553	19.85
561.676	9.85
561.799	6.85
561.921	7.85
562.044	-8.15
562.167	-5.15
562.29	21.85
562.413	3.85
562.535	25.85
562.658	7.85
562.781	4.85
562.903	5.85
563.026	18.85
563.149	26.85
563.272	11.85
563.394	19.85
563.517	15.85
563.64	-10.15
563.763	-4.15
563.885	17.85
564.008	21.85
564.131	10.85
564.254	-3.15
564.376	-0.15
564.499	-0.15
564.622	-2.15
564.744	2.85
564.867	13.85
564.99	21.85
565.113	17.85
565.235	7.85
565.358	-8.15
565.481	-4.15
565.603	6.85
565.726	1.85
565.849	24.85
565.971	6.85
566.094	14.85
566.217	16.85
566.34	-0.15
566.462	9.85
566.585	19.85
566.708	34.85
566.83	23.85
566.953	19.85
567.076	16.85
567.198	17.85
567.321	-2.15
567.444	15.85
567.566	5.85
567.689	4.85
567.812	-6.15
567.934	15.85
568.057	21.85
568.18	20.85
568.302	-3.15
568.425	-12.15
568.548	-6.15
568.67	15.85
568.793	12.85
568.916	12.85
569.038	12.85
569.161	5.85
569.283	-0.15
569.406	18.85
569.529	16.85
569.651	6.85
569.774	11.85
569.897	-0.15
570.019	8.85
570.142	11.85
570.265	21.85
570.387	15.85
570.51	41.85
570.632	16.85
570.755	9.85
570.878	-7.15
571	20.85
571.123	5.85
571.246	38.85
571.368	6.85
571.491	10.85
571.613	1.85
571.736	-4.15
571.859	-7.15
571.981	-2.15
572.104	-2.15
572.226	9.85
572.349	6.85
572.472	15.85
572.594	16.85
572.717	2.85
572.839	-8.15
572.962	9.85
573.085	10.85
573.207	11.85
573.33	4.85
573.452	18.85
573.575	28.85
573.697	13.85
573.82	17.85
573.943	-2.15
574.065	3.85
574.188	21.85
574.31	18.85
574.433	7.85
574.555	15.85
574.678	-12.15
574.801	13.85
574.923	12.85
575.046	14.85
575.168	18.85
575.291	3.85
575.413	15.85
575.536	17.85
575.659	18.85
575.781	15.85
575.904	12.85
576.026	21.85
576.149	8.85
576.271	32.85
576.394	15.85
576.516	1.85
576.639	18.85
576.761	0.85
576.884	7.85
577.007	9.85
577.129	6.85
577.252	12.85
577.374	32.85
577.497	17.85
577.619	15.85
577.742	0.85
577.864	21.85
577.987	12.85
578.109	13.85
578.232	4.85
578.354	28.85
578.477	20.85
578.599	18.85
578.722	9.85
578.844	18.85
578.967	15.85
579.089	17.85
579.212	-6.15
579.334	5.85
579.457	8.85
579.579	-1.15
579.702	6.85
579.824	-2.15
579.947	-1.15
580.069	-4.15
580.192	-8.15
580.314	19.85
580.437	1.85
580.559	42.85
580.682	22.85
580.804	-0.15
580.927	22.85
581.049	49.85
581.172	17.85
581.294	26.85
581.417	37.85
581.539	8.85
581.662	23.85
581.784	20.85
581.907	3.85
582.029	23.85
582.152	-12.15
582.274	35.85
582.396	20.85
582.519	6.85
582.641	-9.15
582.764	8.85
582.886	9.85
583.009	1.85
583.131	-4.15
583.254	4.85
583.376	11.85
583.499	26.85
583.621	10.85
583.743	30.85
583.866	18.85
583.988	8.85
584.111	18.85
584.233	22.85
584.356	15.85
584.478	13.85
584.601	-2.15
584.723	19.85
584.845	28.85
584.968	3.85
585.09	7.85
585.213	14.85
585.335	6.85
585.458	23.85
585.58	7.85
585.702	22.85
585.825	15.85
585.947	8.85
586.07	3.85
586.192	15.85
586.315	25.85
586.437	7.85
586.559	-10.15
586.682	5.85
586.804	19.85
586.927	6.85
587.049	-0.15
587.171	41.85
587.294	25.85
587.416	40.85
587.539	-3.15
587.661	-0.15
587.783	-3.15
587.906	14.85
588.028	31.85
588.151	31.85
588.273	15.85
588.395	-0.15
588.518	26.85
588.64	28.85
588.763	22.85
588.885	18.85
589.007	22.85
589.13	-6.15
589.252	-3.15
589.375	11.85
589.497	13.85
589.619	17.85
589.742	17.85
589.864	23.85
589.986	16.85
590.109	-0.15
590.231	-4.15
590.354	14.85
590.476	-15.15
590.598	5.85
590.721	7.85
590.843	6.85
590.965	-3.15
591.088	16.85
591.21	17.85
591.332	15.85
591.455	-15.15
591.577	4.85
591.7	-6.15
591.822	21.85
591.944	15.85
592.067	3.85
592.189	2.85
592.311	5.85
592.434	1.85
592.556	16.85
592.678	9.85
592.801	11.85
592.923	17.85
593.045	15.85
593.168	13.85
593.29	7.85
593.412	24.85
593.535	16.85
593.657	14.85
593.779	26.85
593.902	27.85
594.024	18.85
594.146	17.85
594.269	16.85
594.391	-1.15
594.513	0.85
594.636	10.85
594.758	-14.15
594.88	14.85
595.003	20.85
595.125	2.85
595.247	11.85
595.37	11.85
595.492	10.85
595.614	33.85
595.737	4.85
595.859	19.85
595.981	8.85
596.104	14.85
596.226	25.85
596.348	29.85
596.471	-2.15
596.593	15.85
596.715	24.85
596.838	17.85
596.96	10.85
597.082	20.85
597.204	7.85
597.327	13.85
597.449	0.85
597.571	23.85
597.694	32.85
597.816	20.85
597.938	11.85
598.061	8.85
598.183	10.85
598.305	18.85
598.427	17.85
598.55	-11.15
598.672	-4.15
598.794	25.85
598.917	5.85
599.039	25.85
599.161	17.85
599.283	18.85
599.406	23.85
599.528	20.85
599.65	43.85
599.773	8.85
599.895	23.85
600.017	35.85
600.139	12.85
600.262	11.85
600.384	18.85
600.506	11.85
600.628	25.85
600.751	19.85
600.873	9.85
600.995	-0.15
601.118	9.85
601.24	25.85
601.362	21.85
601.484	16.85
601.607	-9.15
601.729	3.85
601.851	10.85
601.973	25.85
602.096	37.85
602.218	25.85
602.34	20.85
602.462	23.85
602.585	9.85
602.707	-2.15
602.829	24.85
602.951	29.85
603.074	12.85
603.196	-0.15
603.318	9.85
603.44	29.85
603.563	20.85
603.685	-2.15
603.807	28.85
603.929	16.85
604.052	22.85
604.174	17.85
604.296	11.85
604.418	11.85
604.541	24.85
604.663	5.85
604.785	18.85
604.907	13.85
605.03	3.85
605.152	38.85
605.274	21.85
605.396	4.85
605.519	-8.15
605.641	-1.15
605.763	8.85
605.885	20.85
606.008	9.85
606.13	15.85
606.252	19.85
606.374	-8.15
606.496	-11.15
606.619	23.85
606.741	7.85
606.863	23.85
606.985	39.85
607.108	21.85
607.23	7.85
607.352	7.85
607.474	7.85
607.596	6.85
607.719	-4.15
607.841	14.85
607.963	10.85
608.085	32.85
608.207	26.85
608.33	0.85
608.452	-4.15
608.574	-3.15
608.696	28.85
608.819	24.85
608.941	3.85
609.063	9.85
609.185	3.85
609.307	21.85
609.43	26.85
609.552	28.85
609.674	6.85
609.796	27.85
609.918	19.85
610.041	13.85
610.163	17.85
610.285	29.85
610.407	28.85
610.529	-2.15
610.652	20.85
610.774	22.85
610.896	26.85
611.018	12.85
611.14	-9.15
611.263	-6.15
611.385	-4.15
611.507	14.85
611.629	-14.15
611.751	19.85
611.873	28.85
611.996	25.85
612.118	31.85
612.24	2.85
612.362	13.85
612.484	39.85
612.607	29.85
612.729	22.85
612.851	12.85
612.973	4.85
613.095	9.85
613.218	-3.15
613.34	31.85
613.462	8.85
613.584	13.85
613.706	3.85
613.828	36.85
613.951	2.85
614.073	4.85
614.195	-10.15
614.317	24.85
614.439	32.85
614.561	18.85
614.684	25.85
614.806	17.85
614.928	21.85
615.05	20.85
615.172	24.85
615.294	13.85
615.417	11.85
615.539	6.85
615.661	2.85
615.783	21.85
615.905	32.85
616.027	66.85
616.15	109.85
616.272	77.85
616.394	49.85
616.516	47.85
616.638	20.85
616.76	17.85
616.883	16.85
617.005	21.85
617.127	9.85
617.249	13.85
617.371	17.85
617.493	7.85
617.615	10.85
617.738	13.85
617.86	5.85
617.982	12.85
618.104	1.85
618.226	2.85
618.348	4.85
618.471	8.85
618.593	27.85
618.715	10.85
618.837	9.85
618.959	18.85
619.081	23.85
619.203	19.85
619.326	27.85
619.448	22.85
619.57	9.85
619.692	13.85
619.814	14.85
619.936	16.85
620.058	13.85
620.181	28.85
620.303	9.85
620.425	22.85
620.547	-14.15
620.669	15.85
620.791	15.85
620.913	-7.15
621.036	2.85
621.158	5.85
621.28	19.85
621.402	4.85
621.524	22.85
621.646	20.85
621.768	8.85
621.891	3.85
622.013	7.85
622.135	-6.15
622.257	6.85
622.379	13.85
622.501	7.85
622.623	-0.15
622.745	-5.15
622.868	17.85
622.99	0.85
623.112	0.85
623.234	20.85
623.356	6.85
623.478	15.85
623.6	25.85
623.722	19.85
623.845	5.85
623.967	-6.15
624.089	12.85
624.211	6.85
624.333	13.85
624.455	1.85
624.577	-5.15
624.699	24.85
624.822	25.85
624.944	3.85
625.066	7.85
625.188	-10.15
625.31	11.85
625.432	21.85
625.554	16.85
625.676	28.85
625.799	-1.15
625.921	-5.15
626.043	18.85
626.165	3.85
626.287	-15.15
626.409	-8.15
626.531	0.85
626.653	1.85
626.775	11.85
626.898	16.85
627.02	9.85
627.142	15.85
627.264	12.85
627.386	12.85
627.508	7.85
627.63	14.85
627.752	22.85
627.874	8.85
627.997	16.85
628.119	23.85
628.241	24.85
628.363	21.85
628.485	14.85
628.607	14.85
628.729	4.85
628.851	-15.15
628.973	31.85
629.096	2.85
629.218	18.85
629.34	20.85
629.462	18.85
629.584	6.85
629.706	11.85
629.828	29.85
629.95	10.85
630.072	11.85
630.195	10.85
630.317	14.85
630.439	15.85
630.561	8.85
630.683	3.85
630.805	7.85
630.927	25.85
631.049	0.85
631.171	1.85
631.293	24.85
631.416	18.85
631.538	-4.15
631.66	8.85
631.782	13.85
631.904	30.85
632.026	1.85
632.148	2.85
632.27	-5.15
632.392	13.85
632.514	12.85
632.637	15.85
632.759	9.85
632.881	-0.15
633.003	3.85
633.125	-2.15
633.247	20.85
633.369	11.85
633.491	5.85
633.613	23.85
633.735	10.85
633.858	18.85
633.98	15.85
634.102	9.85
634.224	5.85
634.346	11.85
634.468	23.85
634.59	15.85
634.712	11.85
634.834	17.85
634.956	-2.15
635.078	9.85
635.201	6.85
635.323	10.85
635.445	4.85
635.567	-13.15
635.689	24.85
635.811	7.85
635.933	12.85
636.055	16.85
636.177	-0.15
636.299	16.85
636.421	-4.15
636.544	7.85
636.666	20.85
636.788	4.85
636.91	20.85
637.032	17.85
637.154	1.85
637.276	30.85
637.398	16.85
637.52	25.85
637.642	33.85
637.764	32.85
637.887	6.85
638.009	25.85
638.131	9.85
638.253	-2.15
638.375	10.85
638.497	11.85
638.619	-10.15
638.741	-11.15
638.863	-20.15
638.985	-2.15
639.107	10.85
639.23	10.85
639.352	15.85
639.474	-2.15
639.596	9.85
639.718	10.85
639.84	16.85
639.962	3.85
640.084	24.85
640.206	10.85
640.328	-5.15
640.45	19.85
640.573	7.85
640.695	17.85
640.817	9.85
640.939	37.85
641.061	1.85
641.183	-4.15
641.305	-3.15
641.427	4.85
641.549	-12.15
641.671	6.85
641.793	1.85
641.915	31.85
642.038	13.85
642.16	20.85
642.282	4.85
642.404	10.85
642.526	8.85
642.648	5.85
642.77	-3.15
642.892	-4.15
643.014	16.85
643.136	5.85
643.258	9.85
643.381	29.85
643.503	27.85
643.625	7.85
643.747	6.85
643.869	-12.15
643.991	20.85
644.113	7.85
644.235	20.85
644.357	14.85
644.479	17.85
644.601	9.85
644.723	10.85
644.846	12.85
644.968	16.85
645.09	0.85
645.212	4.85
645.334	12.85
645.456	28.85
645.578	38.85
645.7	5.85
645.822	6.85
645.944	4.85
646.066	-13.15
646.188	0.85
646.311	25.85
646.433	16.85
646.555	54.85
646.677	53.85
646.799	24.85
646.921	35.85
647.043	29.85
647.165	4.85
647.287	9.85
647.409	18.85
647.531	18.85
647.654	-16.15
647.776	20.85
647.898	17.85
648.02	-3.15
648.142	9.85
648.264	17.85
648.386	4.85
648.508	-0.15
648.63	-2.15
648.752	9.85
648.874	15.85
648.997	-0.15
649.119	11.85
649.241	5.85
649.363	23.85
649.485	16.85
649.607	5.85
649.729	18.85
649.851	16.85
649.973	2.85
650.095	14.85
650.217	4.85
650.34	-5.15
650.462	6.85
650.584	7.85
650.706	16.85
650.828	21.85
650.95	-12.15
651.072	11.85
651.194	4.85
651.316	-0.15
651.438	11.85
651.56	13.85
651.683	5.85
651.805	4.85
651.927	13.85
652.049	2.85
652.171	24.85
652.293	15.85
652.415	1.85
652.537	5.85
652.659	-7.15
652.781	8.85
652.903	15.85
653.026	28.85
653.148	15.85
653.27	19.85
653.392	-2.15
653.514	3.85
653.636	2.85
653.758	28.85
653.88	1.85
654.002	6.85
654.124	21.85
654.247	9.85
654.369	22.85
654.491	19.85
654.613	11.85
654.735	22.85
654.857	22.85
654.979	19.85
655.101	21.85
655.223	51.85
655.345	13.85
655.468	28.85
655.59	22.85
655.712	31.85
655.834	29.85
655.956	35.85
656.078	32.85
656.2	28.85
656.322	57.85
656.444	28.85
656.566	33.85
656.689	59.85
656.811	72.85
656.933	100.85
657.055	96.85
657.177	161.85
657.299	243.85
657.421	525.85
657.543	1949.85
657.665	12707.85
657.787	15190.85
657.91	15370.85
658.032	15662.85
658.154	4749.85
658.276	4637.85
658.398	1391.85
658.52	1083.85
658.642	519.85
658.764	627.85
658.886	301.85
659.009	424.85
659.131	245.85
659.253	300.85
659.375	170.85
659.497	275.85
659.619	154.85
659.741	216.85
659.863	131.85
659.985	168.85
660.108	99.85
660.23	162.85
660.352	95.85
660.474	145.85
660.596	81.85
660.718	130.85
660.84	70.85
660.962	134.85
661.084	54.85
661.207	102.85
661.329	75.85
661.451	108.85
661.573	50.85
661.695	99.85
661.817	51.85
661.939	109.85
662.061	66.85
662.184	76.85
662.306	43.85
662.428	79.85
662.55	57.85
662.672	66.85
662.794	42.85
662.916	76.85
663.038	45.85
663.161	95.85
663.283	63.85
663.405	74.85
663.527	42.85
663.649	84.85
663.771	50.85
663.893	61.85
664.015	35.85
664.138	57.85
664.26	40.85
664.382	67.85
664.504	21.85
664.626	55.85
664.748	28.85
664.87	49.85
664.992	48.85
665.115	54.85
665.237	12.85
665.359	43.85
665.481	26.85
665.603	34.85
665.725	21.85
665.847	31.85
665.97	26.85
666.092	41.85
666.214	27.85
666.336	44.85
666.458	25.85
666.58	43.85
666.702	8.85
666.825	34.85
666.947	17.85
667.069	34.85
667.191	34.85
667.313	40.85
667.435	11.85
667.557	31.85
667.68	12.85
667.802	28.85
667.924	7.85
668.046	41.85
668.168	27.85
668.29	43.85
668.412	17.85
668.535	36.85
668.657	10.85
668.779	16.85
668.901	18.85
669.023	38.85
669.145	30.85
669.267	50.85
669.39	24.85
669.512	31.85
669.634	15.85
669.756	32.85
669.878	26.85
670	18.85
670.123	2.85
670.245	39.85
670.367	28.85
670.489	31.85
670.611	-0.15
670.733	12.85
670.856	20.85
670.978	39.85
671.1	28.85
671.222	32.85
671.344	10.85
671.466	16.85
671.589	18.85
671.711	35.85
671.833	7.85
671.955	43.85
672.077	3.85
672.199	43.85
672.322	32.85
672.444	32.85
672.566	25.85
672.688	17.85
672.81	27.85
672.932	54.85
673.055	13.85
673.177	15.85
673.299	11.85
673.421	0.85
673.543	17.85
673.665	47.85
673.788	27.85
673.91	13.85
674.032	-2.15
674.154	17.85
674.276	21.85
674.399	18.85
674.521	14.85
674.643	18.85
674.765	-10.15
674.887	20.85
675.009	7.85
675.132	10.85
675.254	1.85
675.376	11.85
675.498	19.85
675.62	28.85
675.743	12.85
675.865	32.85
675.987	3.85
676.109	13.85
676.231	16.85
676.354	30.85
676.476	8.85
676.598	21.85
676.72	5.85
676.842	13.85
676.965	-5.15
677.087	23.85
677.209	22.85
677.331	40.85
677.453	13.85
677.576	27.85
677.698	12.85
677.82	20.85
677.942	1.85
678.064	3.85
678.187	-14.15
678.309	13.85
678.431	6.85
678.553	14.85
678.675	33.85
678.798	20.85
678.92	6.85
679.042	20.85
679.164	9.85
679.286	31.85
679.409	8.85
679.531	-4.15
679.653	14.85
679.775	18.85
679.898	13.85
680.02	3.85
680.142	6.85
680.264	40.85
680.386	-3.15
680.509	24.85
680.631	14.85
680.753	13.85
680.875	7.85
680.998	21.85
681.12	-2.15
681.242	29.85
681.364	-8.15
681.486	-7.15
681.609	-12.15
681.731	-14.15
681.853	-23.15
681.975	3.85
682.098	8.85
682.22	19.85
682.342	13.85
682.464	25.85
682.587	11.85
682.709	15.85
682.831	-4.15
682.953	-6.15
683.076	-4.15
683.198	23.85
683.32	13.85
683.442	19.85
683.565	-1.15
683.687	-1.15
683.809	-0.15
683.931	2.85
684.054	9.85
684.176	21.85
684.298	15.85
684.42	4.85
684.543	5.85
684.665	29.85
684.787	11.85
684.909	12.85
685.032	4.85
685.154	-8.15
685.276	-0.15
685.398	6.85
685.521	-4.15
685.643	9.85
685.765	5.85
685.887	25.85
686.01	17.85
686.132	19.85
686.254	13.85
686.377	14.85
686.499	21.85
686.621	9.85
686.743	7.85
686.866	14.85
686.988	28.85
687.11	38.85
687.232	13.85
687.355	5.85
687.477	4.85
687.599	25.85
687.722	14.85
687.844	16.85
687.966	-0.15
688.088	-6.15
688.211	45.85
688.333	21.85
688.455	8.85
688.578	14.85
688.7	5.85
688.822	6.85
688.944	-2.15
689.067	61.85
689.189	21.85
689.311	1.85
689.434	1.85
689.556	9.85
689.678	11.85
689.801	7.85
689.923	7.85
690.045	20.85
690.167	12.85
690.29	23.85
690.412	4.85
690.534	16.85
690.657	15.85
690.779	2.85
690.901	21.85
691.024	23.85
691.146	9.85
691.268	0.85
691.391	14.85
691.513	34.85
691.635	13.85
691.758	26.85
691.88	32.85
692.002	21.85
692.125	-8.15
692.247	20.85
692.369	1.85
692.492	-2.15
692.614	-1.15
692.736	9.85
692.859	-3.15
692.981	0.85
693.103	14.85
693.226	17.85
693.348	20.85
693.47	29.85
693.593	7.85
693.715	-0.15
693.837	5.85
693.96	-2.15
694.082	-0.15
694.204	6.85
694.327	13.85
694.449	-0.15
694.571	9.85
694.694	17.85
694.816	5.85
694.938	12.85
695.061	2.85
695.183	13.85
695.305	19.85
695.428	9.85
695.55	-20.15
695.672	6.85
695.795	2.85
695.917	25.85
696.04	-0.15
696.162	-6.15
696.284	1.85
696.407	-0.15
696.529	3.85
696.651	24.85
696.774	-0.15
696.896	30.85
697.019	14.85
697.141	7.85
697.263	-11.15
697.386	20.85
697.508	11.85
697.63	1.85
697.753	13.85
697.875	12.85
697.998	4.85
698.12	2.85
698.242	0.85
698.365	16.85
698.487	11.85
698.61	24.85
698.732	21.85
698.854	17.85
698.977	1.85
699.099	13.85
699.221	17.85
699.344	-2.15
699.466	8.85
699.589	10.85
699.711	-3.15
699.834	9.85
699.956	3.85
700.078	16.85
700.201	7.85
700.323	25.85
700.446	8.85
700.568	7.85
700.69	6.85
700.813	25.85
700.935	13.85
701.058	21.85
701.18	9.85
701.302	19.85
701.425	7.85
701.547	19.85
701.67	18.85
701.792	17.85
701.915	7.85
702.037	1.85
702.159	16.85
702.282	16.85
702.404	-2.15
702.527	1.85
702.649	19.85
702.772	9.85
702.894	7.85
703.017	23.85
703.139	31.85
703.261	26.85
703.384	16.85
703.506	-11.15
703.629	6.85
703.751	13.85
703.874	10.85
703.996	2.85
704.119	-0.15
704.241	-0.15
704.364	-5.15
704.486	15.85
704.608	17.85
704.731	9.85
704.853	8.85
704.976	9.85
705.098	31.85
705.221	8.85
705.343	10.85
705.466	14.85
705.588	19.85
705.711	-0.15
705.833	9.85
705.956	4.85
706.078	23.85
706.201	11.85
706.323	12.85
706.446	10.85
