Data from LowRes_H2_15_26_11_07_2024_HR4C61881__90__15-28-22-636.txt Node

Date: Thu Nov 07 15:28:22 EST 2024
User: crc00042
Spectrometer: HR4C6188
Trigger mode: 4
Integration Time (sec): 1.000000E-1
Scans to average: 1
Electric dark correction enabled: true
Nonlinearity correction enabled: false
Boxcar width: 0
XAxis mode: Wavelengths
Number of Pixels in Spectrum: 3648
>>>>>Begin Spectral Data<<<<<
245.66	-98.46
245.797	-98.46
245.934	-98.46
246.071	-83.46
246.208	27.54
246.344	7.54
246.481	-17.46
246.618	-11.46
246.755	6.54
246.892	7.54
247.029	-3.46
247.165	-14.46
247.302	-1.46
247.439	10.54
247.576	11.54
247.713	-3.46
247.849	17.54
247.986	-9.46
248.123	0.54
248.26	-15.46
248.396	11.54
248.533	2.54
248.67	-12.46
248.806	-11.46
248.943	-5.46
249.08	6.54
249.216	8.54
249.353	-9.46
249.49	2.54
249.626	-0.46
249.763	1.54
249.9	-5.46
250.036	4.54
250.173	-3.46
250.309	1.54
250.446	-6.46
250.582	-5.46
250.719	-28.46
250.856	-23.46
250.992	-12.46
251.129	-6.46
251.265	-35.46
251.402	-13.46
251.538	-21.46
251.675	-5.46
251.811	8.54
251.948	21.54
252.084	27.54
252.221	16.54
252.357	-6.46
252.493	29.54
252.63	2.54
252.766	16.54
252.903	3.54
253.039	-18.46
253.175	-0.46
253.312	11.54
253.448	-0.46
253.585	-7.46
253.721	-6.46
253.857	-2.46
253.994	-4.46
254.13	-3.46
254.266	24.54
254.403	-0.46
254.539	7.54
254.675	5.54
254.811	-3.46
254.948	1.54
255.084	1.54
255.22	-7.46
255.356	12.54
255.493	-2.46
255.629	9.54
255.765	4.54
255.901	17.54
256.037	-1.46
256.174	-0.46
256.31	-11.46
256.446	15.54
256.582	16.54
256.718	12.54
256.854	21.54
256.991	12.54
257.127	5.54
257.263	13.54
257.399	8.54
257.535	1.54
257.671	-22.46
257.807	0.54
257.943	-22.46
258.079	-23.46
258.215	3.54
258.351	17.54
258.487	-7.46
258.623	5.54
258.759	-6.46
258.895	-3.46
259.031	-9.46
259.167	3.54
259.303	33.54
259.439	19.54
259.575	-12.46
259.711	13.54
259.847	-17.46
259.983	7.54
260.119	-4.46
260.255	-13.46
260.391	11.54
260.527	7.54
260.663	0.54
260.799	11.54
260.934	5.54
261.07	5.54
261.206	-15.46
261.342	-35.46
261.478	4.54
261.614	10.54
261.749	-4.46
261.885	9.54
262.021	-8.46
262.157	17.54
262.293	-5.46
262.428	-11.46
262.564	-14.46
262.7	18.54
262.836	-0.46
262.971	6.54
263.107	-5.46
263.243	10.54
263.378	-5.46
263.514	-4.46
263.65	14.54
263.785	-13.46
263.921	-3.46
264.057	2.54
264.192	11.54
264.328	10.54
264.464	8.54
264.599	4.54
264.735	-0.46
264.871	1.54
265.006	-5.46
265.142	2.54
265.277	-23.46
265.413	27.54
265.548	0.54
265.684	14.54
265.819	-4.46
265.955	-4.46
266.091	-18.46
266.226	-5.46
266.362	9.54
266.497	5.54
266.633	-7.46
266.768	-16.46
266.903	7.54
267.039	1.54
267.174	-10.46
267.31	-19.46
267.445	-1.46
267.581	-9.46
267.716	0.54
267.851	4.54
267.987	16.54
268.122	25.54
268.258	-15.46
268.393	-7.46
268.528	10.54
268.664	-6.46
268.799	-24.46
268.934	2.54
269.07	0.54
269.205	5.54
269.34	20.54
269.476	18.54
269.611	-19.46
269.746	23.54
269.881	-6.46
270.017	23.54
270.152	-9.46
270.287	16.54
270.422	17.54
270.558	-8.46
270.693	-0.46
270.828	-10.46
270.963	3.54
271.098	16.54
271.234	-12.46
271.369	7.54
271.504	2.54
271.639	-10.46
271.774	-21.46
271.909	-4.46
272.045	-19.46
272.18	-11.46
272.315	-6.46
272.45	2.54
272.585	-13.46
272.72	8.54
272.855	1.54
272.99	17.54
273.125	-17.46
273.26	-19.46
273.395	-12.46
273.53	-13.46
273.665	13.54
273.8	-5.46
273.935	14.54
274.07	14.54
274.205	21.54
274.34	-0.46
274.475	-1.46
274.61	23.54
274.745	-14.46
274.88	13.54
275.015	-13.46
275.15	21.54
275.285	3.54
275.42	7.54
275.555	32.54
275.69	13.54
275.825	-8.46
275.959	6.54
276.094	2.54
276.229	9.54
276.364	-7.46
276.499	-13.46
276.634	10.54
276.768	-5.46
276.903	2.54
277.038	4.54
277.173	7.54
277.308	7.54
277.442	0.54
277.577	-23.46
277.712	3.54
277.847	7.54
277.981	6.54
278.116	-25.46
278.251	-3.46
278.386	4.54
278.52	15.54
278.655	16.54
278.79	31.54
278.924	3.54
279.059	18.54
279.194	-10.46
279.328	38.54
279.463	16.54
279.598	23.54
279.732	-7.46
279.867	15.54
280.001	23.54
280.136	-12.46
280.271	13.54
280.405	24.54
280.54	11.54
280.674	-7.46
280.809	13.54
280.943	-9.46
281.078	-4.46
281.213	22.54
281.347	2.54
281.482	-12.46
281.616	-3.46
281.751	-5.46
281.885	2.54
282.02	13.54
282.154	15.54
282.288	-15.46
282.423	-24.46
282.557	5.54
282.692	12.54
282.826	-2.46
282.961	36.54
283.095	4.54
283.229	-1.46
283.364	-5.46
283.498	3.54
283.633	13.54
283.767	16.54
283.901	6.54
284.036	13.54
284.17	-0.46
284.304	2.54
284.439	-16.46
284.573	-6.46
284.707	18.54
284.842	3.54
284.976	1.54
285.11	0.54
285.244	-4.46
285.379	41.54
285.513	5.54
285.647	28.54
285.781	-2.46
285.916	7.54
286.05	8.54
286.184	27.54
286.318	-0.46
286.453	-12.46
286.587	-20.46
286.721	2.54
286.855	-6.46
286.989	8.54
287.123	10.54
287.258	3.54
287.392	0.54
287.526	-1.46
287.66	-23.46
287.794	5.54
287.928	-14.46
288.062	0.54
288.196	-4.46
288.33	15.54
288.464	8.54
288.598	7.54
288.733	7.54
288.867	37.54
289.001	10.54
289.135	-3.46
289.269	1.54
289.403	-0.46
289.537	1.54
289.671	-0.46
289.805	-15.46
289.939	0.54
290.073	0.54
290.207	20.54
290.34	-4.46
290.474	22.54
290.608	4.54
290.742	-10.46
290.876	0.54
291.01	-1.46
291.144	14.54
291.278	14.54
291.412	8.54
291.546	12.54
291.679	-19.46
291.813	-1.46
291.947	5.54
292.081	8.54
292.215	7.54
292.349	27.54
292.482	3.54
292.616	-5.46
292.75	7.54
292.884	5.54
293.018	-3.46
293.151	-16.46
293.285	2.54
293.419	-11.46
293.553	-13.46
293.686	-13.46
293.82	3.54
293.954	32.54
294.088	19.54
294.221	-4.46
294.355	3.54
294.489	12.54
294.622	-12.46
294.756	6.54
294.89	6.54
295.023	-4.46
295.157	22.54
295.291	9.54
295.424	20.54
295.558	0.54
295.691	0.54
295.825	-5.46
295.959	1.54
296.092	-7.46
296.226	5.54
296.359	-1.46
296.493	2.54
296.627	6.54
296.76	2.54
296.894	-7.46
297.027	0.54
297.161	11.54
297.294	-27.46
297.428	-17.46
297.561	23.54
297.695	-9.46
297.828	-14.46
297.962	-12.46
298.095	-4.46
298.229	-4.46
298.362	-16.46
298.495	-20.46
298.629	-10.46
298.762	3.54
298.896	19.54
299.029	-9.46
299.162	1.54
299.296	2.54
299.429	4.54
299.563	4.54
299.696	14.54
299.829	15.54
299.963	11.54
300.096	-0.46
300.229	5.54
300.363	15.54
300.496	16.54
300.629	-21.46
300.763	-21.46
300.896	0.54
301.029	-14.46
301.162	-1.46
301.296	-20.46
301.429	2.54
301.562	-24.46
301.695	-0.46
301.829	3.54
301.962	19.54
302.095	0.54
302.228	-5.46
302.362	8.54
302.495	1.54
302.628	-2.46
302.761	1.54
302.894	1.54
303.027	24.54
303.161	4.54
303.294	9.54
303.427	22.54
303.56	-8.46
303.693	-2.46
303.826	7.54
303.959	-3.46
304.092	-10.46
304.225	7.54
304.359	1.54
304.492	3.54
304.625	-7.46
304.758	5.54
304.891	11.54
305.024	18.54
305.157	-7.46
305.29	-11.46
305.423	-1.46
305.556	18.54
305.689	24.54
305.822	-0.46
305.955	-6.46
306.088	1.54
306.221	10.54
306.354	-5.46
306.487	-6.46
306.62	1.54
306.752	-6.46
306.885	-5.46
307.018	-3.46
307.151	-7.46
307.284	16.54
307.417	7.54
307.55	8.54
307.683	2.54
307.816	18.54
307.948	11.54
308.081	8.54
308.214	9.54
308.347	35.54
308.48	7.54
308.613	-18.46
308.745	1.54
308.878	-13.46
309.011	1.54
309.144	24.54
309.277	-12.46
309.409	13.54
309.542	6.54
309.675	9.54
309.808	3.54
309.94	17.54
310.073	-3.46
310.206	-15.46
310.339	7.54
310.471	-9.46
310.604	12.54
310.737	6.54
310.869	-0.46
311.002	1.54
311.135	-7.46
311.267	5.54
311.4	-4.46
311.533	21.54
311.665	-0.46
311.798	-8.46
311.93	15.54
312.063	18.54
312.196	6.54
312.328	9.54
312.461	-10.46
312.593	2.54
312.726	10.54
312.859	-5.46
312.991	3.54
313.124	-5.46
313.256	7.54
313.389	19.54
313.521	2.54
313.654	-6.46
313.786	-13.46
313.919	-4.46
314.051	-1.46
314.184	12.54
314.316	18.54
314.449	-16.46
314.581	-9.46
314.714	4.54
314.846	23.54
314.978	2.54
315.111	-12.46
315.243	18.54
315.376	12.54
315.508	8.54
315.641	0.54
315.773	32.54
315.905	20.54
316.038	10.54
316.17	8.54
316.302	2.54
316.435	10.54
316.567	-0.46
316.699	33.54
316.832	-4.46
316.964	-17.46
317.096	-14.46
317.229	-22.46
317.361	-25.46
317.493	-16.46
317.625	-17.46
317.758	9.54
317.89	26.54
318.022	13.54
318.155	13.54
318.287	-3.46
318.419	-12.46
318.551	2.54
318.683	7.54
318.816	-1.46
318.948	1.54
319.08	6.54
319.212	2.54
319.344	-0.46
319.477	0.54
319.609	-3.46
319.741	12.54
319.873	-18.46
320.005	-1.46
320.137	-0.46
320.269	0.54
320.401	1.54
320.534	-10.46
320.666	-29.46
320.798	-7.46
320.93	-1.46
321.062	-14.46
321.194	-13.46
321.326	10.54
321.458	4.54
321.59	-13.46
321.722	-16.46
321.854	0.54
321.986	7.54
322.118	5.54
322.25	-10.46
322.382	8.54
322.514	-0.46
322.646	10.54
322.778	29.54
322.91	10.54
323.042	2.54
323.174	3.54
323.306	-2.46
323.438	-13.46
323.57	8.54
323.702	-4.46
323.834	-0.46
323.966	-29.46
324.097	1.54
324.229	-3.46
324.361	4.54
324.493	-5.46
324.625	-12.46
324.757	17.54
324.889	3.54
325.021	14.54
325.152	6.54
325.284	19.54
325.416	1.54
325.548	11.54
325.68	12.54
325.811	28.54
325.943	3.54
326.075	-12.46
326.207	4.54
326.339	16.54
326.47	0.54
326.602	20.54
326.734	24.54
326.866	23.54
326.997	-3.46
327.129	-16.46
327.261	-22.46
327.392	-14.46
327.524	-7.46
327.656	-8.46
327.787	4.54
327.919	3.54
328.051	4.54
328.182	9.54
328.314	22.54
328.446	1.54
328.577	32.54
328.709	12.54
328.841	-32.46
328.972	-26.46
329.104	-15.46
329.235	1.54
329.367	0.54
329.499	-1.46
329.63	-14.46
329.762	-14.46
329.893	12.54
330.025	-8.46
330.156	-12.46
330.288	10.54
330.419	10.54
330.551	12.54
330.683	8.54
330.814	-15.46
330.946	-3.46
331.077	-12.46
331.208	-2.46
331.34	-7.46
331.471	-17.46
331.603	2.54
331.734	-25.46
331.866	-0.46
331.997	-10.46
332.129	-9.46
332.26	-18.46
332.392	15.54
332.523	2.54
332.654	-2.46
332.786	7.54
332.917	-15.46
333.048	34.54
333.18	18.54
333.311	-13.46
333.443	6.54
333.574	-13.46
333.705	3.54
333.837	-1.46
333.968	13.54
334.099	2.54
334.231	13.54
334.362	-1.46
334.493	12.54
334.624	8.54
334.756	-1.46
334.887	6.54
335.018	-11.46
335.15	11.54
335.281	-8.46
335.412	21.54
335.543	1.54
335.675	-11.46
335.806	1.54
335.937	-0.46
336.068	19.54
336.199	19.54
336.331	1.54
336.462	6.54
336.593	24.54
336.724	7.54
336.855	-6.46
336.986	10.54
337.118	16.54
337.249	11.54
337.38	-6.46
337.511	-3.46
337.642	-6.46
337.773	5.54
337.904	-1.46
338.035	-10.46
338.166	16.54
338.298	-6.46
338.429	-5.46
338.56	12.54
338.691	19.54
338.822	10.54
338.953	5.54
339.084	8.54
339.215	3.54
339.346	-7.46
339.477	-4.46
339.608	2.54
339.739	4.54
339.87	-3.46
340.001	-6.46
340.132	2.54
340.263	-16.46
340.394	4.54
340.525	-5.46
340.656	-36.46
340.787	-6.46
340.918	15.54
341.049	21.54
341.179	6.54
341.31	-5.46
341.441	-6.46
341.572	18.54
341.703	7.54
341.834	-4.46
341.965	1.54
342.096	10.54
342.227	13.54
342.357	-5.46
342.488	8.54
342.619	1.54
342.75	-2.46
342.881	-8.46
343.012	13.54
343.142	18.54
343.273	-5.46
343.404	-12.46
343.535	26.54
343.666	16.54
343.796	22.54
343.927	17.54
344.058	26.54
344.189	28.54
344.319	11.54
344.45	-5.46
344.581	11.54
344.712	-22.46
344.842	-11.46
344.973	-3.46
345.104	-6.46
345.234	-16.46
345.365	-13.46
345.496	2.54
345.626	7.54
345.757	9.54
345.888	-9.46
346.018	-7.46
346.149	18.54
346.28	33.54
346.41	12.54
346.541	6.54
346.672	-7.46
346.802	18.54
346.933	-2.46
347.063	0.54
347.194	-2.46
347.325	8.54
347.455	19.54
347.586	1.54
347.716	-14.46
347.847	13.54
347.977	-1.46
348.108	16.54
348.238	4.54
348.369	10.54
348.499	-0.46
348.63	-7.46
348.76	-3.46
348.891	12.54
349.021	8.54
349.152	7.54
349.282	0.54
349.413	-11.46
349.543	7.54
349.674	1.54
349.804	10.54
349.935	8.54
350.065	10.54
350.196	0.54
350.326	-0.46
350.456	-3.46
350.587	21.54
350.717	14.54
350.848	11.54
350.978	11.54
351.108	-23.46
351.239	19.54
351.369	1.54
351.499	-9.46
351.63	19.54
351.76	3.54
351.89	-8.46
352.021	2.54
352.151	7.54
352.281	30.54
352.412	19.54
352.542	18.54
352.672	-1.46
352.803	-9.46
352.933	-1.46
353.063	-1.46
353.193	-5.46
353.324	6.54
353.454	-10.46
353.584	25.54
353.714	4.54
353.845	-4.46
353.975	-3.46
354.105	-16.46
354.235	18.54
354.365	8.54
354.496	-8.46
354.626	13.54
354.756	-0.46
354.886	-5.46
355.016	-3.46
355.146	3.54
355.277	7.54
355.407	-4.46
355.537	4.54
355.667	12.54
355.797	7.54
355.927	2.54
356.057	-0.46
356.187	-11.46
356.318	-12.46
356.448	-8.46
356.578	-3.46
356.708	2.54
356.838	4.54
356.968	7.54
357.098	1.54
357.228	22.54
357.358	24.54
357.488	-17.46
357.618	31.54
357.748	5.54
357.878	-0.46
358.008	-12.46
358.138	7.54
358.268	6.54
358.398	2.54
358.528	-8.46
358.658	-2.46
358.788	7.54
358.918	20.54
359.048	2.54
359.178	5.54
359.308	3.54
359.438	20.54
359.568	6.54
359.698	10.54
359.827	-1.46
359.957	0.54
360.087	6.54
360.217	0.54
360.347	7.54
360.477	14.54
360.607	-1.46
360.737	9.54
360.866	5.54
360.996	-6.46
361.126	-6.46
361.256	5.54
361.386	33.54
361.516	25.54
361.645	-10.46
361.775	0.54
361.905	-12.46
362.035	0.54
362.165	16.54
362.294	15.54
362.424	18.54
362.554	12.54
362.684	3.54
362.813	16.54
362.943	34.54
363.073	16.54
363.203	5.54
363.332	13.54
363.462	-17.46
363.592	-1.46
363.721	-19.46
363.851	3.54
363.981	-0.46
364.111	-12.46
364.24	-1.46
364.37	9.54
364.5	19.54
364.629	11.54
364.759	-12.46
364.888	-26.46
365.018	-2.46
365.148	-4.46
365.277	-2.46
365.407	17.54
365.537	3.54
365.666	8.54
365.796	-7.46
365.925	7.54
366.055	10.54
366.184	-2.46
366.314	8.54
366.444	8.54
366.573	-9.46
366.703	-13.46
366.832	8.54
366.962	-1.46
367.091	15.54
367.221	4.54
367.35	0.54
367.48	26.54
367.609	7.54
367.739	21.54
367.868	4.54
367.998	12.54
368.127	27.54
368.257	18.54
368.386	27.54
368.516	23.54
368.645	5.54
368.775	15.54
368.904	-2.46
369.033	3.54
369.163	-10.46
369.292	7.54
369.422	4.54
369.551	8.54
369.68	25.54
369.81	10.54
369.939	7.54
370.069	13.54
370.198	13.54
370.327	-15.46
370.457	4.54
370.586	-0.46
370.715	1.54
370.845	-1.46
370.974	26.54
371.103	18.54
371.233	23.54
371.362	30.54
371.491	0.54
371.621	28.54
371.75	-0.46
371.879	-12.46
372.008	4.54
372.138	7.54
372.267	6.54
372.396	9.54
372.525	17.54
372.655	13.54
372.784	4.54
372.913	16.54
373.042	-5.46
373.172	27.54
373.301	-16.46
373.43	-10.46
373.559	8.54
373.688	-0.46
373.818	36.54
373.947	9.54
374.076	6.54
374.205	-6.46
374.334	-0.46
374.463	-1.46
374.593	7.54
374.722	5.54
374.851	21.54
374.98	8.54
375.109	7.54
375.238	27.54
375.367	34.54
375.496	-11.46
375.625	-31.46
375.755	-0.46
375.884	34.54
376.013	15.54
376.142	-10.46
376.271	-8.46
376.4	-4.46
376.529	3.54
376.658	13.54
376.787	-2.46
376.916	5.54
377.045	-20.46
377.174	5.54
377.303	7.54
377.432	32.54
377.561	31.54
377.69	4.54
377.819	1.54
377.948	11.54
378.077	0.54
378.206	-1.46
378.335	-10.46
378.464	5.54
378.593	3.54
378.722	-4.46
378.851	4.54
378.98	22.54
379.108	-16.46
379.237	-19.46
379.366	-6.46
379.495	30.54
379.624	3.54
379.753	12.54
379.882	14.54
380.011	-13.46
380.14	-6.46
380.268	-2.46
380.397	-11.46
380.526	28.54
380.655	-15.46
380.784	-11.46
380.913	6.54
381.041	10.54
381.17	-3.46
381.299	-1.46
381.428	12.54
381.557	8.54
381.685	6.54
381.814	11.54
381.943	11.54
382.072	0.54
382.2	-0.46
382.329	20.54
382.458	9.54
382.587	23.54
382.715	13.54
382.844	1.54
382.973	-1.46
383.102	5.54
383.23	15.54
383.359	-1.46
383.488	19.54
383.616	2.54
383.745	5.54
383.874	5.54
384.003	-13.46
384.131	-7.46
384.26	6.54
384.389	8.54
384.517	-2.46
384.646	-14.46
384.774	0.54
384.903	22.54
385.032	24.54
385.16	5.54
385.289	0.54
385.418	20.54
385.546	-0.46
385.675	4.54
385.803	0.54
385.932	-0.46
386.06	-23.46
386.189	7.54
386.318	14.54
386.446	19.54
386.575	22.54
386.703	17.54
386.832	-5.46
386.96	-4.46
387.089	27.54
387.217	2.54
387.346	6.54
387.474	4.54
387.603	23.54
387.731	-6.46
387.86	18.54
387.988	-20.46
388.117	7.54
388.245	-4.46
388.374	7.54
388.502	9.54
388.631	-12.46
388.759	17.54
388.888	17.54
389.016	-5.46
389.144	6.54
389.273	7.54
389.401	-8.46
389.53	-12.46
389.658	15.54
389.786	-2.46
389.915	-4.46
390.043	-5.46
390.172	3.54
390.3	31.54
390.428	7.54
390.557	-10.46
390.685	15.54
390.813	4.54
390.942	16.54
391.07	4.54
391.198	12.54
391.327	13.54
391.455	-11.46
391.583	21.54
391.712	24.54
391.84	-7.46
391.968	-2.46
392.096	-4.46
392.225	2.54
392.353	2.54
392.481	-2.46
392.609	26.54
392.738	1.54
392.866	19.54
392.994	-15.46
393.122	10.54
393.251	6.54
393.379	-3.46
393.507	-24.46
393.635	-17.46
393.764	3.54
393.892	8.54
394.02	-14.46
394.148	-1.46
394.276	10.54
394.404	26.54
394.533	8.54
394.661	2.54
394.789	8.54
394.917	24.54
395.045	-6.46
395.173	6.54
395.302	4.54
395.43	0.54
395.558	5.54
395.686	-4.46
395.814	2.54
395.942	5.54
396.07	-6.46
396.198	-0.46
396.326	-24.46
396.454	16.54
396.582	16.54
396.711	9.54
396.839	12.54
396.967	1.54
397.095	4.54
397.223	18.54
397.351	12.54
397.479	19.54
397.607	1.54
397.735	4.54
397.863	22.54
397.991	15.54
398.119	2.54
398.247	-3.46
398.375	-0.46
398.503	-0.46
398.631	8.54
398.759	18.54
398.887	20.54
399.015	-5.46
399.143	-2.46
399.271	11.54
399.399	8.54
399.526	11.54
399.654	23.54
399.782	-2.46
399.91	21.54
400.038	25.54
400.166	4.54
400.294	0.54
400.422	4.54
400.55	21.54
400.678	18.54
400.805	18.54
400.933	4.54
401.061	19.54
401.189	-1.46
401.317	19.54
401.445	33.54
401.573	20.54
401.7	4.54
401.828	-22.46
401.956	4.54
402.084	14.54
402.212	22.54
402.34	3.54
402.467	6.54
402.595	2.54
402.723	3.54
402.851	10.54
402.978	4.54
403.106	16.54
403.234	17.54
403.362	10.54
403.489	19.54
403.617	8.54
403.745	7.54
403.873	-1.46
404	16.54
404.128	11.54
404.256	15.54
404.384	12.54
404.511	13.54
404.639	-6.46
404.767	-0.46
404.894	13.54
405.022	17.54
405.15	12.54
405.277	13.54
405.405	-3.46
405.533	-4.46
405.66	-8.46
405.788	-20.46
405.916	-19.46
406.043	-15.46
406.171	-6.46
406.299	4.54
406.426	-1.46
406.554	12.54
406.681	12.54
406.809	6.54
406.937	-11.46
407.064	-13.46
407.192	-3.46
407.319	13.54
407.447	2.54
407.574	44.54
407.702	21.54
407.83	-7.46
407.957	-8.46
408.085	17.54
408.212	-5.46
408.34	7.54
408.467	0.54
408.595	8.54
408.722	13.54
408.85	19.54
408.977	8.54
409.105	-6.46
409.232	8.54
409.36	15.54
409.487	2.54
409.615	22.54
409.742	29.54
409.87	31.54
409.997	31.54
410.125	29.54
410.252	55.54
410.379	58.54
410.507	19.54
410.634	7.54
410.762	-12.46
410.889	16.54
411.017	15.54
411.144	20.54
411.271	1.54
411.399	0.54
411.526	0.54
411.653	14.54
411.781	26.54
411.908	11.54
412.036	2.54
412.163	28.54
412.29	24.54
412.418	15.54
412.545	21.54
412.672	6.54
412.8	30.54
412.927	18.54
413.054	16.54
413.182	12.54
413.309	-2.46
413.436	0.54
413.564	1.54
413.691	12.54
413.818	11.54
413.945	-10.46
414.073	1.54
414.2	-1.46
414.327	17.54
414.454	19.54
414.582	-4.46
414.709	-7.46
414.836	-13.46
414.963	14.54
415.091	8.54
415.218	-1.46
415.345	11.54
415.472	15.54
415.6	4.54
415.727	7.54
415.854	-6.46
415.981	-0.46
416.108	5.54
416.236	-8.46
416.363	-7.46
416.49	-3.46
416.617	-3.46
416.744	16.54
416.871	10.54
416.998	4.54
417.126	14.54
417.253	15.54
417.38	-2.46
417.507	7.54
417.634	4.54
417.761	26.54
417.888	33.54
418.015	14.54
418.143	12.54
418.27	33.54
418.397	-3.46
418.524	-3.46
418.651	2.54
418.778	10.54
418.905	21.54
419.032	28.54
419.159	0.54
419.286	14.54
419.413	17.54
419.54	32.54
419.667	3.54
419.794	-19.46
419.921	18.54
420.048	6.54
420.175	29.54
420.302	7.54
420.429	10.54
420.556	4.54
420.683	11.54
420.81	12.54
420.937	12.54
421.064	4.54
421.191	2.54
421.318	26.54
421.445	30.54
421.572	20.54
421.699	9.54
421.826	4.54
421.953	6.54
422.08	10.54
422.207	-1.46
422.334	-0.46
422.461	2.54
422.588	9.54
422.714	31.54
422.841	24.54
422.968	14.54
423.095	3.54
423.222	-4.46
423.349	15.54
423.476	6.54
423.603	-9.46
423.729	-4.46
423.856	16.54
423.983	14.54
424.11	-1.46
424.237	6.54
424.364	23.54
424.491	6.54
424.617	-7.46
424.744	-23.46
424.871	1.54
424.998	-7.46
425.125	2.54
425.251	-6.46
425.378	-5.46
425.505	5.54
425.632	18.54
425.758	11.54
425.885	4.54
426.012	13.54
426.139	12.54
426.266	-7.46
426.392	-5.46
426.519	2.54
426.646	18.54
426.772	14.54
426.899	-2.46
427.026	17.54
427.153	10.54
427.279	13.54
427.406	12.54
427.533	12.54
427.659	14.54
427.786	20.54
427.913	29.54
428.039	4.54
428.166	11.54
428.293	24.54
428.419	4.54
428.546	11.54
428.673	7.54
428.799	-10.46
428.926	4.54
429.053	19.54
429.179	4.54
429.306	7.54
429.433	18.54
429.559	3.54
429.686	-9.46
429.812	-10.46
429.939	-20.46
430.066	-10.46
430.192	14.54
430.319	2.54
430.445	9.54
430.572	-4.46
430.699	-11.46
430.825	-12.46
430.952	-4.46
431.078	8.54
431.205	4.54
431.331	-1.46
431.458	12.54
431.584	28.54
431.711	11.54
431.837	13.54
431.964	11.54
432.09	4.54
432.217	-19.46
432.343	3.54
432.47	35.54
432.596	23.54
432.723	-14.46
432.849	-4.46
432.976	18.54
433.102	11.54
433.229	10.54
433.355	31.54
433.482	73.54
433.608	149.54
433.735	141.54
433.861	122.54
433.987	161.54
434.114	240.54
434.24	204.54
434.367	62.54
434.493	8.54
434.62	5.54
434.746	29.54
434.872	9.54
434.999	23.54
435.125	-1.46
435.252	-5.46
435.378	13.54
435.504	13.54
435.631	10.54
435.757	23.54
435.883	19.54
436.01	12.54
436.136	7.54
436.262	18.54
436.389	9.54
436.515	13.54
436.641	11.54
436.768	-3.46
436.894	23.54
437.02	30.54
437.147	29.54
437.273	21.54
437.399	0.54
437.526	18.54
437.652	8.54
437.778	29.54
437.904	-5.46
438.031	-0.46
438.157	-17.46
438.283	19.54
438.409	-5.46
438.536	-15.46
438.662	13.54
438.788	6.54
438.914	22.54
439.041	22.54
439.167	26.54
439.293	7.54
439.419	19.54
439.546	14.54
439.672	3.54
439.798	21.54
439.924	26.54
440.05	27.54
440.177	23.54
440.303	-0.46
440.429	8.54
440.555	15.54
440.681	-0.46
440.807	-1.46
440.934	-3.46
441.06	4.54
441.186	12.54
441.312	7.54
441.438	17.54
441.564	23.54
441.69	16.54
441.816	18.54
441.943	16.54
442.069	-10.46
442.195	12.54
442.321	11.54
442.447	-8.46
442.573	-2.46
442.699	-0.46
442.825	-4.46
442.951	22.54
443.077	5.54
443.203	8.54
443.33	15.54
443.456	-8.46
443.582	15.54
443.708	10.54
443.834	34.54
443.96	11.54
444.086	8.54
444.212	35.54
444.338	6.54
444.464	17.54
444.59	4.54
444.716	20.54
444.842	17.54
444.968	0.54
445.094	-5.46
445.22	0.54
445.346	-1.46
445.472	9.54
445.598	3.54
445.724	-1.46
445.85	-0.46
445.976	29.54
446.102	22.54
446.228	38.54
446.354	22.54
446.48	4.54
446.605	15.54
446.731	14.54
446.857	-0.46
446.983	-4.46
447.109	-4.46
447.235	3.54
447.361	-0.46
447.487	24.54
447.613	5.54
447.739	-8.46
447.865	4.54
447.99	13.54
448.116	9.54
448.242	-7.46
448.368	5.54
448.494	16.54
448.62	5.54
448.746	13.54
448.872	-3.46
448.997	8.54
449.123	11.54
449.249	39.54
449.375	19.54
449.501	5.54
449.627	-3.46
449.752	21.54
449.878	-11.46
450.004	-12.46
450.13	1.54
450.256	13.54
450.381	24.54
450.507	25.54
450.633	12.54
450.759	18.54
450.884	10.54
451.01	31.54
451.136	-0.46
451.262	6.54
451.388	16.54
451.513	2.54
451.639	7.54
451.765	15.54
451.89	11.54
452.016	1.54
452.142	17.54
452.268	11.54
452.393	9.54
452.519	0.54
452.645	6.54
452.771	10.54
452.896	11.54
453.022	5.54
453.148	21.54
453.273	4.54
453.399	13.54
453.525	-6.46
453.65	-1.46
453.776	13.54
453.902	12.54
454.027	15.54
454.153	13.54
454.279	-0.46
454.404	-14.46
454.53	19.54
454.656	34.54
454.781	19.54
454.907	20.54
455.032	20.54
455.158	6.54
455.284	32.54
455.409	26.54
455.535	23.54
455.66	28.54
455.786	5.54
455.912	14.54
456.037	-21.46
456.163	-5.46
456.288	0.54
456.414	1.54
456.539	-12.46
456.665	18.54
456.791	5.54
456.916	4.54
457.042	3.54
457.167	-6.46
457.293	23.54
457.418	15.54
457.544	7.54
457.669	14.54
457.795	16.54
457.92	10.54
458.046	3.54
458.171	12.54
458.297	4.54
458.422	5.54
458.548	8.54
458.673	11.54
458.799	1.54
458.924	-8.46
459.05	-3.46
459.175	-5.46
459.301	0.54
459.426	37.54
459.552	2.54
459.677	-4.46
459.803	26.54
459.928	7.54
460.053	-8.46
460.179	-1.46
460.304	19.54
460.43	-1.46
460.555	7.54
460.681	-3.46
460.806	3.54
460.931	22.54
461.057	14.54
461.182	17.54
461.308	23.54
461.433	19.54
461.558	-8.46
461.684	25.54
461.809	15.54
461.934	16.54
462.06	25.54
462.185	-9.46
462.311	1.54
462.436	-6.46
462.561	18.54
462.687	-0.46
462.812	23.54
462.937	12.54
463.063	21.54
463.188	10.54
463.313	20.54
463.439	14.54
463.564	-1.46
463.689	5.54
463.814	-0.46
463.94	22.54
464.065	7.54
464.19	17.54
464.316	3.54
464.441	3.54
464.566	-6.46
464.692	8.54
464.817	10.54
464.942	5.54
465.067	7.54
465.193	-29.46
465.318	-0.46
465.443	24.54
465.568	0.54
465.694	13.54
465.819	30.54
465.944	23.54
466.069	-4.46
466.194	6.54
466.32	14.54
466.445	20.54
466.57	4.54
466.695	4.54
466.82	26.54
466.946	22.54
467.071	9.54
467.196	-6.46
467.321	16.54
467.446	0.54
467.572	18.54
467.697	-6.46
467.822	18.54
467.947	40.54
468.072	5.54
468.197	-1.46
468.323	-4.46
468.448	14.54
468.573	-7.46
468.698	-8.46
468.823	14.54
468.948	16.54
469.073	9.54
469.198	15.54
469.324	24.54
469.449	10.54
469.574	27.54
469.699	7.54
469.824	23.54
469.949	26.54
470.074	-1.46
470.199	51.54
470.324	21.54
470.449	18.54
470.574	16.54
470.7	20.54
470.825	12.54
470.95	32.54
471.075	4.54
471.2	0.54
471.325	13.54
471.45	8.54
471.575	-5.46
471.7	18.54
471.825	-3.46
471.95	-8.46
472.075	8.54
472.2	-9.46
472.325	11.54
472.45	15.54
472.575	7.54
472.7	10.54
472.825	16.54
472.95	19.54
473.075	8.54
473.2	7.54
473.325	11.54
473.45	11.54
473.575	-12.46
473.7	-4.46
473.825	18.54
473.95	7.54
474.075	34.54
474.2	0.54
474.325	8.54
474.45	26.54
474.574	-6.46
474.699	26.54
474.824	24.54
474.949	19.54
475.074	7.54
475.199	2.54
475.324	6.54
475.449	3.54
475.574	11.54
475.699	19.54
475.824	14.54
475.949	12.54
476.073	20.54
476.198	5.54
476.323	-1.46
476.448	12.54
476.573	0.54
476.698	27.54
476.823	24.54
476.947	8.54
477.072	-4.46
477.197	8.54
477.322	5.54
477.447	-5.46
477.572	4.54
477.697	15.54
477.821	12.54
477.946	29.54
478.071	24.54
478.196	18.54
478.321	5.54
478.445	-1.46
478.57	4.54
478.695	5.54
478.82	9.54
478.945	1.54
479.069	2.54
479.194	-1.46
479.319	2.54
479.444	13.54
479.569	8.54
479.693	33.54
479.818	23.54
479.943	20.54
480.068	7.54
480.192	22.54
480.317	12.54
480.442	13.54
480.567	6.54
480.691	15.54
480.816	7.54
480.941	7.54
481.066	12.54
481.19	37.54
481.315	21.54
481.44	11.54
481.564	0.54
481.689	25.54
481.814	33.54
481.938	10.54
482.063	16.54
482.188	22.54
482.313	28.54
482.437	-1.46
482.562	23.54
482.687	27.54
482.811	11.54
482.936	42.54
483.061	23.54
483.185	20.54
483.31	33.54
483.435	19.54
483.559	9.54
483.684	5.54
483.808	18.54
483.933	12.54
484.058	14.54
484.182	6.54
484.307	12.54
484.432	4.54
484.556	10.54
484.681	-7.46
484.805	20.54
484.93	37.54
485.055	32.54
485.179	87.54
485.304	135.54
485.428	366.54
485.553	1286.54
485.678	1809.54
485.802	1696.54
485.927	1850.54
486.051	2697.54
486.176	1660.54
486.3	459.54
486.425	164.54
486.549	72.54
486.674	47.54
486.799	39.54
486.923	16.54
487.048	32.54
487.172	9.54
487.297	20.54
487.421	43.54
487.546	31.54
487.67	13.54
487.795	0.54
487.919	10.54
488.044	30.54
488.168	27.54
488.293	12.54
488.417	17.54
488.542	13.54
488.666	24.54
488.791	31.54
488.915	14.54
489.04	28.54
489.164	25.54
489.289	28.54
489.413	10.54
489.538	25.54
489.662	18.54
489.786	7.54
489.911	24.54
490.035	12.54
490.16	6.54
490.284	9.54
490.409	-0.46
490.533	8.54
490.658	39.54
490.782	21.54
490.906	18.54
491.031	33.54
491.155	12.54
491.28	29.54
491.404	19.54
491.528	31.54
491.653	27.54
491.777	26.54
491.902	23.54
492.026	16.54
492.15	24.54
492.275	12.54
492.399	37.54
492.524	12.54
492.648	22.54
492.772	26.54
492.897	44.54
493.021	6.54
493.145	28.54
493.27	19.54
493.394	12.54
493.518	6.54
493.643	2.54
493.767	37.54
493.891	4.54
494.016	14.54
494.14	3.54
494.264	27.54
494.389	24.54
494.513	15.54
494.637	-2.46
494.762	22.54
494.886	11.54
495.01	21.54
495.134	17.54
495.259	14.54
495.383	2.54
495.507	35.54
495.632	37.54
495.756	46.54
495.88	32.54
496.004	13.54
496.129	1.54
496.253	5.54
496.377	21.54
496.501	35.54
496.626	9.54
496.75	11.54
496.874	7.54
496.998	11.54
497.123	42.54
497.247	20.54
497.371	19.54
497.495	10.54
497.62	9.54
497.744	-13.46
497.868	1.54
497.992	16.54
498.116	-8.46
498.241	18.54
498.365	16.54
498.489	11.54
498.613	28.54
498.737	4.54
498.862	17.54
498.986	0.54
499.11	14.54
499.234	7.54
499.358	2.54
499.482	7.54
499.607	18.54
499.731	13.54
499.855	26.54
499.979	7.54
500.103	18.54
500.227	22.54
500.351	7.54
500.476	15.54
500.6	16.54
500.724	1.54
500.848	10.54
500.972	24.54
501.096	14.54
501.22	19.54
501.344	13.54
501.469	10.54
501.593	10.54
501.717	24.54
501.841	9.54
501.965	7.54
502.089	0.54
502.213	37.54
502.337	17.54
502.461	15.54
502.585	9.54
502.709	15.54
502.834	16.54
502.958	24.54
503.082	18.54
503.206	15.54
503.33	28.54
503.454	25.54
503.578	28.54
503.702	35.54
503.826	19.54
503.95	25.54
504.074	29.54
504.198	11.54
504.322	14.54
504.446	0.54
504.57	25.54
504.694	11.54
504.818	8.54
504.942	33.54
505.066	16.54
505.19	22.54
505.314	20.54
505.438	16.54
505.562	21.54
505.686	26.54
505.81	14.54
505.934	13.54
506.058	11.54
506.182	8.54
506.306	32.54
506.43	9.54
506.554	14.54
506.678	6.54
506.802	-1.46
506.926	16.54
507.05	13.54
507.174	27.54
507.298	21.54
507.422	11.54
507.546	16.54
507.67	27.54
507.794	-5.46
507.918	22.54
508.042	14.54
508.165	11.54
508.289	19.54
508.413	26.54
508.537	1.54
508.661	17.54
508.785	14.54
508.909	6.54
509.033	13.54
509.157	10.54
509.281	17.54
509.405	7.54
509.528	23.54
509.652	33.54
509.776	15.54
509.9	33.54
510.024	7.54
510.148	12.54
510.272	5.54
510.396	8.54
510.519	-4.46
510.643	28.54
510.767	1.54
510.891	20.54
511.015	4.54
511.139	8.54
511.263	29.54
511.386	1.54
511.51	19.54
511.634	15.54
511.758	5.54
511.882	8.54
512.006	12.54
512.129	27.54
512.253	34.54
512.377	9.54
512.501	17.54
512.625	18.54
512.748	9.54
512.872	21.54
512.996	3.54
513.12	15.54
513.244	0.54
513.367	20.54
513.491	28.54
513.615	24.54
513.739	-1.46
513.862	7.54
513.986	4.54
514.11	7.54
514.234	14.54
514.358	23.54
514.481	18.54
514.605	6.54
514.729	19.54
514.853	25.54
514.976	-4.46
515.1	20.54
515.224	28.54
515.348	14.54
515.471	-4.46
515.595	11.54
515.719	13.54
515.842	36.54
515.966	-4.46
516.09	34.54
516.214	12.54
516.337	39.54
516.461	23.54
516.585	17.54
516.708	20.54
516.832	30.54
516.956	24.54
517.08	15.54
517.203	1.54
517.327	31.54
517.451	40.54
517.574	35.54
517.698	19.54
517.822	16.54
517.945	36.54
518.069	33.54
518.193	37.54
518.316	23.54
518.44	36.54
518.564	3.54
518.687	26.54
518.811	29.54
518.935	50.54
519.058	36.54
519.182	36.54
519.306	13.54
519.429	30.54
519.553	51.54
519.676	40.54
519.8	12.54
519.924	15.54
520.047	15.54
520.171	-2.46
520.294	9.54
520.418	17.54
520.542	10.54
520.665	20.54
520.789	11.54
520.913	-3.46
521.036	6.54
521.16	7.54
521.283	-11.46
521.407	3.54
521.53	-3.46
521.654	-10.46
521.778	21.54
521.901	7.54
522.025	-6.46
522.148	-3.46
522.272	2.54
522.395	9.54
522.519	20.54
522.643	-2.46
522.766	9.54
522.89	-2.46
523.013	14.54
523.137	7.54
523.26	-4.46
523.384	21.54
523.507	23.54
523.631	3.54
523.754	6.54
523.878	6.54
524.002	2.54
524.125	-1.46
524.249	-9.46
524.372	16.54
524.496	9.54
524.619	12.54
524.743	15.54
524.866	7.54
524.99	8.54
525.113	2.54
525.237	26.54
525.36	1.54
525.484	10.54
525.607	-9.46
525.731	-27.46
525.854	26.54
525.978	44.54
526.101	13.54
526.224	20.54
526.348	16.54
526.471	19.54
526.595	38.54
526.718	-1.46
526.842	12.54
526.965	9.54
527.089	9.54
527.212	16.54
527.336	11.54
527.459	-0.46
527.582	17.54
527.706	19.54
527.829	2.54
527.953	22.54
528.076	3.54
528.2	-1.46
528.323	19.54
528.446	36.54
528.57	12.54
528.693	12.54
528.817	3.54
528.94	29.54
529.064	38.54
529.187	-1.46
529.31	-7.46
529.434	0.54
529.557	14.54
529.68	7.54
529.804	7.54
529.927	2.54
530.051	17.54
530.174	5.54
530.297	30.54
530.421	16.54
530.544	10.54
530.668	13.54
530.791	-5.46
530.914	14.54
531.038	18.54
531.161	9.54
531.284	4.54
531.408	16.54
531.531	18.54
531.654	4.54
531.778	-1.46
531.901	3.54
532.024	21.54
532.148	18.54
532.271	20.54
532.394	28.54
532.518	20.54
532.641	20.54
532.764	22.54
532.888	22.54
533.011	5.54
533.134	-1.46
533.258	22.54
533.381	-3.46
533.504	17.54
533.628	2.54
533.751	17.54
533.874	6.54
533.997	15.54
534.121	15.54
534.244	20.54
534.367	2.54
534.491	8.54
534.614	14.54
534.737	0.54
534.86	11.54
534.984	8.54
535.107	-1.46
535.23	-14.46
535.354	-1.46
535.477	-6.46
535.6	3.54
535.723	-8.46
535.847	16.54
535.97	-5.46
536.093	11.54
536.216	11.54
536.34	14.54
536.463	8.54
536.586	12.54
536.709	11.54
536.833	3.54
536.956	8.54
537.079	-3.46
537.202	20.54
537.325	-3.46
537.449	-16.46
537.572	8.54
537.695	9.54
537.818	7.54
537.941	1.54
538.065	-0.46
538.188	4.54
538.311	42.54
538.434	14.54
538.558	17.54
538.681	8.54
538.804	28.54
538.927	17.54
539.05	12.54
539.173	8.54
539.297	7.54
539.42	6.54
539.543	9.54
539.666	22.54
539.789	19.54
539.913	8.54
540.036	13.54
540.159	9.54
540.282	-13.46
540.405	8.54
540.528	-1.46
540.651	6.54
540.775	8.54
540.898	18.54
541.021	29.54
541.144	12.54
541.267	13.54
541.39	10.54
541.513	13.54
541.637	14.54
541.76	13.54
541.883	12.54
542.006	24.54
542.129	32.54
542.252	19.54
542.375	15.54
542.498	6.54
542.622	23.54
542.745	7.54
542.868	-7.46
542.991	32.54
543.114	32.54
543.237	26.54
543.36	35.54
543.483	3.54
543.606	0.54
543.73	14.54
543.853	18.54
543.976	12.54
544.099	19.54
544.222	6.54
544.345	5.54
544.468	-0.46
544.591	11.54
544.714	7.54
544.837	18.54
544.96	10.54
545.083	14.54
545.206	17.54
545.329	35.54
545.453	27.54
545.576	18.54
545.699	3.54
545.822	15.54
545.945	4.54
546.068	-5.46
546.191	20.54
546.314	11.54
546.437	14.54
546.56	8.54
546.683	7.54
546.806	2.54
546.929	-2.46
547.052	0.54
547.175	7.54
547.298	12.54
547.421	-15.46
547.544	1.54
547.667	3.54
547.79	-4.46
547.913	-4.46
548.036	-0.46
548.159	14.54
548.282	2.54
548.405	4.54
548.528	21.54
548.651	3.54
548.774	2.54
548.897	17.54
549.02	12.54
549.143	27.54
549.266	-0.46
549.389	5.54
549.512	0.54
549.635	-2.46
549.758	13.54
549.881	10.54
550.004	13.54
550.127	21.54
550.25	-0.46
550.373	2.54
550.496	15.54
550.619	-0.46
550.742	-4.46
550.865	-8.46
550.988	16.54
551.111	17.54
551.234	-0.46
551.356	1.54
551.479	-12.46
551.602	-0.46
551.725	1.54
551.848	21.54
551.971	25.54
552.094	24.54
552.217	9.54
552.34	7.54
552.463	-11.46
552.586	19.54
552.709	-3.46
552.832	0.54
552.955	16.54
553.077	16.54
553.2	13.54
553.323	-26.46
553.446	18.54
553.569	6.54
553.692	14.54
553.815	7.54
553.938	-1.46
554.061	16.54
554.184	27.54
554.306	28.54
554.429	7.54
554.552	15.54
554.675	4.54
554.798	15.54
554.921	22.54
555.044	2.54
555.167	2.54
555.29	8.54
555.412	-14.46
555.535	4.54
555.658	-4.46
555.781	-1.46
555.904	7.54
556.027	12.54
556.15	6.54
556.272	-6.46
556.395	31.54
556.518	-2.46
556.641	0.54
556.764	17.54
556.887	7.54
557.01	8.54
557.132	2.54
557.255	2.54
557.378	20.54
557.501	-7.46
557.624	14.54
557.747	18.54
557.869	18.54
557.992	24.54
558.115	13.54
558.238	-12.46
558.361	22.54
558.483	28.54
558.606	16.54
558.729	0.54
558.852	28.54
558.975	18.54
559.098	17.54
559.22	25.54
559.343	8.54
559.466	27.54
559.589	4.54
559.712	11.54
559.834	19.54
559.957	-1.46
560.08	19.54
560.203	22.54
560.325	17.54
560.448	24.54
560.571	3.54
560.694	3.54
560.817	21.54
560.939	13.54
561.062	-1.46
561.185	11.54
561.308	-0.46
561.43	-17.46
561.553	8.54
561.676	-14.46
561.799	12.54
561.921	12.54
562.044	13.54
562.167	-12.46
562.29	24.54
562.413	30.54
562.535	14.54
562.658	-11.46
562.781	-7.46
562.903	7.54
563.026	1.54
563.149	19.54
563.272	20.54
563.394	20.54
563.517	6.54
563.64	-6.46
563.763	9.54
563.885	16.54
564.008	22.54
564.131	15.54
564.254	2.54
564.376	3.54
564.499	-3.46
564.622	3.54
564.744	12.54
564.867	8.54
564.99	6.54
565.113	-10.46
565.235	8.54
565.358	8.54
565.481	-6.46
565.603	8.54
565.726	7.54
565.849	17.54
565.971	20.54
566.094	-11.46
566.217	2.54
566.34	-0.46
566.462	-5.46
566.585	14.54
566.708	33.54
566.83	-3.46
566.953	20.54
567.076	19.54
567.198	11.54
567.321	-7.46
567.444	12.54
567.566	4.54
567.689	5.54
567.812	-8.46
567.934	7.54
568.057	23.54
568.18	18.54
568.302	1.54
568.425	-0.46
568.548	2.54
568.67	10.54
568.793	-9.46
568.916	4.54
569.038	0.54
569.161	6.54
569.283	13.54
569.406	-1.46
569.529	-6.46
569.651	8.54
569.774	2.54
569.897	6.54
570.019	19.54
570.142	14.54
570.265	12.54
570.387	20.54
570.51	13.54
570.632	7.54
570.755	-0.46
570.878	4.54
571	15.54
571.123	6.54
571.246	39.54
571.368	7.54
571.491	6.54
571.613	-1.46
571.736	-8.46
571.859	-5.46
571.981	-1.46
572.104	7.54
572.226	5.54
572.349	11.54
572.472	23.54
572.594	12.54
572.717	4.54
572.839	10.54
572.962	5.54
573.085	6.54
573.207	9.54
573.33	13.54
573.452	10.54
573.575	26.54
573.697	15.54
573.82	-0.46
573.943	-4.46
574.065	13.54
574.188	3.54
574.31	31.54
574.433	3.54
574.555	24.54
574.678	10.54
574.801	-3.46
574.923	-10.46
575.046	34.54
575.168	11.54
575.291	0.54
575.413	6.54
575.536	2.54
575.659	16.54
575.781	3.54
575.904	-2.46
576.026	16.54
576.149	11.54
576.271	8.54
576.394	3.54
576.516	-12.46
576.639	8.54
576.761	-1.46
576.884	-9.46
577.007	14.54
577.129	18.54
577.252	6.54
577.374	29.54
577.497	7.54
577.619	12.54
577.742	-1.46
577.864	15.54
577.987	22.54
578.109	25.54
578.232	13.54
578.354	25.54
578.477	7.54
578.599	6.54
578.722	-4.46
578.844	-10.46
578.967	9.54
579.089	13.54
579.212	-2.46
579.334	12.54
579.457	18.54
579.579	13.54
579.702	2.54
579.824	6.54
579.947	4.54
580.069	7.54
580.192	-7.46
580.314	13.54
580.437	-4.46
580.559	40.54
580.682	21.54
580.804	18.54
580.927	15.54
581.049	32.54
581.172	20.54
581.294	14.54
581.417	22.54
581.539	0.54
581.662	16.54
581.784	9.54
581.907	14.54
582.029	22.54
582.152	-0.46
582.274	22.54
582.396	2.54
582.519	11.54
582.641	-3.46
582.764	-0.46
582.886	28.54
583.009	18.54
583.131	3.54
583.254	16.54
583.376	36.54
583.499	28.54
583.621	14.54
583.743	10.54
583.866	7.54
583.988	-0.46
584.111	8.54
584.233	18.54
584.356	15.54
584.478	-3.46
584.601	-1.46
584.723	3.54
584.845	10.54
584.968	-1.46
585.09	2.54
585.213	7.54
585.335	-15.46
585.458	18.54
585.58	10.54
585.702	21.54
585.825	24.54
585.947	15.54
586.07	6.54
586.192	-4.46
586.315	11.54
586.437	-16.46
586.559	11.54
586.682	3.54
586.804	16.54
586.927	7.54
587.049	4.54
587.171	16.54
587.294	14.54
587.416	11.54
587.539	-3.46
587.661	22.54
587.783	-0.46
587.906	-5.46
588.028	11.54
588.151	0.54
588.273	21.54
588.395	-9.46
588.518	2.54
588.64	3.54
588.763	26.54
588.885	11.54
589.007	31.54
589.13	-1.46
589.252	10.54
589.375	14.54
589.497	4.54
589.619	13.54
589.742	18.54
589.864	11.54
589.986	15.54
590.109	7.54
590.231	6.54
590.354	13.54
590.476	-6.46
590.598	17.54
590.721	-10.46
590.843	8.54
590.965	25.54
591.088	13.54
591.21	-7.46
591.332	7.54
591.455	-21.46
591.577	-1.46
591.7	9.54
591.822	-11.46
591.944	-4.46
592.067	12.54
592.189	-3.46
592.311	6.54
592.434	2.54
592.556	5.54
592.678	16.54
592.801	16.54
592.923	9.54
593.045	-0.46
593.168	21.54
593.29	-2.46
593.412	11.54
593.535	-22.46
593.657	8.54
593.779	14.54
593.902	31.54
594.024	14.54
594.146	14.54
594.269	23.54
594.391	-6.46
594.513	2.54
594.636	12.54
594.758	19.54
594.88	15.54
595.003	7.54
595.125	-1.46
595.247	13.54
595.37	16.54
595.492	2.54
595.614	15.54
595.737	13.54
595.859	4.54
595.981	6.54
596.104	13.54
596.226	4.54
596.348	-14.46
596.471	-21.46
596.593	13.54
596.715	10.54
596.838	5.54
596.96	-14.46
597.082	10.54
597.204	10.54
597.327	18.54
597.449	6.54
597.571	12.54
597.694	9.54
597.816	26.54
597.938	14.54
598.061	10.54
598.183	1.54
598.305	24.54
598.427	18.54
598.55	3.54
598.672	3.54
598.794	11.54
598.917	14.54
599.039	20.54
599.161	14.54
599.283	15.54
599.406	22.54
599.528	26.54
599.65	24.54
599.773	18.54
599.895	28.54
600.017	18.54
600.139	7.54
600.262	-4.46
600.384	5.54
600.506	20.54
600.628	28.54
600.751	16.54
600.873	7.54
600.995	1.54
601.118	21.54
601.24	0.54
601.362	10.54
601.484	23.54
601.607	13.54
601.729	16.54
601.851	2.54
601.973	9.54
602.096	9.54
602.218	20.54
602.34	25.54
602.462	16.54
602.585	7.54
602.707	1.54
602.829	15.54
602.951	11.54
603.074	-13.46
603.196	26.54
603.318	11.54
603.44	22.54
603.563	5.54
603.685	-0.46
603.807	15.54
603.929	10.54
604.052	18.54
604.174	26.54
604.296	-1.46
604.418	4.54
604.541	31.54
604.663	18.54
604.785	14.54
604.907	11.54
605.03	-3.46
605.152	43.54
605.274	-2.46
605.396	-2.46
605.519	0.54
605.641	-1.46
605.763	11.54
605.885	8.54
606.008	1.54
606.13	9.54
606.252	17.54
606.374	-24.46
606.496	-4.46
606.619	10.54
606.741	11.54
606.863	21.54
606.985	37.54
607.108	27.54
607.23	12.54
607.352	6.54
607.474	5.54
607.596	15.54
607.719	14.54
607.841	18.54
607.963	14.54
608.085	23.54
608.207	44.54
608.33	32.54
608.452	20.54
608.574	-5.46
608.696	23.54
608.819	19.54
608.941	13.54
609.063	-0.46
609.185	11.54
609.307	6.54
609.43	16.54
609.552	23.54
609.674	5.54
609.796	19.54
609.918	16.54
610.041	29.54
610.163	10.54
610.285	12.54
610.407	10.54
610.529	10.54
610.652	10.54
610.774	26.54
610.896	13.54
611.018	25.54
611.14	-0.46
611.263	1.54
611.385	1.54
611.507	19.54
611.629	-0.46
611.751	14.54
611.873	18.54
611.996	15.54
612.118	22.54
612.24	9.54
612.362	14.54
612.484	13.54
612.607	6.54
612.729	21.54
612.851	20.54
612.973	22.54
613.095	10.54
613.218	13.54
613.34	22.54
613.462	7.54
613.584	19.54
613.706	16.54
613.828	33.54
613.951	8.54
614.073	0.54
614.195	-23.46
614.317	24.54
614.439	15.54
614.561	21.54
614.684	5.54
614.806	18.54
614.928	17.54
615.05	19.54
615.172	34.54
615.294	14.54
615.417	24.54
615.539	-3.46
615.661	4.54
615.783	23.54
615.905	26.54
616.027	64.54
616.15	114.54
616.272	84.54
616.394	60.54
616.516	31.54
616.638	25.54
616.76	17.54
616.883	10.54
617.005	21.54
617.127	1.54
617.249	7.54
617.371	13.54
617.493	8.54
617.615	26.54
617.738	25.54
617.86	22.54
617.982	6.54
618.104	5.54
618.226	-15.46
618.348	-2.46
618.471	9.54
618.593	26.54
618.715	3.54
618.837	2.54
618.959	18.54
619.081	22.54
619.203	12.54
619.326	6.54
619.448	4.54
619.57	13.54
619.692	22.54
619.814	-0.46
619.936	9.54
620.058	31.54
620.181	16.54
620.303	15.54
620.425	21.54
620.547	-0.46
620.669	10.54
620.791	4.54
620.913	-8.46
621.036	6.54
621.158	6.54
621.28	30.54
621.402	-12.46
621.524	-1.46
621.646	2.54
621.768	-4.46
621.891	-0.46
622.013	21.54
622.135	-17.46
622.257	-1.46
622.379	-3.46
622.501	1.54
622.623	2.54
622.745	17.54
622.868	25.54
622.99	14.54
623.112	16.54
623.234	7.54
623.356	14.54
623.478	-18.46
623.6	17.54
623.722	-2.46
623.845	7.54
623.967	10.54
624.089	17.54
624.211	20.54
624.333	14.54
624.455	25.54
624.577	31.54
624.699	16.54
624.822	-8.46
624.944	11.54
625.066	-0.46
625.188	10.54
625.31	17.54
625.432	27.54
625.554	5.54
625.676	31.54
625.799	6.54
625.921	12.54
626.043	10.54
626.165	6.54
626.287	-26.46
626.409	7.54
626.531	5.54
626.653	6.54
626.775	17.54
626.898	11.54
627.02	22.54
627.142	29.54
627.264	7.54
627.386	4.54
627.508	13.54
627.63	25.54
627.752	18.54
627.874	10.54
627.997	27.54
628.119	16.54
628.241	28.54
628.363	19.54
628.485	16.54
628.607	11.54
628.729	11.54
628.851	12.54
628.973	8.54
629.096	-7.46
629.218	18.54
629.34	8.54
629.462	2.54
629.584	3.54
629.706	-1.46
629.828	30.54
629.95	10.54
630.072	5.54
630.195	0.54
630.317	25.54
630.439	11.54
630.561	17.54
630.683	-5.46
630.805	27.54
630.927	12.54
631.049	-6.46
631.171	-7.46
631.293	4.54
631.416	23.54
631.538	7.54
631.66	0.54
631.782	32.54
631.904	21.54
632.026	-7.46
632.148	15.54
632.27	16.54
632.392	23.54
632.514	11.54
632.637	7.54
632.759	16.54
632.881	-8.46
633.003	10.54
633.125	4.54
633.247	10.54
633.369	20.54
633.491	27.54
633.613	19.54
633.735	7.54
633.858	12.54
633.98	21.54
634.102	6.54
634.224	0.54
634.346	4.54
634.468	15.54
634.59	8.54
634.712	6.54
634.834	-3.46
634.956	-12.46
635.078	4.54
635.201	9.54
635.323	20.54
635.445	2.54
635.567	-4.46
635.689	23.54
635.811	1.54
635.933	4.54
636.055	8.54
636.177	9.54
636.299	5.54
636.421	11.54
636.544	-4.46
636.666	18.54
636.788	14.54
636.91	13.54
637.032	10.54
637.154	15.54
637.276	43.54
637.398	39.54
637.52	22.54
637.642	11.54
637.764	1.54
637.887	4.54
638.009	-10.46
638.131	-1.46
638.253	8.54
638.375	21.54
638.497	11.54
638.619	-1.46
638.741	3.54
638.863	-9.46
638.985	-13.46
639.107	10.54
639.23	6.54
639.352	31.54
639.474	10.54
639.596	14.54
639.718	12.54
639.84	12.54
639.962	7.54
640.084	11.54
640.206	12.54
640.328	-3.46
640.45	2.54
640.573	0.54
640.695	-0.46
640.817	-1.46
640.939	3.54
641.061	10.54
641.183	11.54
641.305	11.54
641.427	11.54
641.549	3.54
641.671	31.54
641.793	6.54
641.915	16.54
642.038	12.54
642.16	13.54
642.282	3.54
642.404	12.54
642.526	2.54
642.648	0.54
642.77	9.54
642.892	7.54
643.014	30.54
643.136	19.54
643.258	32.54
643.381	32.54
643.503	20.54
643.625	11.54
643.747	-1.46
643.869	-7.46
643.991	12.54
644.113	8.54
644.235	9.54
644.357	5.54
644.479	11.54
644.601	15.54
644.723	-1.46
644.846	12.54
644.968	5.54
645.09	10.54
645.212	9.54
645.334	14.54
645.456	8.54
645.578	18.54
645.7	8.54
645.822	-2.46
645.944	12.54
646.066	18.54
646.188	-2.46
646.311	2.54
646.433	-1.46
646.555	52.54
646.677	40.54
646.799	37.54
646.921	15.54
647.043	30.54
647.165	-0.46
647.287	0.54
647.409	3.54
647.531	24.54
647.654	-0.46
647.776	16.54
647.898	-0.46
648.02	6.54
648.142	-4.46
648.264	-3.46
648.386	-1.46
648.508	-0.46
648.63	19.54
648.752	5.54
648.874	1.54
648.997	12.54
649.119	23.54
649.241	0.54
649.363	34.54
649.485	12.54
649.607	1.54
649.729	-8.46
649.851	-0.46
649.973	-0.46
650.095	15.54
650.217	5.54
650.34	6.54
650.462	20.54
650.584	13.54
650.706	20.54
650.828	23.54
650.95	2.54
651.072	11.54
651.194	-13.46
651.316	-7.46
651.438	9.54
651.56	-3.46
651.683	-2.46
651.805	11.54
651.927	-7.46
652.049	13.54
652.171	-0.46
652.293	9.54
652.415	-1.46
652.537	-11.46
652.659	3.54
652.781	15.54
652.903	21.54
653.026	30.54
653.148	2.54
653.27	-1.46
653.392	18.54
653.514	21.54
653.636	16.54
653.758	18.54
653.88	-4.46
654.002	-0.46
654.124	16.54
654.247	16.54
654.369	35.54
654.491	17.54
654.613	15.54
654.735	20.54
654.857	31.54
654.979	24.54
655.101	34.54
655.223	31.54
655.345	21.54
655.468	28.54
655.59	20.54
655.712	11.54
655.834	18.54
655.956	28.54
656.078	34.54
656.2	40.54
656.322	51.54
656.444	14.54
656.566	45.54
656.689	54.54
656.811	57.54
656.933	87.54
657.055	75.54
657.177	154.54
657.299	275.54
657.421	504.54
657.543	1893.54
657.665	12692.54
657.787	15183.54
657.91	15339.54
658.032	15661.54
658.154	4764.54
658.276	4454.54
658.398	1361.54
658.52	1063.54
658.642	502.54
658.764	589.54
658.886	286.54
659.009	421.54
659.131	212.54
659.253	323.54
659.375	166.54
659.497	236.54
659.619	140.54
659.741	230.54
659.863	106.54
659.985	160.54
660.108	119.54
660.23	150.54
660.352	85.54
660.474	143.54
660.596	79.54
660.718	152.54
660.84	72.54
660.962	124.54
661.084	54.54
661.207	91.54
661.329	71.54
661.451	91.54
661.573	40.54
661.695	104.54
661.817	57.54
661.939	95.54
662.061	64.54
662.184	74.54
662.306	38.54
662.428	84.54
662.55	48.54
662.672	62.54
662.794	53.54
662.916	69.54
663.038	23.54
663.161	69.54
663.283	30.54
663.405	60.54
663.527	26.54
663.649	57.54
663.771	27.54
663.893	58.54
664.015	35.54
664.138	48.54
664.26	22.54
664.382	56.54
664.504	13.54
664.626	10.54
664.748	20.54
664.87	36.54
664.992	36.54
665.115	41.54
665.237	20.54
665.359	36.54
665.481	19.54
665.603	48.54
665.725	21.54
665.847	22.54
665.97	38.54
666.092	61.54
666.214	12.54
666.336	34.54
666.458	34.54
666.58	25.54
666.702	11.54
666.825	18.54
666.947	19.54
667.069	32.54
667.191	16.54
667.313	28.54
667.435	14.54
667.557	24.54
667.68	21.54
667.802	32.54
667.924	-1.46
668.046	25.54
668.168	29.54
668.29	36.54
668.412	19.54
668.535	21.54
668.657	-1.46
668.779	11.54
668.901	14.54
669.023	44.54
669.145	20.54
669.267	38.54
669.39	13.54
669.512	21.54
669.634	8.54
669.756	17.54
669.878	4.54
670	42.54
670.123	7.54
670.245	24.54
670.367	8.54
670.489	42.54
670.611	14.54
670.733	11.54
670.856	7.54
670.978	33.54
671.1	23.54
671.222	16.54
671.344	18.54
671.466	13.54
671.589	8.54
671.711	35.54
671.833	22.54
671.955	12.54
672.077	3.54
672.199	27.54
672.322	27.54
672.444	31.54
672.566	35.54
672.688	-2.46
672.81	18.54
672.932	26.54
673.055	6.54
673.177	7.54
673.299	23.54
673.421	15.54
673.543	10.54
673.665	49.54
673.788	26.54
673.91	10.54
674.032	-6.46
674.154	10.54
674.276	19.54
674.399	0.54
674.521	12.54
674.643	21.54
674.765	-11.46
674.887	11.54
675.009	0.54
675.132	16.54
675.254	14.54
675.376	28.54
675.498	16.54
675.62	32.54
675.743	16.54
675.865	17.54
675.987	10.54
676.109	-1.46
676.231	12.54
676.354	50.54
676.476	15.54
676.598	10.54
676.72	25.54
676.842	22.54
676.965	6.54
677.087	23.54
677.209	19.54
677.331	22.54
677.453	19.54
677.576	16.54
677.698	5.54
677.82	2.54
677.942	10.54
678.064	12.54
678.187	2.54
678.309	12.54
678.431	-6.46
678.553	7.54
678.675	25.54
678.798	38.54
678.92	12.54
679.042	15.54
679.164	3.54
679.286	24.54
679.409	-1.46
679.531	0.54
679.653	4.54
679.775	8.54
679.898	3.54
680.02	1.54
680.142	-1.46
680.264	30.54
680.386	-9.46
680.509	8.54
680.631	10.54
680.753	18.54
680.875	0.54
680.998	18.54
681.12	12.54
681.242	11.54
681.364	1.54
681.486	12.54
681.609	13.54
681.731	2.54
681.853	0.54
681.975	2.54
682.098	6.54
682.22	31.54
682.342	6.54
682.464	30.54
682.587	2.54
682.709	10.54
682.831	0.54
682.953	-8.46
683.076	-7.46
683.198	19.54
683.32	12.54
683.442	7.54
683.565	19.54
683.687	8.54
683.809	3.54
683.931	-1.46
684.054	11.54
684.176	22.54
684.298	18.54
684.42	2.54
684.543	0.54
684.665	22.54
684.787	2.54
684.909	5.54
685.032	20.54
685.154	-2.46
685.276	7.54
685.398	2.54
685.521	-17.46
685.643	-4.46
685.765	5.54
685.887	23.54
686.01	18.54
686.132	15.54
686.254	0.54
686.377	-1.46
686.499	-0.46
686.621	23.54
686.743	3.54
686.866	17.54
686.988	39.54
687.11	4.54
687.232	-2.46
687.355	8.54
687.477	16.54
687.599	21.54
687.722	-3.46
687.844	8.54
687.966	6.54
688.088	14.54
688.211	39.54
688.333	13.54
688.455	9.54
688.578	26.54
688.7	2.54
688.822	9.54
688.944	-8.46
689.067	57.54
689.189	3.54
689.311	4.54
689.434	-12.46
689.556	14.54
689.678	11.54
689.801	9.54
689.923	20.54
690.045	17.54
690.167	31.54
690.29	7.54
690.412	8.54
690.534	18.54
690.657	9.54
690.779	0.54
690.901	14.54
691.024	10.54
691.146	12.54
691.268	-0.46
691.391	6.54
691.513	23.54
691.635	27.54
691.758	15.54
691.88	4.54
692.002	4.54
692.125	0.54
692.247	10.54
692.369	4.54
692.492	4.54
692.614	4.54
692.736	-14.46
692.859	5.54
692.981	6.54
693.103	-1.46
693.226	9.54
693.348	12.54
693.47	2.54
693.593	8.54
693.715	-14.46
693.837	-5.46
693.96	-7.46
694.082	0.54
694.204	11.54
694.327	1.54
694.449	3.54
694.571	-8.46
694.694	32.54
694.816	20.54
694.938	-14.46
695.061	4.54
695.183	7.54
695.305	23.54
695.428	-0.46
695.55	-1.46
695.672	2.54
695.795	11.54
695.917	21.54
696.04	-3.46
696.162	9.54
696.284	10.54
696.407	14.54
696.529	-3.46
696.651	31.54
696.774	3.54
696.896	12.54
697.019	15.54
697.141	5.54
697.263	-3.46
697.386	-1.46
697.508	12.54
697.63	21.54
697.753	18.54
697.875	7.54
697.998	9.54
698.12	7.54
698.242	-0.46
698.365	-1.46
698.487	13.54
698.61	14.54
698.732	-8.46
698.854	9.54
698.977	14.54
699.099	31.54
699.221	4.54
699.344	-8.46
699.466	-6.46
699.589	15.54
699.711	-5.46
699.834	-3.46
699.956	24.54
700.078	0.54
700.201	4.54
700.323	12.54
700.446	27.54
700.568	-3.46
700.69	21.54
700.813	11.54
700.935	10.54
701.058	3.54
701.18	3.54
701.302	-11.46
701.425	-4.46
701.547	7.54
701.67	-10.46
701.792	-5.46
701.915	-8.46
702.037	-9.46
702.159	-3.46
702.282	6.54
702.404	16.54
702.527	18.54
702.649	33.54
702.772	8.54
702.894	15.54
703.017	10.54
703.139	15.54
703.261	24.54
703.384	-1.46
703.506	-11.46
703.629	-7.46
703.751	9.54
703.874	5.54
703.996	4.54
704.119	-19.46
704.241	7.54
704.364	-9.46
704.486	20.54
704.608	0.54
704.731	2.54
704.853	4.54
704.976	-12.46
705.098	1.54
705.221	-19.46
705.343	11.54
705.466	14.54
705.588	18.54
705.711	15.54
705.833	14.54
705.956	7.54
706.078	20.54
706.201	2.54
706.323	9.54
706.446	-5.46
