Data from LowRes_H2_15_26_11_07_2024_HR4C61881__33__15-28-16-937.txt Node

Date: Thu Nov 07 15:28:16 EST 2024
User: crc00042
Spectrometer: HR4C6188
Trigger mode: 4
Integration Time (sec): 1.000000E-1
Scans to average: 1
Electric dark correction enabled: true
Nonlinearity correction enabled: false
Boxcar width: 0
XAxis mode: Wavelengths
Number of Pixels in Spectrum: 3648
>>>>>Begin Spectral Data<<<<<
245.66	-107.69
245.797	-107.69
245.934	-107.69
246.071	-77.69
246.208	5.31
246.344	-1.69
246.481	-23.69
246.618	-15.69
246.755	17.31
246.892	8.31
247.029	-3.69
247.165	4.31
247.302	0.31
247.439	6.31
247.576	-6.69
247.713	-11.69
247.849	33.31
247.986	-6.69
248.123	10.31
248.26	-14.69
248.396	12.31
248.533	8.31
248.67	-7.69
248.806	3.31
248.943	-19.69
249.08	-6.69
249.216	18.31
249.353	-13.69
249.49	-7.69
249.626	5.31
249.763	-12.69
249.9	-20.69
250.036	0.31
250.173	9.31
250.309	10.31
250.446	16.31
250.582	12.31
250.719	-2.69
250.856	-11.69
250.992	-6.69
251.129	7.31
251.265	6.31
251.402	-5.69
251.538	-10.69
251.675	-14.69
251.811	14.31
251.948	21.31
252.084	5.31
252.221	0.31
252.357	-6.69
252.493	15.31
252.63	3.31
252.766	27.31
252.903	-0.69
253.039	-1.69
253.175	0.31
253.312	3.31
253.448	15.31
253.585	-7.69
253.721	8.31
253.857	-13.69
253.994	3.31
254.13	10.31
254.266	21.31
254.403	11.31
254.539	19.31
254.675	18.31
254.811	13.31
254.948	-21.69
255.084	-13.69
255.22	-18.69
255.356	7.31
255.493	24.31
255.629	19.31
255.765	2.31
255.901	16.31
256.037	5.31
256.174	13.31
256.31	-2.69
256.446	3.31
256.582	-6.69
256.718	5.31
256.854	10.31
256.991	16.31
257.127	18.31
257.263	2.31
257.399	1.31
257.535	-7.69
257.671	-6.69
257.807	-6.69
257.943	-17.69
258.079	-9.69
258.215	-24.69
258.351	-0.69
258.487	-9.69
258.623	12.31
258.759	1.31
258.895	5.31
259.031	-1.69
259.167	-33.69
259.303	-10.69
259.439	-10.69
259.575	-7.69
259.711	2.31
259.847	-7.69
259.983	10.31
260.119	-6.69
260.255	16.31
260.391	15.31
260.527	-2.69
260.663	23.31
260.799	0.31
260.934	-12.69
261.07	1.31
261.206	-18.69
261.342	-3.69
261.478	15.31
261.614	10.31
261.749	-4.69
261.885	-4.69
262.021	2.31
262.157	4.31
262.293	1.31
262.428	-11.69
262.564	2.31
262.7	5.31
262.836	0.31
262.971	33.31
263.107	9.31
263.243	20.31
263.378	-10.69
263.514	-8.69
263.65	-1.69
263.785	-12.69
263.921	-3.69
264.057	-7.69
264.192	1.31
264.328	3.31
264.464	-12.69
264.599	8.31
264.735	17.31
264.871	-7.69
265.006	2.31
265.142	-8.69
265.277	4.31
265.413	17.31
265.548	28.31
265.684	-1.69
265.819	7.31
265.955	-18.69
266.091	-19.69
266.226	-13.69
266.362	-11.69
266.497	7.31
266.633	4.31
266.768	-12.69
266.903	9.31
267.039	3.31
267.174	19.31
267.31	1.31
267.445	-0.69
267.581	18.31
267.716	6.31
267.851	-1.69
267.987	33.31
268.122	36.31
268.258	-7.69
268.393	6.31
268.528	2.31
268.664	-7.69
268.799	1.31
268.934	-1.69
269.07	-7.69
269.205	-5.69
269.34	14.31
269.476	-3.69
269.611	-7.69
269.746	1.31
269.881	-0.69
270.017	25.31
270.152	12.31
270.287	7.31
270.422	12.31
270.558	-4.69
270.693	7.31
270.828	-3.69
270.963	-7.69
271.098	1.31
271.234	23.31
271.369	17.31
271.504	15.31
271.639	-17.69
271.774	14.31
271.909	17.31
272.045	-21.69
272.18	-6.69
272.315	9.31
272.45	13.31
272.585	-18.69
272.72	2.31
272.855	-8.69
272.99	12.31
273.125	-10.69
273.26	0.31
273.395	-0.69
273.53	-7.69
273.665	9.31
273.8	-1.69
273.935	4.31
274.07	-1.69
274.205	10.31
274.34	-2.69
274.475	-7.69
274.61	28.31
274.745	8.31
274.88	19.31
275.015	-3.69
275.15	1.31
275.285	5.31
275.42	-4.69
275.555	21.31
275.69	17.31
275.825	-9.69
275.959	24.31
276.094	0.31
276.229	-0.69
276.364	-5.69
276.499	3.31
276.634	-17.69
276.768	2.31
276.903	-9.69
277.038	2.31
277.173	6.31
277.308	5.31
277.442	-6.69
277.577	-4.69
277.712	7.31
277.847	2.31
277.981	12.31
278.116	-29.69
278.251	20.31
278.386	27.31
278.52	5.31
278.655	14.31
278.79	19.31
278.924	8.31
279.059	-4.69
279.194	-8.69
279.328	27.31
279.463	8.31
279.598	6.31
279.732	18.31
279.867	10.31
280.001	5.31
280.136	2.31
280.271	11.31
280.405	13.31
280.54	-1.69
280.674	-12.69
280.809	8.31
280.943	-8.69
281.078	8.31
281.213	16.31
281.347	15.31
281.482	3.31
281.616	6.31
281.751	5.31
281.885	-6.69
282.02	-3.69
282.154	-4.69
282.288	-8.69
282.423	4.31
282.557	-17.69
282.692	7.31
282.826	8.31
282.961	1.31
283.095	-4.69
283.229	-3.69
283.364	-8.69
283.498	5.31
283.633	2.31
283.767	3.31
283.901	-4.69
284.036	-9.69
284.17	-3.69
284.304	-13.69
284.439	-4.69
284.573	-5.69
284.707	7.31
284.842	7.31
284.976	2.31
285.11	0.31
285.244	15.31
285.379	51.31
285.513	-11.69
285.647	32.31
285.781	-2.69
285.916	8.31
286.05	3.31
286.184	35.31
286.318	10.31
286.453	-17.69
286.587	-11.69
286.721	-18.69
286.855	8.31
286.989	12.31
287.123	2.31
287.258	-8.69
287.392	-1.69
287.526	0.31
287.66	21.31
287.794	7.31
287.928	-7.69
288.062	11.31
288.196	7.31
288.33	-2.69
288.464	12.31
288.598	22.31
288.733	18.31
288.867	3.31
289.001	7.31
289.135	1.31
289.269	3.31
289.403	10.31
289.537	1.31
289.671	16.31
289.805	-13.69
289.939	-0.69
290.073	11.31
290.207	18.31
290.34	-15.69
290.474	9.31
290.608	9.31
290.742	8.31
290.876	-4.69
291.01	2.31
291.144	27.31
291.278	-1.69
291.412	20.31
291.546	4.31
291.679	-21.69
291.813	-13.69
291.947	-2.69
292.081	-2.69
292.215	11.31
292.349	10.31
292.482	4.31
292.616	2.31
292.75	1.31
292.884	18.31
293.018	9.31
293.151	-4.69
293.285	26.31
293.419	6.31
293.553	-3.69
293.686	2.31
293.82	4.31
293.954	18.31
294.088	12.31
294.221	3.31
294.355	-5.69
294.489	15.31
294.622	-5.69
294.756	0.31
294.89	14.31
295.023	28.31
295.157	16.31
295.291	8.31
295.424	17.31
295.558	11.31
295.691	3.31
295.825	1.31
295.959	1.31
296.092	12.31
296.226	15.31
296.359	4.31
296.493	12.31
296.627	10.31
296.76	-11.69
296.894	-2.69
297.027	2.31
297.161	-18.69
297.294	-27.69
297.428	-10.69
297.561	33.31
297.695	-5.69
297.828	-1.69
297.962	-7.69
298.095	-5.69
298.229	16.31
298.362	5.31
298.495	-9.69
298.629	-19.69
298.762	-10.69
298.896	16.31
299.029	-1.69
299.162	-4.69
299.296	11.31
299.429	4.31
299.563	16.31
299.696	5.31
299.829	15.31
299.963	13.31
300.096	23.31
300.229	16.31
300.363	-0.69
300.496	13.31
300.629	-15.69
300.763	-4.69
300.896	3.31
301.029	4.31
301.162	-1.69
301.296	-6.69
301.429	16.31
301.562	-21.69
301.695	-0.69
301.829	-4.69
301.962	4.31
302.095	2.31
302.228	-23.69
302.362	21.31
302.495	-8.69
302.628	13.31
302.761	-1.69
302.894	24.31
303.027	25.31
303.161	-13.69
303.294	-19.69
303.427	19.31
303.56	-5.69
303.693	-10.69
303.826	7.31
303.959	-5.69
304.092	-1.69
304.225	2.31
304.359	2.31
304.492	15.31
304.625	-13.69
304.758	8.31
304.891	-5.69
305.024	-5.69
305.157	-13.69
305.29	-0.69
305.423	-11.69
305.556	4.31
305.689	26.31
305.822	-3.69
305.955	3.31
306.088	-12.69
306.221	-3.69
306.354	-2.69
306.487	-14.69
306.62	-10.69
306.752	-7.69
306.885	0.31
307.018	-10.69
307.151	19.31
307.284	9.31
307.417	-20.69
307.55	14.31
307.683	5.31
307.816	14.31
307.948	-2.69
308.081	22.31
308.214	22.31
308.347	26.31
308.48	-0.69
308.613	-22.69
308.745	8.31
308.878	10.31
309.011	10.31
309.144	-0.69
309.277	-3.69
309.409	24.31
309.542	9.31
309.675	5.31
309.808	17.31
309.94	25.31
310.073	0.31
310.206	-13.69
310.339	4.31
310.471	-9.69
310.604	24.31
310.737	-5.69
310.869	9.31
311.002	-4.69
311.135	-5.69
311.267	-13.69
311.4	-8.69
311.533	18.31
311.665	0.31
311.798	-0.69
311.93	15.31
312.063	19.31
312.196	17.31
312.328	10.31
312.461	1.31
312.593	4.31
312.726	6.31
312.859	20.31
312.991	14.31
313.124	-8.69
313.256	10.31
313.389	11.31
313.521	9.31
313.654	-15.69
313.786	-10.69
313.919	-3.69
314.051	-14.69
314.184	18.31
314.316	8.31
314.449	-10.69
314.581	-5.69
314.714	-12.69
314.846	11.31
314.978	-10.69
315.111	-8.69
315.243	22.31
315.376	13.31
315.508	7.31
315.641	9.31
315.773	28.31
315.905	6.31
316.038	11.31
316.17	11.31
316.302	4.31
316.435	3.31
316.567	-6.69
316.699	34.31
316.832	-6.69
316.964	-11.69
317.096	-2.69
317.229	6.31
317.361	-7.69
317.493	-7.69
317.625	-18.69
317.758	20.31
317.89	13.31
318.022	11.31
318.155	-9.69
318.287	11.31
318.419	8.31
318.551	-22.69
318.683	2.31
318.816	-6.69
318.948	4.31
319.08	-0.69
319.212	8.31
319.344	26.31
319.477	-2.69
319.609	0.31
319.741	28.31
319.873	-1.69
320.005	-1.69
320.137	9.31
320.269	28.31
320.401	16.31
320.534	4.31
320.666	-17.69
320.798	-17.69
320.93	-16.69
321.062	-18.69
321.194	-14.69
321.326	-3.69
321.458	-0.69
321.59	2.31
321.722	-12.69
321.854	-3.69
321.986	2.31
322.118	20.31
322.25	-14.69
322.382	-4.69
322.514	-8.69
322.646	-18.69
322.778	25.31
322.91	-16.69
323.042	-1.69
323.174	4.31
323.306	-7.69
323.438	0.31
323.57	3.31
323.702	-1.69
323.834	5.31
323.966	-11.69
324.097	4.31
324.229	24.31
324.361	28.31
324.493	13.31
324.625	4.31
324.757	16.31
324.889	-4.69
325.021	1.31
325.152	16.31
325.284	16.31
325.416	-9.69
325.548	4.31
325.68	-2.69
325.811	36.31
325.943	9.31
326.075	0.31
326.207	7.31
326.339	-0.69
326.47	-13.69
326.602	-9.69
326.734	3.31
326.866	5.31
326.997	-15.69
327.129	1.31
327.261	-15.69
327.392	-4.69
327.524	4.31
327.656	14.31
327.787	20.31
327.919	-0.69
328.051	-0.69
328.182	20.31
328.314	26.31
328.446	-3.69
328.577	21.31
328.709	23.31
328.841	-7.69
328.972	-12.69
329.104	-4.69
329.235	-1.69
329.367	-2.69
329.499	11.31
329.63	-2.69
329.762	-1.69
329.893	6.31
330.025	2.31
330.156	-3.69
330.288	13.31
330.419	14.31
330.551	6.31
330.683	8.31
330.814	5.31
330.946	16.31
331.077	-9.69
331.208	-13.69
331.34	2.31
331.471	0.31
331.603	1.31
331.734	-15.69
331.866	-7.69
331.997	8.31
332.129	3.31
332.26	-8.69
332.392	13.31
332.523	1.31
332.654	-18.69
332.786	-19.69
332.917	-13.69
333.048	13.31
333.18	13.31
333.311	-2.69
333.443	-4.69
333.574	-6.69
333.705	17.31
333.837	0.31
333.968	17.31
334.099	18.31
334.231	19.31
334.362	-15.69
334.493	22.31
334.624	13.31
334.756	21.31
334.887	11.31
335.018	9.31
335.15	12.31
335.281	15.31
335.412	14.31
335.543	15.31
335.675	1.31
335.806	-1.69
335.937	6.31
336.068	5.31
336.199	41.31
336.331	22.31
336.462	8.31
336.593	22.31
336.724	1.31
336.855	7.31
336.986	9.31
337.118	9.31
337.249	2.31
337.38	12.31
337.511	2.31
337.642	14.31
337.773	-8.69
337.904	2.31
338.035	4.31
338.166	13.31
338.298	41.31
338.429	6.31
338.56	12.31
338.691	20.31
338.822	1.31
338.953	2.31
339.084	5.31
339.215	5.31
339.346	1.31
339.477	13.31
339.608	16.31
339.739	-5.69
339.87	26.31
340.001	-5.69
340.132	25.31
340.263	7.31
340.394	12.31
340.525	1.31
340.656	-2.69
340.787	-13.69
340.918	18.31
341.049	6.31
341.179	-1.69
341.31	11.31
341.441	-11.69
341.572	15.31
341.703	-3.69
341.834	-31.69
341.965	-3.69
342.096	8.31
342.227	21.31
342.357	11.31
342.488	10.31
342.619	14.31
342.75	-0.69
342.881	-7.69
343.012	10.31
343.142	16.31
343.273	-10.69
343.404	9.31
343.535	30.31
343.666	5.31
343.796	20.31
343.927	13.31
344.058	14.31
344.189	4.31
344.319	8.31
344.45	-3.69
344.581	1.31
344.712	-29.69
344.842	-8.69
344.973	-3.69
345.104	18.31
345.234	-5.69
345.365	3.31
345.496	12.31
345.626	22.31
345.757	28.31
345.888	-7.69
346.018	28.31
346.149	8.31
346.28	31.31
346.41	-15.69
346.541	18.31
346.672	9.31
346.802	23.31
346.933	10.31
347.063	3.31
347.194	-19.69
347.325	-1.69
347.455	3.31
347.586	2.31
347.716	6.31
347.847	21.31
347.977	8.31
348.108	12.31
348.238	0.31
348.369	22.31
348.499	26.31
348.63	4.31
348.76	-0.69
348.891	3.31
349.021	14.31
349.152	5.31
349.282	5.31
349.413	-9.69
349.543	-0.69
349.674	23.31
349.804	2.31
349.935	-14.69
350.065	3.31
350.196	11.31
350.326	4.31
350.456	-4.69
350.587	23.31
350.717	8.31
350.848	1.31
350.978	2.31
351.108	-6.69
351.239	14.31
351.369	5.31
351.499	-0.69
351.63	14.31
351.76	15.31
351.89	-5.69
352.021	5.31
352.151	-18.69
352.281	4.31
352.412	8.31
352.542	13.31
352.672	2.31
352.803	6.31
352.933	10.31
353.063	17.31
353.193	9.31
353.324	2.31
353.454	22.31
353.584	6.31
353.714	-6.69
353.845	11.31
353.975	6.31
354.105	9.31
354.235	10.31
354.365	-5.69
354.496	3.31
354.626	14.31
354.756	9.31
354.886	14.31
355.016	-3.69
355.146	6.31
355.277	14.31
355.407	11.31
355.537	-10.69
355.667	1.31
355.797	-19.69
355.927	-3.69
356.057	20.31
356.187	4.31
356.318	-3.69
356.448	14.31
356.578	21.31
356.708	13.31
356.838	1.31
356.968	2.31
357.098	21.31
357.228	9.31
357.358	-13.69
357.488	0.31
357.618	16.31
357.748	23.31
357.878	23.31
358.008	6.31
358.138	3.31
358.268	-5.69
358.398	1.31
358.528	-3.69
358.658	13.31
358.788	8.31
358.918	2.31
359.048	8.31
359.178	30.31
359.308	7.31
359.438	28.31
359.568	18.31
359.698	9.31
359.827	-9.69
359.957	13.31
360.087	5.31
360.217	1.31
360.347	4.31
360.477	16.31
360.607	-1.69
360.737	-1.69
360.866	10.31
360.996	4.31
361.126	-7.69
361.256	18.31
361.386	22.31
361.516	42.31
361.645	-12.69
361.775	7.31
361.905	-13.69
362.035	2.31
362.165	-1.69
362.294	12.31
362.424	21.31
362.554	12.31
362.684	6.31
362.813	4.31
362.943	0.31
363.073	-3.69
363.203	1.31
363.332	2.31
363.462	-25.69
363.592	22.31
363.721	25.31
363.851	4.31
363.981	4.31
364.111	-6.69
364.24	-10.69
364.37	5.31
364.5	16.31
364.629	7.31
364.759	-5.69
364.888	-2.69
365.018	-8.69
365.148	9.31
365.277	17.31
365.407	-5.69
365.537	17.31
365.666	-1.69
365.796	-6.69
365.925	-6.69
366.055	-2.69
366.184	1.31
366.314	19.31
366.444	-10.69
366.573	7.31
366.703	-7.69
366.832	8.31
366.962	17.31
367.091	33.31
367.221	22.31
367.35	21.31
367.48	31.31
367.609	0.31
367.739	2.31
367.868	0.31
367.998	-1.69
368.127	16.31
368.257	8.31
368.386	19.31
368.516	13.31
368.645	6.31
368.775	3.31
368.904	4.31
369.033	-3.69
369.163	-2.69
369.292	27.31
369.422	5.31
369.551	17.31
369.68	16.31
369.81	8.31
369.939	-3.69
370.069	26.31
370.198	16.31
370.327	-3.69
370.457	-1.69
370.586	4.31
370.715	5.31
370.845	-13.69
370.974	3.31
371.103	19.31
371.233	20.31
371.362	14.31
371.491	-10.69
371.621	26.31
371.75	-5.69
371.879	-5.69
372.008	-0.69
372.138	26.31
372.267	12.31
372.396	-2.69
372.525	6.31
372.655	11.31
372.784	3.31
372.913	1.31
373.042	12.31
373.172	26.31
373.301	-6.69
373.43	-15.69
373.559	4.31
373.688	17.31
373.818	38.31
373.947	33.31
374.076	-6.69
374.205	8.31
374.334	3.31
374.463	3.31
374.593	10.31
374.722	-0.69
374.851	16.31
374.98	0.31
375.109	-9.69
375.238	8.31
375.367	31.31
375.496	-12.69
375.625	-17.69
375.755	13.31
375.884	9.31
376.013	15.31
376.142	2.31
376.271	-10.69
376.4	8.31
376.529	2.31
376.658	28.31
376.787	4.31
376.916	11.31
377.045	-7.69
377.174	7.31
377.303	15.31
377.432	32.31
377.561	6.31
377.69	-11.69
377.819	16.31
377.948	4.31
378.077	1.31
378.206	-2.69
378.335	-1.69
378.464	4.31
378.593	16.31
378.722	-6.69
378.851	13.31
378.98	23.31
379.108	-8.69
379.237	-21.69
379.366	5.31
379.495	24.31
379.624	19.31
379.753	19.31
379.882	1.31
380.011	16.31
380.14	12.31
380.268	17.31
380.397	-14.69
380.526	23.31
380.655	-2.69
380.784	-14.69
380.913	1.31
381.041	2.31
381.17	-13.69
381.299	-1.69
381.428	11.31
381.557	7.31
381.685	-10.69
381.814	10.31
381.943	-1.69
382.072	-15.69
382.2	-1.69
382.329	18.31
382.458	8.31
382.587	32.31
382.715	19.31
382.844	26.31
382.973	10.31
383.102	13.31
383.23	10.31
383.359	-5.69
383.488	6.31
383.616	11.31
383.745	-5.69
383.874	1.31
384.003	7.31
384.131	6.31
384.26	12.31
384.389	9.31
384.517	-10.69
384.646	-5.69
384.774	-1.69
384.903	31.31
385.032	27.31
385.16	8.31
385.289	15.31
385.418	-15.69
385.546	4.31
385.675	12.31
385.803	4.31
385.932	5.31
386.06	-18.69
386.189	0.31
386.318	9.31
386.446	11.31
386.575	15.31
386.703	7.31
386.832	3.31
386.96	-24.69
387.089	25.31
387.217	-2.69
387.346	-7.69
387.474	16.31
387.603	7.31
387.731	8.31
387.86	4.31
387.988	9.31
388.117	19.31
388.245	22.31
388.374	8.31
388.502	1.31
388.631	-6.69
388.759	-5.69
388.888	7.31
389.016	9.31
389.144	-3.69
389.273	0.31
389.401	-9.69
389.53	-14.69
389.658	-0.69
389.786	1.31
389.915	5.31
390.043	2.31
390.172	1.31
390.3	18.31
390.428	23.31
390.557	-11.69
390.685	14.31
390.813	6.31
390.942	9.31
391.07	-9.69
391.198	-7.69
391.327	10.31
391.455	-12.69
391.583	6.31
391.712	4.31
391.84	7.31
391.968	-9.69
392.096	1.31
392.225	2.31
392.353	6.31
392.481	4.31
392.609	17.31
392.738	17.31
392.866	22.31
392.994	-4.69
393.122	21.31
393.251	5.31
393.379	-1.69
393.507	0.31
393.635	-13.69
393.764	4.31
393.892	20.31
394.02	-7.69
394.148	5.31
394.276	0.31
394.404	16.31
394.533	12.31
394.661	-3.69
394.789	14.31
394.917	24.31
395.045	-4.69
395.173	-9.69
395.302	22.31
395.43	0.31
395.558	8.31
395.686	11.31
395.814	18.31
395.942	-5.69
396.07	-7.69
396.198	-2.69
396.326	13.31
396.454	17.31
396.582	14.31
396.711	6.31
396.839	8.31
396.967	21.31
397.095	22.31
397.223	26.31
397.351	25.31
397.479	20.31
397.607	14.31
397.735	5.31
397.863	18.31
397.991	13.31
398.119	-10.69
398.247	-3.69
398.375	-10.69
398.503	10.31
398.631	1.31
398.759	2.31
398.887	17.31
399.015	-9.69
399.143	2.31
399.271	9.31
399.399	0.31
399.526	-5.69
399.654	11.31
399.782	-1.69
399.91	28.31
400.038	29.31
400.166	8.31
400.294	5.31
400.422	-1.69
400.55	12.31
400.678	3.31
400.805	-1.69
400.933	5.31
401.061	13.31
401.189	-0.69
401.317	20.31
401.445	36.31
401.573	30.31
401.7	-7.69
401.828	0.31
401.956	4.31
402.084	2.31
402.212	11.31
402.34	2.31
402.467	2.31
402.595	3.31
402.723	15.31
402.851	37.31
402.978	0.31
403.106	10.31
403.234	13.31
403.362	33.31
403.489	35.31
403.617	8.31
403.745	12.31
403.873	2.31
404	8.31
404.128	-2.69
404.256	11.31
404.384	2.31
404.511	9.31
404.639	8.31
404.767	-3.69
404.894	18.31
405.022	22.31
405.15	17.31
405.277	-10.69
405.405	-7.69
405.533	2.31
405.66	16.31
405.788	-9.69
405.916	-9.69
406.043	-17.69
406.171	-10.69
406.299	4.31
406.426	4.31
406.554	9.31
406.681	8.31
406.809	14.31
406.937	-0.69
407.064	-14.69
407.192	24.31
407.319	11.31
407.447	9.31
407.574	35.31
407.702	24.31
407.83	5.31
407.957	6.31
408.085	10.31
408.212	12.31
408.34	22.31
408.467	10.31
408.595	12.31
408.722	19.31
408.85	17.31
408.977	-0.69
409.105	-0.69
409.232	7.31
409.36	11.31
409.487	1.31
409.615	8.31
409.742	27.31
409.87	24.31
409.997	31.31
410.125	38.31
410.252	57.31
410.379	41.31
410.507	25.31
410.634	16.31
410.762	15.31
410.889	29.31
411.017	17.31
411.144	31.31
411.271	1.31
411.399	9.31
411.526	-0.69
411.653	32.31
411.781	28.31
411.908	16.31
412.036	-10.69
412.163	28.31
412.29	29.31
412.418	17.31
412.545	18.31
412.672	2.31
412.8	26.31
412.927	17.31
413.054	-0.69
413.182	8.31
413.309	22.31
413.436	-1.69
413.564	10.31
413.691	26.31
413.818	22.31
413.945	8.31
414.073	-2.69
414.2	22.31
414.327	11.31
414.454	16.31
414.582	5.31
414.709	-10.69
414.836	6.31
414.963	10.31
415.091	13.31
415.218	0.31
415.345	7.31
415.472	11.31
415.6	-7.69
415.727	9.31
415.854	-1.69
415.981	5.31
416.108	11.31
416.236	19.31
416.363	20.31
416.49	5.31
416.617	3.31
416.744	12.31
416.871	9.31
416.998	2.31
417.126	0.31
417.253	-6.69
417.38	3.31
417.507	8.31
417.634	12.31
417.761	21.31
417.888	3.31
418.015	22.31
418.143	10.31
418.27	38.31
418.397	11.31
418.524	-1.69
418.651	-9.69
418.778	2.31
418.905	25.31
419.032	26.31
419.159	-4.69
419.286	32.31
419.413	18.31
419.54	34.31
419.667	19.31
419.794	1.31
419.921	24.31
420.048	10.31
420.175	8.31
420.302	8.31
420.429	3.31
420.556	-13.69
420.683	3.31
420.81	-6.69
420.937	17.31
421.064	18.31
421.191	12.31
421.318	19.31
421.445	35.31
421.572	10.31
421.699	22.31
421.826	5.31
421.953	13.31
422.08	-0.69
422.207	4.31
422.334	-15.69
422.461	24.31
422.588	14.31
422.714	25.31
422.841	28.31
422.968	17.31
423.095	3.31
423.222	-4.69
423.349	36.31
423.476	40.31
423.603	-1.69
423.729	4.31
423.856	20.31
423.983	24.31
424.11	15.31
424.237	0.31
424.364	30.31
424.491	7.31
424.617	-12.69
424.744	2.31
424.871	10.31
424.998	7.31
425.125	0.31
425.251	5.31
425.378	16.31
425.505	22.31
425.632	19.31
425.758	1.31
425.885	19.31
426.012	8.31
426.139	28.31
426.266	22.31
426.392	3.31
426.519	4.31
426.646	10.31
426.772	33.31
426.899	2.31
427.026	11.31
427.153	13.31
427.279	14.31
427.406	23.31
427.533	5.31
427.659	9.31
427.786	-7.69
427.913	33.31
428.039	6.31
428.166	3.31
428.293	20.31
428.419	12.31
428.546	5.31
428.673	-3.69
428.799	-16.69
428.926	11.31
429.053	31.31
429.179	6.31
429.306	10.31
429.433	18.31
429.559	24.31
429.686	2.31
429.812	-2.69
429.939	-9.69
430.066	-2.69
430.192	-2.69
430.319	15.31
430.445	15.31
430.572	15.31
430.699	0.31
430.825	0.31
430.952	19.31
431.078	18.31
431.205	19.31
431.331	-6.69
431.458	17.31
431.584	17.31
431.711	2.31
431.837	17.31
431.964	20.31
432.09	9.31
432.217	-5.69
432.343	-16.69
432.47	8.31
432.596	-7.69
432.723	3.31
432.849	-2.69
432.976	14.31
433.102	16.31
433.229	3.31
433.355	21.31
433.482	72.31
433.608	172.31
433.735	127.31
433.861	108.31
433.987	150.31
434.114	213.31
434.24	203.31
434.367	78.31
434.493	-1.69
434.62	24.31
434.746	15.31
434.872	10.31
434.999	5.31
435.125	16.31
435.252	9.31
435.378	21.31
435.504	14.31
435.631	29.31
435.757	14.31
435.883	7.31
436.01	15.31
436.136	15.31
436.262	6.31
436.389	11.31
436.515	9.31
436.641	12.31
436.768	17.31
436.894	17.31
437.02	22.31
437.147	38.31
437.273	11.31
437.399	-2.69
437.526	22.31
437.652	11.31
437.778	30.31
437.904	-2.69
438.031	7.31
438.157	8.31
438.283	8.31
438.409	-11.69
438.536	1.31
438.662	28.31
438.788	16.31
438.914	1.31
439.041	17.31
439.167	39.31
439.293	5.31
439.419	19.31
439.546	11.31
439.672	-6.69
439.798	30.31
439.924	31.31
440.05	15.31
440.177	21.31
440.303	8.31
440.429	3.31
440.555	21.31
440.681	9.31
440.807	23.31
440.934	0.31
441.06	-3.69
441.186	15.31
441.312	-10.69
441.438	8.31
441.564	21.31
441.69	19.31
441.816	10.31
441.943	14.31
442.069	14.31
442.195	1.31
442.321	15.31
442.447	-3.69
442.573	13.31
442.699	-1.69
442.825	0.31
442.951	14.31
443.077	26.31
443.203	20.31
443.33	-1.69
443.456	-11.69
443.582	28.31
443.708	14.31
443.834	29.31
443.96	29.31
444.086	13.31
444.212	31.31
444.338	28.31
444.464	31.31
444.59	33.31
444.716	14.31
444.842	7.31
444.968	-5.69
445.094	-3.69
445.22	13.31
445.346	-3.69
445.472	0.31
445.598	16.31
445.724	12.31
445.85	-3.69
445.976	21.31
446.102	19.31
446.228	20.31
446.354	1.31
446.48	0.31
446.605	-3.69
446.731	1.31
446.857	-2.69
446.983	5.31
447.109	1.31
447.235	6.31
447.361	-6.69
447.487	5.31
447.613	-4.69
447.739	4.31
447.865	-6.69
447.99	19.31
448.116	4.31
448.242	4.31
448.368	6.31
448.494	-1.69
448.62	20.31
448.746	7.31
448.872	18.31
448.997	1.31
449.123	-4.69
449.249	16.31
449.375	10.31
449.501	-12.69
449.627	-8.69
449.752	28.31
449.878	4.31
450.004	1.31
450.13	12.31
450.256	6.31
450.381	-3.69
450.507	25.31
450.633	17.31
450.759	26.31
450.884	0.31
451.01	11.31
451.136	2.31
451.262	13.31
451.388	13.31
451.513	12.31
451.639	11.31
451.765	-3.69
451.89	25.31
452.016	18.31
452.142	11.31
452.268	18.31
452.393	28.31
452.519	-8.69
452.645	26.31
452.771	21.31
452.896	6.31
453.022	4.31
453.148	12.31
453.273	20.31
453.399	30.31
453.525	1.31
453.65	2.31
453.776	12.31
453.902	28.31
454.027	27.31
454.153	19.31
454.279	24.31
454.404	0.31
454.53	34.31
454.656	52.31
454.781	2.31
454.907	6.31
455.032	0.31
455.158	32.31
455.284	29.31
455.409	7.31
455.535	16.31
455.66	34.31
455.786	34.31
455.912	28.31
456.037	4.31
456.163	18.31
456.288	17.31
456.414	-9.69
456.539	4.31
456.665	25.31
456.791	18.31
456.916	13.31
457.042	12.31
457.167	-6.69
457.293	15.31
457.418	10.31
457.544	13.31
457.669	5.31
457.795	6.31
457.92	0.31
458.046	1.31
458.171	22.31
458.297	8.31
458.422	-7.69
458.548	9.31
458.673	21.31
458.799	-2.69
458.924	9.31
459.05	14.31
459.175	18.31
459.301	-9.69
459.426	21.31
459.552	14.31
459.677	4.31
459.803	41.31
459.928	18.31
460.053	2.31
460.179	18.31
460.304	30.31
460.43	-0.69
460.555	8.31
460.681	-14.69
460.806	15.31
460.931	22.31
461.057	33.31
461.182	14.31
461.308	24.31
461.433	26.31
461.558	1.31
461.684	29.31
461.809	27.31
461.934	22.31
462.06	17.31
462.185	-2.69
462.311	29.31
462.436	16.31
462.561	14.31
462.687	19.31
462.812	13.31
462.937	-4.69
463.063	4.31
463.188	3.31
463.313	12.31
463.439	0.31
463.564	16.31
463.689	28.31
463.814	24.31
463.94	1.31
464.065	20.31
464.19	10.31
464.316	2.31
464.441	5.31
464.566	6.31
464.692	20.31
464.817	17.31
464.942	7.31
465.067	3.31
465.193	-7.69
465.318	19.31
465.443	10.31
465.568	1.31
465.694	11.31
465.819	39.31
465.944	16.31
466.069	27.31
466.194	20.31
466.32	28.31
466.445	30.31
466.57	1.31
466.695	1.31
466.82	8.31
466.946	6.31
467.071	-0.69
467.196	-3.69
467.321	13.31
467.446	19.31
467.572	12.31
467.697	4.31
467.822	16.31
467.947	27.31
468.072	12.31
468.197	0.31
468.323	-14.69
468.448	8.31
468.573	-8.69
468.698	-1.69
468.823	15.31
468.948	25.31
469.073	9.31
469.198	22.31
469.324	30.31
469.449	1.31
469.574	14.31
469.699	14.31
469.824	12.31
469.949	28.31
470.074	19.31
470.199	46.31
470.324	40.31
470.449	30.31
470.574	6.31
470.7	12.31
470.825	27.31
470.95	20.31
471.075	0.31
471.2	19.31
471.325	34.31
471.45	-3.69
471.575	1.31
471.7	2.31
471.825	-6.69
471.95	-6.69
472.075	-4.69
472.2	10.31
472.325	10.31
472.45	5.31
472.575	7.31
472.7	14.31
472.825	44.31
472.95	30.31
473.075	7.31
473.2	4.31
473.325	13.31
473.45	4.31
473.575	8.31
473.7	12.31
473.825	11.31
473.95	9.31
474.075	17.31
474.2	7.31
474.325	13.31
474.45	17.31
474.574	17.31
474.699	34.31
474.824	15.31
474.949	6.31
475.074	1.31
475.199	2.31
475.324	22.31
475.449	12.31
475.574	12.31
475.699	14.31
475.824	-0.69
475.949	17.31
476.073	8.31
476.198	3.31
476.323	20.31
476.448	8.31
476.573	8.31
476.698	14.31
476.823	1.31
476.947	18.31
477.072	12.31
477.197	4.31
477.322	3.31
477.447	-5.69
477.572	18.31
477.697	-5.69
477.821	25.31
477.946	36.31
478.071	37.31
478.196	30.31
478.321	22.31
478.445	9.31
478.57	16.31
478.695	18.31
478.82	25.31
478.945	11.31
479.069	-6.69
479.194	-3.69
479.319	12.31
479.444	4.31
479.569	12.31
479.693	14.31
479.818	4.31
479.943	23.31
480.068	37.31
480.192	34.31
480.317	7.31
480.442	5.31
480.567	-3.69
480.691	5.31
480.816	14.31
480.941	10.31
481.066	20.31
481.19	23.31
481.315	24.31
481.44	16.31
481.564	7.31
481.689	24.31
481.814	19.31
481.938	6.31
482.063	0.31
482.188	29.31
482.313	34.31
482.437	14.31
482.562	19.31
482.687	17.31
482.811	29.31
482.936	34.31
483.061	21.31
483.185	24.31
483.31	26.31
483.435	33.31
483.559	29.31
483.684	5.31
483.808	34.31
483.933	10.31
484.058	25.31
484.182	17.31
484.307	-6.69
484.432	27.31
484.556	9.31
484.681	32.31
484.805	25.31
484.93	20.31
485.055	52.31
485.179	66.31
485.304	116.31
485.428	375.31
485.553	1254.31
485.678	1737.31
485.802	1606.31
485.927	1815.31
486.051	2667.31
486.176	1591.31
486.3	438.31
486.425	150.31
486.549	93.31
486.674	59.31
486.799	59.31
486.923	9.31
487.048	24.31
487.172	31.31
487.297	17.31
487.421	26.31
487.546	24.31
487.67	6.31
487.795	17.31
487.919	7.31
488.044	10.31
488.168	27.31
488.293	13.31
488.417	-8.69
488.542	10.31
488.666	15.31
488.791	8.31
488.915	-3.69
489.04	25.31
489.164	21.31
489.289	30.31
489.413	20.31
489.538	17.31
489.662	34.31
489.786	4.31
489.911	-4.69
490.035	11.31
490.16	1.31
490.284	19.31
490.409	-13.69
490.533	6.31
490.658	36.31
490.782	14.31
490.906	24.31
491.031	26.31
491.155	15.31
491.28	10.31
491.404	6.31
491.528	42.31
491.653	21.31
491.777	28.31
491.902	13.31
492.026	11.31
492.15	18.31
492.275	33.31
492.399	29.31
492.524	13.31
492.648	18.31
492.772	10.31
492.897	28.31
493.021	9.31
493.145	29.31
493.27	22.31
493.394	7.31
493.518	6.31
493.643	6.31
493.767	26.31
493.891	1.31
494.016	0.31
494.14	12.31
494.264	25.31
494.389	30.31
494.513	13.31
494.637	2.31
494.762	19.31
494.886	28.31
495.01	19.31
495.134	15.31
495.259	43.31
495.383	24.31
495.507	17.31
495.632	26.31
495.756	31.31
495.88	26.31
496.004	23.31
496.129	-2.69
496.253	29.31
496.377	18.31
496.501	17.31
496.626	-1.69
496.75	26.31
496.874	15.31
496.998	9.31
497.123	8.31
497.247	9.31
497.371	5.31
497.495	21.31
497.62	14.31
497.744	-3.69
497.868	6.31
497.992	20.31
498.116	22.31
498.241	32.31
498.365	15.31
498.489	-12.69
498.613	30.31
498.737	0.31
498.862	19.31
498.986	-9.69
499.11	4.31
499.234	0.31
499.358	5.31
499.482	3.31
499.607	17.31
499.731	13.31
499.855	36.31
499.979	7.31
500.103	16.31
500.227	34.31
500.351	22.31
500.476	0.31
500.6	10.31
500.724	23.31
500.848	22.31
500.972	10.31
501.096	4.31
501.22	27.31
501.344	14.31
501.469	4.31
501.593	7.31
501.717	31.31
501.841	6.31
501.965	8.31
502.089	-7.69
502.213	16.31
502.337	6.31
502.461	13.31
502.585	12.31
502.709	1.31
502.834	-4.69
502.958	-7.69
503.082	11.31
503.206	28.31
503.33	34.31
503.454	21.31
503.578	21.31
503.702	15.31
503.826	13.31
503.95	21.31
504.074	-2.69
504.198	2.31
504.322	-7.69
504.446	-2.69
504.57	15.31
504.694	5.31
504.818	12.31
504.942	21.31
505.066	13.31
505.19	11.31
505.314	7.31
505.438	13.31
505.562	14.31
505.686	28.31
505.81	24.31
505.934	18.31
506.058	-1.69
506.182	0.31
506.306	23.31
506.43	6.31
506.554	7.31
506.678	5.31
506.802	6.31
506.926	14.31
507.05	22.31
507.174	32.31
507.298	15.31
507.422	18.31
507.546	27.31
507.67	35.31
507.794	4.31
507.918	20.31
508.042	18.31
508.165	9.31
508.289	10.31
508.413	14.31
508.537	-6.69
508.661	26.31
508.785	15.31
508.909	35.31
509.033	22.31
509.157	20.31
509.281	6.31
509.405	-6.69
509.528	11.31
509.652	18.31
509.776	4.31
509.9	19.31
510.024	16.31
510.148	4.31
510.272	-0.69
510.396	10.31
510.519	2.31
510.643	30.31
510.767	19.31
510.891	11.31
511.015	14.31
511.139	17.31
511.263	42.31
511.386	6.31
511.51	17.31
511.634	10.31
511.758	9.31
511.882	2.31
512.006	9.31
512.129	4.31
512.253	37.31
512.377	10.31
512.501	25.31
512.625	-2.69
512.748	-6.69
512.872	-5.69
512.996	14.31
513.12	21.31
513.244	-6.69
513.367	28.31
513.491	24.31
513.615	26.31
513.739	-2.69
513.862	13.31
513.986	7.31
514.11	4.31
514.234	-1.69
514.358	20.31
514.481	34.31
514.605	-3.69
514.729	14.31
514.853	22.31
514.976	6.31
515.1	6.31
515.224	29.31
515.348	-1.69
515.471	-5.69
515.595	8.31
515.719	14.31
515.842	34.31
515.966	16.31
516.09	22.31
516.214	7.31
516.337	36.31
516.461	27.31
516.585	22.31
516.708	8.31
516.832	22.31
516.956	35.31
517.08	10.31
517.203	8.31
517.327	28.31
517.451	42.31
517.574	57.31
517.698	20.31
517.822	12.31
517.945	37.31
518.069	16.31
518.193	32.31
518.316	38.31
518.44	34.31
518.564	5.31
518.687	28.31
518.811	34.31
518.935	54.31
519.058	36.31
519.182	42.31
519.306	44.31
519.429	24.31
519.553	59.31
519.676	46.31
519.8	25.31
519.924	27.31
520.047	29.31
520.171	5.31
520.294	12.31
520.418	10.31
520.542	8.31
520.665	34.31
520.789	14.31
520.913	-10.69
521.036	4.31
521.16	-9.69
521.283	0.31
521.407	14.31
521.53	-7.69
521.654	-5.69
521.778	33.31
521.901	6.31
522.025	12.31
522.148	-1.69
522.272	7.31
522.395	6.31
522.519	13.31
522.643	7.31
522.766	28.31
522.89	9.31
523.013	29.31
523.137	7.31
523.26	-5.69
523.384	13.31
523.507	9.31
523.631	7.31
523.754	-1.69
523.878	2.31
524.002	12.31
524.125	7.31
524.249	-5.69
524.372	25.31
524.496	16.31
524.619	17.31
524.743	16.31
524.866	3.31
524.99	1.31
525.113	5.31
525.237	23.31
525.36	11.31
525.484	27.31
525.607	0.31
525.731	-1.69
525.854	10.31
525.978	24.31
526.101	11.31
526.224	0.31
526.348	11.31
526.471	2.31
526.595	27.31
526.718	15.31
526.842	-1.69
526.965	15.31
527.089	12.31
527.212	21.31
527.336	2.31
527.459	20.31
527.582	14.31
527.706	23.31
527.829	25.31
527.953	21.31
528.076	1.31
528.2	0.31
528.323	22.31
528.446	29.31
528.57	4.31
528.693	29.31
528.817	1.31
528.94	13.31
529.064	44.31
529.187	9.31
529.31	8.31
529.434	2.31
529.557	14.31
529.68	9.31
529.804	9.31
529.927	24.31
530.051	2.31
530.174	8.31
530.297	6.31
530.421	17.31
530.544	12.31
530.668	18.31
530.791	5.31
530.914	28.31
531.038	12.31
531.161	-10.69
531.284	14.31
531.408	23.31
531.531	21.31
531.654	-3.69
531.778	18.31
531.901	-9.69
532.024	32.31
532.148	2.31
532.271	2.31
532.394	25.31
532.518	28.31
532.641	34.31
532.764	37.31
532.888	20.31
533.011	3.31
533.134	4.31
533.258	13.31
533.381	-9.69
533.504	-2.69
533.628	2.31
533.751	25.31
533.874	20.31
533.997	19.31
534.121	5.31
534.244	6.31
534.367	-4.69
534.491	20.31
534.614	6.31
534.737	6.31
534.86	14.31
534.984	2.31
535.107	7.31
535.23	12.31
535.354	-14.69
535.477	7.31
535.6	17.31
535.723	34.31
535.847	9.31
535.97	-4.69
536.093	1.31
536.216	7.31
536.34	14.31
536.463	-7.69
536.586	28.31
536.709	19.31
536.833	23.31
536.956	21.31
537.079	8.31
537.202	19.31
537.325	2.31
537.449	1.31
537.572	19.31
537.695	3.31
537.818	16.31
537.941	17.31
538.065	14.31
538.188	20.31
538.311	22.31
538.434	23.31
538.558	11.31
538.681	17.31
538.804	17.31
538.927	14.31
539.05	19.31
539.173	-6.69
539.297	13.31
539.42	8.31
539.543	13.31
539.666	6.31
539.789	33.31
539.913	10.31
540.036	1.31
540.159	-4.69
540.282	-3.69
540.405	5.31
540.528	-5.69
540.651	13.31
540.775	-1.69
540.898	12.31
541.021	5.31
541.144	-6.69
541.267	10.31
541.39	6.31
541.513	10.31
541.637	2.31
541.76	14.31
541.883	0.31
542.006	19.31
542.129	19.31
542.252	12.31
542.375	14.31
542.498	32.31
542.622	23.31
542.745	18.31
542.868	19.31
542.991	14.31
543.114	18.31
543.237	42.31
543.36	32.31
543.483	0.31
543.606	20.31
543.73	13.31
543.853	6.31
543.976	9.31
544.099	26.31
544.222	4.31
544.345	8.31
544.468	15.31
544.591	6.31
544.714	9.31
544.837	34.31
544.96	30.31
545.083	25.31
545.206	-5.69
545.329	28.31
545.453	0.31
545.576	13.31
545.699	-1.69
545.822	7.31
545.945	16.31
546.068	8.31
546.191	25.31
546.314	-3.69
546.437	13.31
546.56	13.31
546.683	14.31
546.806	19.31
546.929	9.31
547.052	15.31
547.175	-0.69
547.298	12.31
547.421	-14.69
547.544	14.31
547.667	10.31
547.79	9.31
547.913	-6.69
548.036	-11.69
548.159	5.31
548.282	22.31
548.405	6.31
548.528	14.31
548.651	26.31
548.774	4.31
548.897	23.31
549.02	32.31
549.143	16.31
549.266	10.31
549.389	20.31
549.512	-2.69
549.635	36.31
549.758	17.31
549.881	14.31
550.004	22.31
550.127	18.31
550.25	21.31
550.373	6.31
550.496	14.31
550.619	-10.69
550.742	-6.69
550.865	-20.69
550.988	5.31
551.111	18.31
551.234	14.31
551.356	8.31
551.479	-5.69
551.602	-1.69
551.725	6.31
551.848	24.31
551.971	20.31
552.094	23.31
552.217	10.31
552.34	-9.69
552.463	6.31
552.586	19.31
552.709	14.31
552.832	12.31
552.955	13.31
553.077	13.31
553.2	13.31
553.323	-6.69
553.446	12.31
553.569	-1.69
553.692	13.31
553.815	0.31
553.938	11.31
554.061	26.31
554.184	26.31
554.306	9.31
554.429	42.31
554.552	11.31
554.675	-1.69
554.798	11.31
554.921	21.31
555.044	12.31
555.167	-8.69
555.29	-3.69
555.412	8.31
555.535	-4.69
555.658	0.31
555.781	1.31
555.904	20.31
556.027	13.31
556.15	0.31
556.272	12.31
556.395	17.31
556.518	0.31
556.641	9.31
556.764	24.31
556.887	25.31
557.01	0.31
557.132	-5.69
557.255	20.31
557.378	22.31
557.501	5.31
557.624	22.31
557.747	20.31
557.869	16.31
557.992	15.31
558.115	18.31
558.238	10.31
558.361	19.31
558.483	24.31
558.606	12.31
558.729	5.31
558.852	30.31
558.975	43.31
559.098	34.31
559.22	8.31
559.343	16.31
559.466	12.31
559.589	-0.69
559.712	21.31
559.834	20.31
559.957	4.31
560.08	0.31
560.203	37.31
560.325	23.31
560.448	49.31
560.571	10.31
560.694	1.31
560.817	26.31
560.939	14.31
561.062	13.31
561.185	18.31
561.308	-3.69
561.43	8.31
561.553	4.31
561.676	11.31
561.799	25.31
561.921	-4.69
562.044	17.31
562.167	2.31
562.29	39.31
562.413	22.31
562.535	24.31
562.658	-5.69
562.781	16.31
562.903	-11.69
563.026	10.31
563.149	44.31
563.272	26.31
563.394	18.31
563.517	12.31
563.64	-19.69
563.763	18.31
563.885	19.31
564.008	21.31
564.131	32.31
564.254	8.31
564.376	14.31
564.499	-5.69
564.622	-10.69
564.744	24.31
564.867	11.31
564.99	0.31
565.113	18.31
565.235	16.31
565.358	4.31
565.481	2.31
565.603	6.31
565.726	8.31
565.849	23.31
565.971	16.31
566.094	-1.69
566.217	19.31
566.34	11.31
566.462	9.31
566.585	29.31
566.708	39.31
566.83	14.31
566.953	17.31
567.076	17.31
567.198	10.31
567.321	-18.69
567.444	23.31
567.566	2.31
567.689	-8.69
567.812	2.31
567.934	2.31
568.057	6.31
568.18	21.31
568.302	11.31
568.425	-5.69
568.548	16.31
568.67	25.31
568.793	-1.69
568.916	20.31
569.038	0.31
569.161	8.31
569.283	17.31
569.406	26.31
569.529	5.31
569.651	-12.69
569.774	-8.69
569.897	-11.69
570.019	16.31
570.142	27.31
570.265	4.31
570.387	7.31
570.51	12.31
570.632	18.31
570.755	9.31
570.878	10.31
571	25.31
571.123	14.31
571.246	24.31
571.368	5.31
571.491	12.31
571.613	6.31
571.736	-16.69
571.859	7.31
571.981	-5.69
572.104	-7.69
572.226	12.31
572.349	-0.69
572.472	7.31
572.594	18.31
572.717	15.31
572.839	10.31
572.962	7.31
573.085	20.31
573.207	24.31
573.33	3.31
573.452	17.31
573.575	16.31
573.697	-2.69
573.82	19.31
573.943	2.31
574.065	10.31
574.188	-2.69
574.31	28.31
574.433	20.31
574.555	17.31
574.678	4.31
574.801	1.31
574.923	12.31
575.046	6.31
575.168	15.31
575.291	13.31
575.413	11.31
575.536	10.31
575.659	22.31
575.781	-4.69
575.904	12.31
576.026	15.31
576.149	7.31
576.271	25.31
576.394	20.31
576.516	-4.69
576.639	1.31
576.761	-0.69
576.884	-5.69
577.007	-3.69
577.129	18.31
577.252	6.31
577.374	24.31
577.497	4.31
577.619	6.31
577.742	11.31
577.864	5.31
577.987	11.31
578.109	12.31
578.232	9.31
578.354	30.31
578.477	5.31
578.599	6.31
578.722	10.31
578.844	10.31
578.967	19.31
579.089	12.31
579.212	-4.69
579.334	21.31
579.457	16.31
579.579	9.31
579.702	12.31
579.824	19.31
579.947	-3.69
580.069	-7.69
580.192	12.31
580.314	14.31
580.437	9.31
580.559	39.31
580.682	14.31
580.804	20.31
580.927	39.31
581.049	44.31
581.172	10.31
581.294	10.31
581.417	14.31
581.539	13.31
581.662	21.31
581.784	-0.69
581.907	9.31
582.029	1.31
582.152	1.31
582.274	2.31
582.396	17.31
582.519	32.31
582.641	4.31
582.764	-1.69
582.886	20.31
583.009	11.31
583.131	21.31
583.254	10.31
583.376	22.31
583.499	9.31
583.621	15.31
583.743	20.31
583.866	21.31
583.988	15.31
584.111	13.31
584.233	32.31
584.356	13.31
584.478	18.31
584.601	-6.69
584.723	4.31
584.845	21.31
584.968	4.31
585.09	-3.69
585.213	20.31
585.335	-1.69
585.458	10.31
585.58	4.31
585.702	16.31
585.825	13.31
585.947	3.31
586.07	-12.69
586.192	5.31
586.315	29.31
586.437	9.31
586.559	1.31
586.682	14.31
586.804	14.31
586.927	10.31
587.049	4.31
587.171	20.31
587.294	23.31
587.416	19.31
587.539	19.31
587.661	-1.69
587.783	4.31
587.906	6.31
588.028	19.31
588.151	22.31
588.273	22.31
588.395	3.31
588.518	21.31
588.64	13.31
588.763	20.31
588.885	28.31
589.007	23.31
589.13	-2.69
589.252	-18.69
589.375	0.31
589.497	-0.69
589.619	20.31
589.742	8.31
589.864	32.31
589.986	16.31
590.109	3.31
590.231	5.31
590.354	13.31
590.476	-11.69
590.598	4.31
590.721	1.31
590.843	21.31
590.965	11.31
591.088	17.31
591.21	-4.69
591.332	9.31
591.455	4.31
591.577	-2.69
591.7	1.31
591.822	18.31
591.944	26.31
592.067	24.31
592.189	-8.69
592.311	6.31
592.434	4.31
592.556	24.31
592.678	19.31
592.801	25.31
592.923	10.31
593.045	-1.69
593.168	18.31
593.29	5.31
593.412	17.31
593.535	2.31
593.657	18.31
593.779	2.31
593.902	-7.69
594.024	4.31
594.146	14.31
594.269	13.31
594.391	0.31
594.513	14.31
594.636	18.31
594.758	0.31
594.88	36.31
595.003	30.31
595.125	14.31
595.247	16.31
595.37	15.31
595.492	15.31
595.614	18.31
595.737	9.31
595.859	22.31
595.981	16.31
596.104	-7.69
596.226	-6.69
596.348	5.31
596.471	16.31
596.593	32.31
596.715	15.31
596.838	8.31
596.96	7.31
597.082	19.31
597.204	19.31
597.327	27.31
597.449	6.31
597.571	21.31
597.694	20.31
597.816	19.31
597.938	6.31
598.061	-2.69
598.183	4.31
598.305	31.31
598.427	23.31
598.55	16.31
598.672	26.31
598.794	24.31
598.917	7.31
599.039	14.31
599.161	28.31
599.283	2.31
599.406	6.31
599.528	20.31
599.65	24.31
599.773	23.31
599.895	31.31
600.017	28.31
600.139	3.31
600.262	7.31
600.384	9.31
600.506	8.31
600.628	16.31
600.751	30.31
600.873	17.31
600.995	14.31
601.118	20.31
601.24	24.31
601.362	26.31
601.484	30.31
601.607	11.31
601.729	9.31
601.851	25.31
601.973	6.31
602.096	11.31
602.218	23.31
602.34	21.31
602.462	21.31
602.585	6.31
602.707	-1.69
602.829	25.31
602.951	13.31
603.074	-7.69
603.196	30.31
603.318	17.31
603.44	22.31
603.563	25.31
603.685	-6.69
603.807	16.31
603.929	9.31
604.052	23.31
604.174	17.31
604.296	20.31
604.418	35.31
604.541	45.31
604.663	8.31
604.785	6.31
604.907	12.31
605.03	-4.69
605.152	28.31
605.274	2.31
605.396	9.31
605.519	6.31
605.641	17.31
605.763	4.31
605.885	0.31
606.008	1.31
606.13	15.31
606.252	15.31
606.374	-12.69
606.496	10.31
606.619	-0.69
606.741	2.31
606.863	29.31
606.985	51.31
607.108	27.31
607.23	14.31
607.352	39.31
607.474	15.31
607.596	29.31
607.719	0.31
607.841	44.31
607.963	12.31
608.085	18.31
608.207	25.31
608.33	16.31
608.452	11.31
608.574	7.31
608.696	32.31
608.819	19.31
608.941	16.31
609.063	28.31
609.185	30.31
609.307	34.31
609.43	30.31
609.552	14.31
609.674	-3.69
609.796	21.31
609.918	9.31
610.041	2.31
610.163	3.31
610.285	12.31
610.407	12.31
610.529	11.31
610.652	10.31
610.774	23.31
610.896	16.31
611.018	16.31
611.14	25.31
611.263	11.31
611.385	-11.69
611.507	10.31
611.629	13.31
611.751	5.31
611.873	35.31
611.996	17.31
612.118	22.31
612.24	-7.69
612.362	15.31
612.484	20.31
612.607	14.31
612.729	36.31
612.851	6.31
612.973	14.31
613.095	-3.69
613.218	20.31
613.34	20.31
613.462	18.31
613.584	16.31
613.706	22.31
613.828	36.31
613.951	28.31
614.073	27.31
614.195	2.31
614.317	30.31
614.439	20.31
614.561	10.31
614.684	11.31
614.806	34.31
614.928	27.31
615.05	29.31
615.172	5.31
615.294	24.31
615.417	1.31
615.539	-14.69
615.661	20.31
615.783	30.31
615.905	28.31
616.027	54.31
616.15	93.31
616.272	90.31
616.394	60.31
616.516	30.31
616.638	23.31
616.76	26.31
616.883	9.31
617.005	15.31
617.127	13.31
617.249	3.31
617.371	6.31
617.493	24.31
617.615	26.31
617.738	20.31
617.86	17.31
617.982	24.31
618.104	16.31
618.226	18.31
618.348	-9.69
618.471	14.31
618.593	10.31
618.715	-8.69
618.837	12.31
618.959	16.31
619.081	16.31
619.203	4.31
619.326	17.31
619.448	15.31
619.57	4.31
619.692	15.31
619.814	21.31
619.936	37.31
620.058	18.31
620.181	20.31
620.303	12.31
620.425	24.31
620.547	9.31
620.669	4.31
620.791	21.31
620.913	13.31
621.036	10.31
621.158	16.31
621.28	12.31
621.402	-1.69
621.524	11.31
621.646	28.31
621.768	-2.69
621.891	-5.69
622.013	17.31
622.135	8.31
622.257	-7.69
622.379	13.31
622.501	12.31
622.623	9.31
622.745	-10.69
622.868	5.31
622.99	-4.69
623.112	8.31
623.234	15.31
623.356	10.31
623.478	-1.69
623.6	16.31
623.722	14.31
623.845	6.31
623.967	12.31
624.089	16.31
624.211	-3.69
624.333	11.31
624.455	8.31
624.577	8.31
624.699	26.31
624.822	2.31
624.944	19.31
625.066	18.31
625.188	13.31
625.31	-5.69
625.432	35.31
625.554	22.31
625.676	15.31
625.799	-3.69
625.921	19.31
626.043	18.31
626.165	8.31
626.287	-13.69
626.409	16.31
626.531	9.31
626.653	8.31
626.775	14.31
626.898	19.31
627.02	19.31
627.142	12.31
627.264	5.31
627.386	-10.69
627.508	8.31
627.63	12.31
627.752	8.31
627.874	19.31
627.997	19.31
628.119	28.31
628.241	12.31
628.363	-0.69
628.485	17.31
628.607	10.31
628.729	11.31
628.851	-6.69
628.973	9.31
629.096	-10.69
629.218	16.31
629.34	16.31
629.462	1.31
629.584	14.31
629.706	17.31
629.828	12.31
629.95	13.31
630.072	6.31
630.195	10.31
630.317	16.31
630.439	13.31
630.561	24.31
630.683	2.31
630.805	10.31
630.927	18.31
631.049	12.31
631.171	-14.69
631.293	5.31
631.416	-0.69
631.538	8.31
631.66	6.31
631.782	14.31
631.904	23.31
632.026	-2.69
632.148	24.31
632.27	4.31
632.392	3.31
632.514	1.31
632.637	21.31
632.759	27.31
632.881	6.31
633.003	10.31
633.125	4.31
633.247	-2.69
633.369	10.31
633.491	16.31
633.613	16.31
633.735	8.31
633.858	25.31
633.98	18.31
634.102	-6.69
634.224	-18.69
634.346	4.31
634.468	24.31
634.59	17.31
634.712	18.31
634.834	11.31
634.956	-2.69
635.078	11.31
635.201	12.31
635.323	23.31
635.445	5.31
635.567	-15.69
635.689	12.31
635.811	18.31
635.933	12.31
636.055	14.31
636.177	6.31
636.299	12.31
636.421	-1.69
636.544	13.31
636.666	16.31
636.788	10.31
636.91	26.31
637.032	11.31
637.154	12.31
637.276	53.31
637.398	47.31
637.52	24.31
637.642	27.31
637.764	14.31
637.887	1.31
638.009	-13.69
638.131	8.31
638.253	5.31
638.375	21.31
638.497	4.31
638.619	10.31
638.741	29.31
638.863	-2.69
638.985	-12.69
639.107	5.31
639.23	-6.69
639.352	7.31
639.474	-14.69
639.596	5.31
639.718	1.31
639.84	10.31
639.962	9.31
640.084	13.31
640.206	11.31
640.328	-8.69
640.45	-5.69
640.573	7.31
640.695	2.31
640.817	8.31
640.939	12.31
641.061	-5.69
641.183	12.31
641.305	1.31
641.427	1.31
641.549	4.31
641.671	0.31
641.793	3.31
641.915	9.31
642.038	10.31
642.16	3.31
642.282	15.31
642.404	7.31
642.526	20.31
642.648	-1.69
642.77	22.31
642.892	24.31
643.014	30.31
643.136	15.31
643.258	2.31
643.381	26.31
643.503	12.31
643.625	10.31
643.747	-8.69
643.869	-7.69
643.991	21.31
644.113	2.31
644.235	1.31
644.357	6.31
644.479	16.31
644.601	-0.69
644.723	-10.69
644.846	14.31
644.968	2.31
645.09	9.31
645.212	-2.69
645.334	10.31
645.456	10.31
645.578	17.31
645.7	10.31
645.822	23.31
645.944	20.31
646.066	-1.69
646.188	3.31
646.311	25.31
646.433	20.31
646.555	49.31
646.677	50.31
646.799	43.31
646.921	23.31
647.043	35.31
647.165	2.31
647.287	10.31
647.409	13.31
647.531	14.31
647.654	-8.69
647.776	27.31
647.898	12.31
648.02	10.31
648.142	0.31
648.264	-3.69
648.386	-10.69
648.508	12.31
648.63	13.31
648.752	10.31
648.874	6.31
648.997	6.31
649.119	20.31
649.241	9.31
649.363	16.31
649.485	11.31
649.607	18.31
649.729	-13.69
649.851	5.31
649.973	8.31
650.095	10.31
650.217	5.31
650.34	6.31
650.462	21.31
650.584	18.31
650.706	13.31
650.828	25.31
650.95	-3.69
651.072	22.31
651.194	8.31
651.316	8.31
651.438	3.31
651.56	-4.69
651.683	-1.69
651.805	1.31
651.927	14.31
652.049	0.31
652.171	3.31
652.293	16.31
652.415	10.31
652.537	-6.69
652.659	5.31
652.781	27.31
652.903	18.31
653.026	27.31
653.148	14.31
653.27	19.31
653.392	20.31
653.514	-3.69
653.636	-4.69
653.758	11.31
653.88	8.31
654.002	4.31
654.124	10.31
654.247	6.31
654.369	22.31
654.491	6.31
654.613	10.31
654.735	-1.69
654.857	18.31
654.979	11.31
655.101	21.31
655.223	58.31
655.345	28.31
655.468	28.31
655.59	26.31
655.712	21.31
655.834	6.31
655.956	36.31
656.078	20.31
656.2	26.31
656.322	47.31
656.444	24.31
656.566	48.31
656.689	53.31
656.811	64.31
656.933	86.31
657.055	86.31
657.177	167.31
657.299	248.31
657.421	501.31
657.543	1852.31
657.665	12502.31
657.787	15168.31
657.91	15253.31
658.032	15663.31
658.154	4627.31
658.276	3373.31
658.398	1118.31
658.52	1018.31
658.642	481.31
658.764	590.31
658.886	262.31
659.009	414.31
659.131	218.31
659.253	318.31
659.375	162.31
659.497	245.31
659.619	129.31
659.741	209.31
659.863	104.31
659.985	177.31
660.108	93.31
660.23	158.31
660.352	91.31
660.474	144.31
660.596	84.31
660.718	117.31
660.84	57.31
660.962	115.31
661.084	45.31
661.207	106.31
661.329	49.31
661.451	86.31
661.573	62.31
661.695	102.31
661.817	70.31
661.939	105.31
662.061	61.31
662.184	69.31
662.306	40.31
662.428	72.31
662.55	46.31
662.672	77.31
662.794	38.31
662.916	63.31
663.038	31.31
663.161	71.31
663.283	38.31
663.405	65.31
663.527	42.31
663.649	74.31
663.771	34.31
663.893	44.31
664.015	28.31
664.138	42.31
664.26	35.31
664.382	37.31
664.504	28.31
664.626	32.31
664.748	15.31
664.87	33.31
664.992	35.31
665.115	49.31
665.237	21.31
665.359	39.31
665.481	28.31
665.603	50.31
665.725	32.31
665.847	26.31
665.97	29.31
666.092	68.31
666.214	25.31
666.336	30.31
666.458	15.31
666.58	50.31
666.702	16.31
666.825	23.31
666.947	-3.69
667.069	45.31
667.191	19.31
667.313	42.31
667.435	8.31
667.557	19.31
667.68	-2.69
667.802	19.31
667.924	-2.69
668.046	33.31
668.168	16.31
668.29	34.31
668.412	17.31
668.535	30.31
668.657	21.31
668.779	27.31
668.901	20.31
669.023	26.31
669.145	7.31
669.267	37.31
669.39	26.31
669.512	31.31
669.634	13.31
669.756	10.31
669.878	20.31
670	30.31
670.123	21.31
670.245	44.31
670.367	25.31
670.489	24.31
670.611	11.31
670.733	16.31
670.856	9.31
670.978	24.31
671.1	9.31
671.222	38.31
671.344	-2.69
671.466	29.31
671.589	4.31
671.711	15.31
671.833	-7.69
671.955	34.31
672.077	14.31
672.199	29.31
672.322	38.31
672.444	25.31
672.566	17.31
672.688	1.31
672.81	8.31
672.932	28.31
673.055	7.31
673.177	17.31
673.299	18.31
673.421	10.31
673.543	18.31
673.665	28.31
673.788	13.31
673.91	18.31
674.032	2.31
674.154	10.31
674.276	27.31
674.399	-7.69
674.521	-10.69
674.643	14.31
674.765	-10.69
674.887	30.31
675.009	19.31
675.132	19.31
675.254	5.31
675.376	12.31
675.498	11.31
675.62	20.31
675.743	0.31
675.865	22.31
675.987	5.31
676.109	-14.69
676.231	15.31
676.354	28.31
676.476	8.31
676.598	20.31
676.72	11.31
676.842	24.31
676.965	10.31
677.087	23.31
677.209	28.31
677.331	19.31
677.453	11.31
677.576	12.31
677.698	12.31
677.82	21.31
677.942	4.31
678.064	14.31
678.187	11.31
678.309	26.31
678.431	16.31
678.553	28.31
678.675	29.31
678.798	35.31
678.92	22.31
679.042	5.31
679.164	9.31
679.286	27.31
679.409	2.31
679.531	-18.69
679.653	-7.69
679.775	2.31
679.898	11.31
680.02	10.31
680.142	5.31
680.264	33.31
680.386	-3.69
680.509	25.31
680.631	25.31
680.753	24.31
680.875	-7.69
680.998	21.31
681.12	7.31
681.242	34.31
681.364	-3.69
681.486	5.31
681.609	1.31
681.731	3.31
681.853	5.31
681.975	17.31
682.098	18.31
682.22	41.31
682.342	17.31
682.464	19.31
682.587	0.31
682.709	11.31
682.831	-2.69
682.953	10.31
683.076	0.31
683.198	16.31
683.32	13.31
683.442	7.31
683.565	17.31
683.687	8.31
683.809	18.31
683.931	-26.69
684.054	18.31
684.176	25.31
684.298	12.31
684.42	15.31
684.543	-1.69
684.665	11.31
684.787	9.31
684.909	4.31
685.032	29.31
685.154	1.31
685.276	8.31
685.398	13.31
685.521	0.31
685.643	24.31
685.765	19.31
685.887	25.31
686.01	18.31
686.132	7.31
686.254	26.31
686.377	31.31
686.499	14.31
686.621	22.31
686.743	15.31
686.866	23.31
686.988	39.31
687.11	24.31
687.232	8.31
687.355	4.31
687.477	23.31
687.599	11.31
687.722	10.31
687.844	-14.69
687.966	0.31
688.088	21.31
688.211	30.31
688.333	20.31
688.455	7.31
688.578	22.31
688.7	9.31
688.822	18.31
688.944	-12.69
689.067	40.31
689.189	16.31
689.311	2.31
689.434	4.31
689.556	18.31
689.678	20.31
689.801	-7.69
689.923	6.31
690.045	23.31
690.167	33.31
690.29	18.31
690.412	6.31
690.534	21.31
690.657	-5.69
690.779	13.31
690.901	14.31
691.024	25.31
691.146	6.31
691.268	-1.69
691.391	13.31
691.513	29.31
691.635	9.31
691.758	27.31
691.88	12.31
692.002	-4.69
692.125	4.31
692.247	4.31
692.369	7.31
692.492	2.31
692.614	18.31
692.736	4.31
692.859	-4.69
692.981	-4.69
693.103	4.31
693.226	25.31
693.348	12.31
693.47	-3.69
693.593	9.31
693.715	8.31
693.837	5.31
693.96	-6.69
694.082	-3.69
694.204	26.31
694.327	8.31
694.449	-11.69
694.571	0.31
694.694	21.31
694.816	14.31
694.938	7.31
695.061	29.31
695.183	1.31
695.305	15.31
695.428	10.31
695.55	-12.69
695.672	-4.69
695.795	26.31
695.917	32.31
696.04	6.31
696.162	9.31
696.284	9.31
696.407	7.31
696.529	-3.69
696.651	34.31
696.774	5.31
696.896	18.31
697.019	1.31
697.141	6.31
697.263	26.31
697.386	14.31
697.508	-7.69
697.63	12.31
697.753	-1.69
697.875	10.31
697.998	0.31
698.12	4.31
698.242	0.31
698.365	10.31
698.487	-0.69
698.61	18.31
698.732	24.31
698.854	22.31
698.977	-3.69
699.099	17.31
699.221	12.31
699.344	7.31
699.466	7.31
699.589	12.31
699.711	-0.69
699.834	14.31
699.956	9.31
700.078	12.31
700.201	4.31
700.323	14.31
700.446	23.31
700.568	6.31
700.69	9.31
700.813	6.31
700.935	-8.69
701.058	3.31
701.18	-0.69
701.302	12.31
701.425	-4.69
701.547	7.31
701.67	10.31
701.792	10.31
701.915	4.31
702.037	-0.69
702.159	11.31
702.282	4.31
702.404	-9.69
702.527	1.31
702.649	27.31
702.772	20.31
702.894	-6.69
703.017	7.31
703.139	20.31
703.261	35.31
703.384	23.31
703.506	14.31
703.629	1.31
703.751	16.31
703.874	11.31
703.996	-2.69
704.119	-15.69
704.241	18.31
704.364	-1.69
704.486	13.31
704.608	23.31
704.731	14.31
704.853	14.31
704.976	6.31
705.098	14.31
705.221	-0.69
705.343	0.31
705.466	34.31
705.588	7.31
705.711	6.31
705.833	16.31
705.956	18.31
706.078	23.31
706.201	5.31
706.323	11.31
706.446	10.31
