Data from LowRes_H2_15_26_11_07_2024_HR4C61881__19__15-28-15-537.txt Node

Date: Thu Nov 07 15:28:15 EST 2024
User: crc00042
Spectrometer: HR4C6188
Trigger mode: 4
Integration Time (sec): 1.000000E-1
Scans to average: 1
Electric dark correction enabled: true
Nonlinearity correction enabled: false
Boxcar width: 0
XAxis mode: Wavelengths
Number of Pixels in Spectrum: 3648
>>>>>Begin Spectral Data<<<<<
245.66	-96.85
245.797	-96.85
245.934	-96.85
246.071	-74.85
246.208	18.15
246.344	10.15
246.481	-10.85
246.618	-7.85
246.755	11.15
246.892	8.15
247.029	-3.85
247.165	-19.85
247.302	-2.85
247.439	-0.85
247.576	17.15
247.713	-12.85
247.849	26.15
247.986	-13.85
248.123	-0.85
248.26	2.15
248.396	14.15
248.533	-5.85
248.67	4.15
248.806	19.15
248.943	-15.85
249.08	6.15
249.216	5.15
249.353	-24.85
249.49	0.15
249.626	3.15
249.763	5.15
249.9	-8.85
250.036	8.15
250.173	15.15
250.309	-4.85
250.446	18.15
250.582	-4.85
250.719	-21.85
250.856	-8.85
250.992	9.15
251.129	-1.85
251.265	-0.85
251.402	-3.85
251.538	-11.85
251.675	-4.85
251.811	13.15
251.948	10.15
252.084	2.15
252.221	-5.85
252.357	-12.85
252.493	22.15
252.63	-3.85
252.766	32.15
252.903	-0.85
253.039	-2.85
253.175	1.15
253.312	-7.85
253.448	-5.85
253.585	-43.85
253.721	2.15
253.857	-13.85
253.994	-3.85
254.13	4.15
254.266	2.15
254.403	-19.85
254.539	-7.85
254.675	8.15
254.811	1.15
254.948	9.15
255.084	-2.85
255.22	-17.85
255.356	3.15
255.493	5.15
255.629	15.15
255.765	25.15
255.901	14.15
256.037	-13.85
256.174	-3.85
256.31	-1.85
256.446	-1.85
256.582	-9.85
256.718	19.15
256.854	26.15
256.991	6.15
257.127	12.15
257.263	9.15
257.399	-7.85
257.535	-22.85
257.671	-10.85
257.807	-5.85
257.943	-7.85
258.079	-16.85
258.215	-18.85
258.351	14.15
258.487	-6.85
258.623	10.15
258.759	3.15
258.895	3.15
259.031	-6.85
259.167	-13.85
259.303	41.15
259.439	-14.85
259.575	1.15
259.711	-2.85
259.847	5.15
259.983	6.15
260.119	1.15
260.255	-23.85
260.391	-16.85
260.527	10.15
260.663	12.15
260.799	13.15
260.934	11.15
261.07	14.15
261.206	-10.85
261.342	-3.85
261.478	20.15
261.614	18.15
261.749	1.15
261.885	8.15
262.021	-4.85
262.157	0.15
262.293	1.15
262.428	-8.85
262.564	9.15
262.7	18.15
262.836	-17.85
262.971	22.15
263.107	-1.85
263.243	20.15
263.378	-9.85
263.514	-30.85
263.65	10.15
263.785	-21.85
263.921	-4.85
264.057	7.15
264.192	16.15
264.328	25.15
264.464	2.15
264.599	10.15
264.735	14.15
264.871	-0.85
265.006	11.15
265.142	-9.85
265.277	-5.85
265.413	15.15
265.548	22.15
265.684	20.15
265.819	1.15
265.955	-7.85
266.091	-25.85
266.226	-5.85
266.362	3.15
266.497	1.15
266.633	4.15
266.768	-14.85
266.903	6.15
267.039	8.15
267.174	12.15
267.31	-0.85
267.445	-7.85
267.581	-3.85
267.716	9.15
267.851	21.15
267.987	17.15
268.122	15.15
268.258	-14.85
268.393	-12.85
268.528	12.15
268.664	-8.85
268.799	1.15
268.934	9.15
269.07	-9.85
269.205	10.15
269.34	15.15
269.476	-6.85
269.611	-18.85
269.746	12.15
269.881	2.15
270.017	21.15
270.152	10.15
270.287	4.15
270.422	27.15
270.558	-22.85
270.693	7.15
270.828	7.15
270.963	-8.85
271.098	-1.85
271.234	-1.85
271.369	15.15
271.504	-8.85
271.639	-22.85
271.774	6.15
271.909	2.15
272.045	-22.85
272.18	1.15
272.315	-9.85
272.45	5.15
272.585	0.15
272.72	-9.85
272.855	-5.85
272.99	19.15
273.125	2.15
273.26	-12.85
273.395	-18.85
273.53	-8.85
273.665	12.15
273.8	-0.85
273.935	4.15
274.07	-2.85
274.205	13.15
274.34	-14.85
274.475	5.15
274.61	18.15
274.745	-7.85
274.88	15.15
275.015	-10.85
275.15	-7.85
275.285	22.15
275.42	-10.85
275.555	12.15
275.69	20.15
275.825	-0.85
275.959	2.15
276.094	-3.85
276.229	-9.85
276.364	1.15
276.499	5.15
276.634	-5.85
276.768	-5.85
276.903	0.15
277.038	5.15
277.173	2.15
277.308	-10.85
277.442	-6.85
277.577	-0.85
277.712	9.15
277.847	1.15
277.981	6.15
278.116	-24.85
278.251	9.15
278.386	12.15
278.52	21.15
278.655	9.15
278.79	2.15
278.924	13.15
279.059	14.15
279.194	10.15
279.328	30.15
279.463	7.15
279.598	12.15
279.732	-3.85
279.867	13.15
280.001	21.15
280.136	-3.85
280.271	1.15
280.405	16.15
280.54	7.15
280.674	-8.85
280.809	20.15
280.943	8.15
281.078	-5.85
281.213	17.15
281.347	33.15
281.482	31.15
281.616	13.15
281.751	-1.85
281.885	-10.85
282.02	8.15
282.154	-7.85
282.288	-22.85
282.423	-12.85
282.557	-21.85
282.692	-0.85
282.826	2.15
282.961	4.15
283.095	-9.85
283.229	8.15
283.364	-21.85
283.498	0.15
283.633	-4.85
283.767	11.15
283.901	0.15
284.036	5.15
284.17	1.15
284.304	-1.85
284.439	-0.85
284.573	4.15
284.707	5.15
284.842	-4.85
284.976	2.15
285.11	-16.85
285.244	5.15
285.379	57.15
285.513	-5.85
285.647	-1.85
285.781	-2.85
285.916	0.15
286.05	-7.85
286.184	17.15
286.318	0.15
286.453	-1.85
286.587	-22.85
286.721	-15.85
286.855	-5.85
286.989	6.15
287.123	-14.85
287.258	-14.85
287.392	-0.85
287.526	13.15
287.66	-10.85
287.794	-14.85
287.928	-0.85
288.062	4.15
288.196	-6.85
288.33	17.15
288.464	31.15
288.598	7.15
288.733	5.15
288.867	13.15
289.001	8.15
289.135	12.15
289.269	-14.85
289.403	5.15
289.537	8.15
289.671	-1.85
289.805	-6.85
289.939	6.15
290.073	7.15
290.207	3.15
290.34	4.15
290.474	8.15
290.608	14.15
290.742	20.15
290.876	-10.85
291.01	0.15
291.144	15.15
291.278	21.15
291.412	26.15
291.546	-9.85
291.679	-8.85
291.813	-2.85
291.947	-20.85
292.081	-8.85
292.215	-2.85
292.349	11.15
292.482	28.15
292.616	9.15
292.75	3.15
292.884	-10.85
293.018	-5.85
293.151	-21.85
293.285	13.15
293.419	4.15
293.553	0.15
293.686	-1.85
293.82	11.15
293.954	15.15
294.088	33.15
294.221	6.15
294.355	-1.85
294.489	17.15
294.622	10.15
294.756	-7.85
294.89	18.15
295.023	10.15
295.157	15.15
295.291	17.15
295.424	17.15
295.558	6.15
295.691	-1.85
295.825	7.15
295.959	8.15
296.092	0.15
296.226	-3.85
296.359	-6.85
296.493	6.15
296.627	5.15
296.76	-10.85
296.894	0.15
297.027	-0.85
297.161	-0.85
297.294	-9.85
297.428	-6.85
297.561	17.15
297.695	-12.85
297.828	10.15
297.962	12.15
298.095	-26.85
298.229	6.15
298.362	2.15
298.495	-23.85
298.629	-5.85
298.762	-12.85
298.896	-4.85
299.029	-9.85
299.162	20.15
299.296	-11.85
299.429	-3.85
299.563	5.15
299.696	-1.85
299.829	0.15
299.963	21.15
300.096	26.15
300.229	12.15
300.363	3.15
300.496	8.15
300.629	-22.85
300.763	-16.85
300.896	5.15
301.029	13.15
301.162	14.15
301.296	5.15
301.429	-2.85
301.562	-23.85
301.695	34.15
301.829	12.15
301.962	14.15
302.095	1.15
302.228	-6.85
302.362	3.15
302.495	-7.85
302.628	13.15
302.761	5.15
302.894	5.15
303.027	33.15
303.161	17.15
303.294	-15.85
303.427	-1.85
303.56	-9.85
303.693	-3.85
303.826	3.15
303.959	18.15
304.092	13.15
304.225	-5.85
304.359	6.15
304.492	30.15
304.625	7.15
304.758	-2.85
304.891	-18.85
305.024	-7.85
305.157	-11.85
305.29	-24.85
305.423	-6.85
305.556	20.15
305.689	16.15
305.822	-0.85
305.955	2.15
306.088	-2.85
306.221	7.15
306.354	3.15
306.487	-11.85
306.62	0.15
306.752	4.15
306.885	-5.85
307.018	11.15
307.151	6.15
307.284	35.15
307.417	-2.85
307.55	11.15
307.683	1.15
307.816	18.15
307.948	12.15
308.081	16.15
308.214	3.15
308.347	15.15
308.48	-11.85
308.613	-12.85
308.745	-3.85
308.878	-15.85
309.011	-2.85
309.144	3.15
309.277	7.15
309.409	37.15
309.542	5.15
309.675	3.15
309.808	3.15
309.94	21.15
310.073	-25.85
310.206	-4.85
310.339	3.15
310.471	-12.85
310.604	17.15
310.737	2.15
310.869	15.15
311.002	11.15
311.135	-19.85
311.267	-14.85
311.4	-3.85
311.533	16.15
311.665	-8.85
311.798	-14.85
311.93	4.15
312.063	7.15
312.196	-9.85
312.328	-1.85
312.461	13.15
312.593	5.15
312.726	8.15
312.859	3.15
312.991	14.15
313.124	-20.85
313.256	9.15
313.389	8.15
313.521	-7.85
313.654	-5.85
313.786	-9.85
313.919	-14.85
314.051	10.15
314.184	4.15
314.316	-9.85
314.449	-26.85
314.581	-26.85
314.714	-3.85
314.846	8.15
314.978	-5.85
315.111	1.15
315.243	12.15
315.376	6.15
315.508	9.15
315.641	5.15
315.773	11.15
315.905	3.15
316.038	5.15
316.17	-1.85
316.302	14.15
316.435	-1.85
316.567	0.15
316.699	20.15
316.832	-2.85
316.964	10.15
317.096	-2.85
317.229	3.15
317.361	-14.85
317.493	-10.85
317.625	-12.85
317.758	5.15
317.89	18.15
318.022	12.15
318.155	-6.85
318.287	-5.85
318.419	9.15
318.551	5.15
318.683	7.15
318.816	-5.85
318.948	-4.85
319.08	0.15
319.212	6.15
319.344	11.15
319.477	-1.85
319.609	18.15
319.741	-9.85
319.873	-2.85
320.005	16.15
320.137	-0.85
320.269	8.15
320.401	1.15
320.534	-9.85
320.666	-8.85
320.798	-4.85
320.93	-7.85
321.062	-15.85
321.194	-5.85
321.326	1.15
321.458	8.15
321.59	15.15
321.722	1.15
321.854	6.15
321.986	-7.85
322.118	4.15
322.25	-0.85
322.382	-0.85
322.514	-6.85
322.646	-5.85
322.778	13.15
322.91	-9.85
323.042	-2.85
323.174	-1.85
323.306	-15.85
323.438	-11.85
323.57	7.15
323.702	14.15
323.834	-2.85
323.966	-14.85
324.097	4.15
324.229	21.15
324.361	6.15
324.493	-4.85
324.625	3.15
324.757	-17.85
324.889	3.15
325.021	13.15
325.152	3.15
325.284	3.15
325.416	-10.85
325.548	19.15
325.68	-12.85
325.811	20.15
325.943	7.15
326.075	-4.85
326.207	11.15
326.339	5.15
326.47	-2.85
326.602	8.15
326.734	22.15
326.866	14.15
326.997	-10.85
327.129	-9.85
327.261	-13.85
327.392	4.15
327.524	1.15
327.656	-14.85
327.787	3.15
327.919	11.15
328.051	5.15
328.182	17.15
328.314	38.15
328.446	-0.85
328.577	10.15
328.709	8.15
328.841	-1.85
328.972	-9.85
329.104	-10.85
329.235	16.15
329.367	4.15
329.499	1.15
329.63	-5.85
329.762	-3.85
329.893	14.15
330.025	-10.85
330.156	6.15
330.288	5.15
330.419	11.15
330.551	-4.85
330.683	7.15
330.814	9.15
330.946	29.15
331.077	5.15
331.208	-14.85
331.34	2.15
331.471	1.15
331.603	0.15
331.734	-22.85
331.866	-8.85
331.997	30.15
332.129	-18.85
332.26	0.15
332.392	20.15
332.523	6.15
332.654	-17.85
332.786	-18.85
332.917	-24.85
333.048	13.15
333.18	18.15
333.311	-19.85
333.443	-19.85
333.574	3.15
333.705	19.15
333.837	-1.85
333.968	11.15
334.099	14.15
334.231	1.15
334.362	18.15
334.493	26.15
334.624	30.15
334.756	8.15
334.887	12.15
335.018	4.15
335.15	9.15
335.281	5.15
335.412	18.15
335.543	14.15
335.675	9.15
335.806	11.15
335.937	-6.85
336.068	16.15
336.199	28.15
336.331	-5.85
336.462	-6.85
336.593	6.15
336.724	-11.85
336.855	3.15
336.986	21.15
337.118	-6.85
337.249	14.15
337.38	17.15
337.511	3.15
337.642	22.15
337.773	29.15
337.904	7.15
338.035	8.15
338.166	2.15
338.298	15.15
338.429	-12.85
338.56	21.15
338.691	16.15
338.822	-5.85
338.953	0.15
339.084	3.15
339.215	14.15
339.346	6.15
339.477	-13.85
339.608	4.15
339.739	4.15
339.87	-5.85
340.001	-0.85
340.132	16.15
340.263	11.15
340.394	23.15
340.525	13.15
340.656	6.15
340.787	-4.85
340.918	11.15
341.049	10.15
341.179	11.15
341.31	5.15
341.441	6.15
341.572	25.15
341.703	12.15
341.834	-8.85
341.965	6.15
342.096	0.15
342.227	-2.85
342.357	23.15
342.488	9.15
342.619	4.15
342.75	8.15
342.881	-24.85
343.012	11.15
343.142	30.15
343.273	-13.85
343.404	9.15
343.535	29.15
343.666	20.15
343.796	9.15
343.927	2.15
344.058	35.15
344.189	10.15
344.319	14.15
344.45	16.15
344.581	6.15
344.712	-7.85
344.842	12.15
344.973	2.15
345.104	11.15
345.234	-3.85
345.365	-1.85
345.496	15.15
345.626	19.15
345.757	19.15
345.888	-6.85
346.018	16.15
346.149	3.15
346.28	30.15
346.41	-3.85
346.541	13.15
346.672	-1.85
346.802	14.15
346.933	-1.85
347.063	-0.85
347.194	-15.85
347.325	11.15
347.455	23.15
347.586	3.15
347.716	-13.85
347.847	13.15
347.977	19.15
348.108	11.15
348.238	10.15
348.369	0.15
348.499	7.15
348.63	-5.85
348.76	-6.85
348.891	-17.85
349.021	9.15
349.152	12.15
349.282	29.15
349.413	3.15
349.543	15.15
349.674	5.15
349.804	14.15
349.935	2.15
350.065	12.15
350.196	-16.85
350.326	0.15
350.456	-7.85
350.587	23.15
350.717	3.15
350.848	8.15
350.978	7.15
351.108	-20.85
351.239	-5.85
351.369	-0.85
351.499	13.15
351.63	22.15
351.76	0.15
351.89	1.15
352.021	10.15
352.151	1.15
352.281	4.15
352.412	25.15
352.542	34.15
352.672	7.15
352.803	-7.85
352.933	20.15
353.063	9.15
353.193	7.15
353.324	-3.85
353.454	18.15
353.584	38.15
353.714	8.15
353.845	15.15
353.975	-10.85
354.105	-9.85
354.235	8.15
354.365	5.15
354.496	4.15
354.626	15.15
354.756	20.15
354.886	7.15
355.016	1.15
355.146	15.15
355.277	26.15
355.407	10.15
355.537	-18.85
355.667	13.15
355.797	6.15
355.927	-17.85
356.057	10.15
356.187	-11.85
356.318	0.15
356.448	15.15
356.578	-6.85
356.708	20.15
356.838	17.15
356.968	7.15
357.098	19.15
357.228	17.15
357.358	3.15
357.488	-10.85
357.618	18.15
357.748	1.15
357.878	26.15
358.008	1.15
358.138	-13.85
358.268	-5.85
358.398	-1.85
358.528	-7.85
358.658	16.15
358.788	3.15
358.918	16.15
359.048	-10.85
359.178	24.15
359.308	6.15
359.438	25.15
359.568	3.15
359.698	8.15
359.827	1.15
359.957	10.15
360.087	-11.85
360.217	-9.85
360.347	28.15
360.477	21.15
360.607	-1.85
360.737	10.15
360.866	-11.85
360.996	-7.85
361.126	-8.85
361.256	25.15
361.386	22.15
361.516	19.15
361.645	-4.85
361.775	11.15
361.905	-24.85
362.035	2.15
362.165	-7.85
362.294	14.15
362.424	21.15
362.554	15.15
362.684	-1.85
362.813	8.15
362.943	7.15
363.073	23.15
363.203	18.15
363.332	26.15
363.462	-7.85
363.592	2.15
363.721	-9.85
363.851	22.15
363.981	13.15
364.111	9.15
364.24	-6.85
364.37	10.15
364.5	19.15
364.629	6.15
364.759	-9.85
364.888	-8.85
365.018	-0.85
365.148	9.15
365.277	-6.85
365.407	16.15
365.537	8.15
365.666	19.15
365.796	1.15
365.925	2.15
366.055	22.15
366.184	-5.85
366.314	2.15
366.444	4.15
366.573	9.15
366.703	9.15
366.832	3.15
366.962	2.15
367.091	17.15
367.221	18.15
367.35	13.15
367.48	31.15
367.609	7.15
367.739	27.15
367.868	3.15
367.998	9.15
368.127	7.15
368.257	19.15
368.386	28.15
368.516	10.15
368.645	1.15
368.775	12.15
368.904	19.15
369.033	0.15
369.163	9.15
369.292	13.15
369.422	15.15
369.551	34.15
369.68	13.15
369.81	22.15
369.939	-2.85
370.069	16.15
370.198	4.15
370.327	-19.85
370.457	-2.85
370.586	20.15
370.715	-11.85
370.845	-11.85
370.974	7.15
371.103	22.15
371.233	21.15
371.362	16.15
371.491	-25.85
371.621	7.15
371.75	3.15
371.879	0.15
372.008	0.15
372.138	-1.85
372.267	18.15
372.396	5.15
372.525	12.15
372.655	7.15
372.784	-13.85
372.913	8.15
373.042	14.15
373.172	28.15
373.301	-9.85
373.43	-4.85
373.559	11.15
373.688	13.15
373.818	12.15
373.947	13.15
374.076	-7.85
374.205	4.15
374.334	-3.85
374.463	-9.85
374.593	10.15
374.722	16.15
374.851	30.15
374.98	-11.85
375.109	-1.85
375.238	9.15
375.367	27.15
375.496	-10.85
375.625	-9.85
375.755	8.15
375.884	-1.85
376.013	20.15
376.142	-18.85
376.271	5.15
376.4	15.15
376.529	7.15
376.658	11.15
376.787	7.15
376.916	-4.85
377.045	-3.85
377.174	-13.85
377.303	0.15
377.432	17.15
377.561	25.15
377.69	9.15
377.819	35.15
377.948	8.15
378.077	-5.85
378.206	2.15
378.335	-5.85
378.464	12.15
378.593	28.15
378.722	-17.85
378.851	-6.85
378.98	13.15
379.108	-0.85
379.237	-9.85
379.366	5.15
379.495	5.15
379.624	9.15
379.753	11.15
379.882	14.15
380.011	-18.85
380.14	-11.85
380.268	-9.85
380.397	-15.85
380.526	23.15
380.655	8.15
380.784	-14.85
380.913	-2.85
381.041	17.15
381.17	-3.85
381.299	2.15
381.428	12.15
381.557	2.15
381.685	8.15
381.814	2.15
381.943	15.15
382.072	7.15
382.2	3.15
382.329	18.15
382.458	6.15
382.587	13.15
382.715	21.15
382.844	13.15
382.973	2.15
383.102	2.15
383.23	7.15
383.359	-6.85
383.488	8.15
383.616	-5.85
383.745	-3.85
383.874	30.15
384.003	-8.85
384.131	9.15
384.26	1.15
384.389	6.15
384.517	-2.85
384.646	2.15
384.774	-11.85
384.903	19.15
385.032	26.15
385.16	8.15
385.289	-4.85
385.418	-5.85
385.546	3.15
385.675	21.15
385.803	1.15
385.932	1.15
386.06	4.15
386.189	4.15
386.318	20.15
386.446	0.15
386.575	11.15
386.703	16.15
386.832	4.15
386.96	-7.85
387.089	8.15
387.217	-7.85
387.346	-1.85
387.474	7.15
387.603	20.15
387.731	15.15
387.86	12.15
387.988	10.15
388.117	22.15
388.245	26.15
388.374	4.15
388.502	-3.85
388.631	3.15
388.759	-0.85
388.888	9.15
389.016	-16.85
389.144	5.15
389.273	11.15
389.401	-10.85
389.53	-15.85
389.658	6.15
389.786	-3.85
389.915	-18.85
390.043	4.15
390.172	0.15
390.3	14.15
390.428	18.15
390.557	-9.85
390.685	13.15
390.813	23.15
390.942	13.15
391.07	21.15
391.198	9.15
391.327	11.15
391.455	8.15
391.583	32.15
391.712	8.15
391.84	-9.85
391.968	-7.85
392.096	12.15
392.225	11.15
392.353	26.15
392.481	4.15
392.609	13.15
392.738	0.15
392.866	-3.85
392.994	-9.85
393.122	10.15
393.251	1.15
393.379	8.15
393.507	-7.85
393.635	-7.85
393.764	11.15
393.892	7.15
394.02	-3.85
394.148	0.15
394.276	17.15
394.404	26.15
394.533	-0.85
394.661	17.15
394.789	6.15
394.917	15.15
395.045	-6.85
395.173	-3.85
395.302	-7.85
395.43	-0.85
395.558	21.15
395.686	19.15
395.814	17.15
395.942	-8.85
396.07	10.15
396.198	7.15
396.326	18.15
396.454	2.15
396.582	-6.85
396.711	0.15
396.839	5.15
396.967	16.15
397.095	11.15
397.223	5.15
397.351	27.15
397.479	3.15
397.607	1.15
397.735	15.15
397.863	8.15
397.991	2.15
398.119	-3.85
398.247	-2.85
398.375	6.15
398.503	6.15
398.631	15.15
398.759	5.15
398.887	-0.85
399.015	-20.85
399.143	-5.85
399.271	-4.85
399.399	4.15
399.526	17.15
399.654	22.15
399.782	-7.85
399.91	29.15
400.038	18.15
400.166	9.15
400.294	6.15
400.422	-13.85
400.55	4.15
400.678	6.15
400.805	18.15
400.933	35.15
401.061	5.15
401.189	-3.85
401.317	25.15
401.445	14.15
401.573	28.15
401.7	13.15
401.828	-8.85
401.956	3.15
402.084	-6.85
402.212	7.15
402.34	27.15
402.467	17.15
402.595	-0.85
402.723	5.15
402.851	22.15
402.978	-5.85
403.106	20.15
403.234	-9.85
403.362	28.15
403.489	20.15
403.617	6.15
403.745	-3.85
403.873	-13.85
404	27.15
404.128	17.15
404.256	22.15
404.384	6.15
404.511	3.15
404.639	-7.85
404.767	-3.85
404.894	-3.85
405.022	0.15
405.15	0.15
405.277	-5.85
405.405	8.15
405.533	15.15
405.66	15.15
405.788	-16.85
405.916	-36.85
406.043	-20.85
406.171	6.15
406.299	17.15
406.426	6.15
406.554	6.15
406.681	35.15
406.809	21.15
406.937	5.15
407.064	-0.85
407.192	-0.85
407.319	34.15
407.447	-6.85
407.574	28.15
407.702	28.15
407.83	8.15
407.957	15.15
408.085	14.15
408.212	-8.85
408.34	5.15
408.467	4.15
408.595	25.15
408.722	18.15
408.85	30.15
408.977	-8.85
409.105	-17.85
409.232	1.15
409.36	21.15
409.487	4.15
409.615	19.15
409.742	7.15
409.87	21.15
409.997	20.15
410.125	40.15
410.252	41.15
410.379	42.15
410.507	48.15
410.634	26.15
410.762	23.15
410.889	27.15
411.017	5.15
411.144	17.15
411.271	-8.85
411.399	26.15
411.526	15.15
411.653	32.15
411.781	1.15
411.908	-7.85
412.036	8.15
412.163	30.15
412.29	18.15
412.418	-6.85
412.545	22.15
412.672	1.15
412.8	34.15
412.927	23.15
413.054	26.15
413.182	-1.85
413.309	3.15
413.436	1.15
413.564	-2.85
413.691	3.15
413.818	26.15
413.945	-9.85
414.073	-21.85
414.2	7.15
414.327	5.15
414.454	8.15
414.582	-3.85
414.709	-1.85
414.836	-9.85
414.963	3.15
415.091	4.15
415.218	11.15
415.345	-3.85
415.472	-7.85
415.6	10.15
415.727	2.15
415.854	-2.85
415.981	0.15
416.108	5.15
416.236	18.15
416.363	22.15
416.49	19.15
416.617	0.15
416.744	14.15
416.871	14.15
416.998	7.15
417.126	-15.85
417.253	9.15
417.38	12.15
417.507	4.15
417.634	4.15
417.761	2.15
417.888	24.15
418.015	8.15
418.143	7.15
418.27	28.15
418.397	7.15
418.524	26.15
418.651	-0.85
418.778	5.15
418.905	34.15
419.032	28.15
419.159	14.15
419.286	43.15
419.413	28.15
419.54	20.15
419.667	5.15
419.794	9.15
419.921	9.15
420.048	6.15
420.175	21.15
420.302	12.15
420.429	3.15
420.556	22.15
420.683	13.15
420.81	24.15
420.937	32.15
421.064	14.15
421.191	1.15
421.318	15.15
421.445	28.15
421.572	2.15
421.699	19.15
421.826	16.15
421.953	-8.85
422.08	-0.85
422.207	-2.85
422.334	-11.85
422.461	19.15
422.588	4.15
422.714	29.15
422.841	20.15
422.968	12.15
423.095	22.15
423.222	-2.85
423.349	24.15
423.476	15.15
423.603	10.15
423.729	-4.85
423.856	4.15
423.983	13.15
424.11	4.15
424.237	8.15
424.364	11.15
424.491	15.15
424.617	-7.85
424.744	6.15
424.871	6.15
424.998	-9.85
425.125	2.15
425.251	8.15
425.378	4.15
425.505	2.15
425.632	6.15
425.758	-10.85
425.885	13.15
426.012	39.15
426.139	20.15
426.266	4.15
426.392	4.15
426.519	10.15
426.646	9.15
426.772	29.15
426.899	-10.85
427.026	9.15
427.153	0.15
427.279	37.15
427.406	-3.85
427.533	19.15
427.659	15.15
427.786	6.15
427.913	25.15
428.039	5.15
428.166	7.15
428.293	21.15
428.419	24.15
428.546	14.15
428.673	-3.85
428.799	13.15
428.926	-17.85
429.053	31.15
429.179	28.15
429.306	25.15
429.433	33.15
429.559	14.15
429.686	-0.85
429.812	-3.85
429.939	-6.85
430.066	6.15
430.192	3.15
430.319	-1.85
430.445	4.15
430.572	12.15
430.699	-13.85
430.825	4.15
430.952	-1.85
431.078	0.15
431.205	-4.85
431.331	-11.85
431.458	25.15
431.584	17.15
431.711	10.15
431.837	2.15
431.964	4.15
432.09	18.15
432.217	12.15
432.343	-1.85
432.47	24.15
432.596	15.15
432.723	13.15
432.849	0.15
432.976	3.15
433.102	3.15
433.229	-2.85
433.355	28.15
433.482	72.15
433.608	155.15
433.735	142.15
433.861	133.15
433.987	149.15
434.114	231.15
434.24	214.15
434.367	81.15
434.493	5.15
434.62	41.15
434.746	37.15
434.872	6.15
434.999	24.15
435.125	23.15
435.252	-5.85
435.378	14.15
435.504	18.15
435.631	24.15
435.757	0.15
435.883	3.15
436.01	18.15
436.136	8.15
436.262	25.15
436.389	15.15
436.515	19.15
436.641	30.15
436.768	22.15
436.894	7.15
437.02	6.15
437.147	36.15
437.273	32.15
437.399	4.15
437.526	17.15
437.652	-7.85
437.778	0.15
437.904	-6.85
438.031	9.15
438.157	21.15
438.283	11.15
438.409	0.15
438.536	0.15
438.662	14.15
438.788	16.15
438.914	28.15
439.041	-1.85
439.167	43.15
439.293	3.15
439.419	-21.85
439.546	14.15
439.672	-17.85
439.798	-6.85
439.924	6.15
440.05	13.15
440.177	20.15
440.303	20.15
440.429	12.15
440.555	6.15
440.681	16.15
440.807	19.15
440.934	12.15
441.06	9.15
441.186	13.15
441.312	27.15
441.438	10.15
441.564	21.15
441.69	32.15
441.816	2.15
441.943	12.15
442.069	22.15
442.195	20.15
442.321	5.15
442.447	3.15
442.573	12.15
442.699	2.15
442.825	-11.85
442.951	29.15
443.077	21.15
443.203	20.15
443.33	-0.85
443.456	-3.85
443.582	13.15
443.708	3.15
443.834	14.15
443.96	11.15
444.086	5.15
444.212	27.15
444.338	25.15
444.464	14.15
444.59	13.15
444.716	6.15
444.842	14.15
444.968	10.15
445.094	5.15
445.22	20.15
445.346	2.15
445.472	5.15
445.598	17.15
445.724	18.15
445.85	3.15
445.976	17.15
446.102	15.15
446.228	38.15
446.354	12.15
446.48	-5.85
446.605	7.15
446.731	20.15
446.857	2.15
446.983	14.15
447.109	8.15
447.235	24.15
447.361	16.15
447.487	5.15
447.613	-5.85
447.739	9.15
447.865	-9.85
447.99	8.15
448.116	15.15
448.242	17.15
448.368	5.15
448.494	10.15
448.62	3.15
448.746	10.15
448.872	18.15
448.997	4.15
449.123	5.15
449.249	25.15
449.375	16.15
449.501	5.15
449.627	-15.85
449.752	54.15
449.878	3.15
450.004	1.15
450.13	18.15
450.256	-3.85
450.381	5.15
450.507	5.15
450.633	1.15
450.759	24.15
450.884	11.15
451.01	15.15
451.136	15.15
451.262	18.15
451.388	21.15
451.513	2.15
451.639	-1.85
451.765	6.15
451.89	39.15
452.016	24.15
452.142	17.15
452.268	6.15
452.393	-4.85
452.519	-4.85
452.645	10.15
452.771	19.15
452.896	-1.85
453.022	-5.85
453.148	24.15
453.273	12.15
453.399	-13.85
453.525	-25.85
453.65	8.15
453.776	29.15
453.902	8.15
454.027	24.15
454.153	18.15
454.279	28.15
454.404	-17.85
454.53	19.15
454.656	42.15
454.781	9.15
454.907	8.15
455.032	19.15
455.158	30.15
455.284	24.15
455.409	12.15
455.535	20.15
455.66	15.15
455.786	31.15
455.912	11.15
456.037	20.15
456.163	34.15
456.288	26.15
456.414	4.15
456.539	-6.85
456.665	24.15
456.791	13.15
456.916	-5.85
457.042	8.15
457.167	4.15
457.293	17.15
457.418	3.15
457.544	-2.85
457.669	-3.85
457.795	-15.85
457.92	-6.85
458.046	12.15
458.171	19.15
458.297	10.15
458.422	-14.85
458.548	4.15
458.673	23.15
458.799	20.15
458.924	13.15
459.05	16.15
459.175	7.15
459.301	6.15
459.426	26.15
459.552	-0.85
459.677	-4.85
459.803	43.15
459.928	20.15
460.053	-2.85
460.179	20.15
460.304	21.15
460.43	-0.85
460.555	4.15
460.681	-7.85
460.806	17.15
460.931	3.15
461.057	19.15
461.182	8.15
461.308	23.15
461.433	17.15
461.558	11.15
461.684	29.15
461.809	1.15
461.934	4.15
462.06	28.15
462.185	0.15
462.311	11.15
462.436	18.15
462.561	20.15
462.687	26.15
462.812	27.15
462.937	-5.85
463.063	2.15
463.188	-6.85
463.313	32.15
463.439	16.15
463.564	12.15
463.689	-1.85
463.814	15.15
463.94	18.15
464.065	10.15
464.19	23.15
464.316	-1.85
464.441	3.15
464.566	3.15
464.692	20.15
464.817	10.15
464.942	15.15
465.067	-11.85
465.193	-11.85
465.318	18.15
465.443	17.15
465.568	1.15
465.694	-6.85
465.819	25.15
465.944	16.15
466.069	2.15
466.194	-3.85
466.32	18.15
466.445	19.15
466.57	-7.85
466.695	-1.85
466.82	12.15
466.946	-1.85
467.071	10.15
467.196	-4.85
467.321	26.15
467.446	-1.85
467.572	15.15
467.697	2.15
467.822	14.15
467.947	14.15
468.072	9.15
468.197	8.15
468.323	6.15
468.448	10.15
468.573	-3.85
468.698	7.15
468.823	17.15
468.948	17.15
469.073	13.15
469.198	37.15
469.324	20.15
469.449	10.15
469.574	20.15
469.699	30.15
469.824	29.15
469.949	13.15
470.074	27.15
470.199	40.15
470.324	23.15
470.449	4.15
470.574	11.15
470.7	21.15
470.825	6.15
470.95	25.15
471.075	21.15
471.2	12.15
471.325	38.15
471.45	16.15
471.575	0.15
471.7	25.15
471.825	12.15
471.95	6.15
472.075	17.15
472.2	16.15
472.325	13.15
472.45	7.15
472.575	12.15
472.7	7.15
472.825	24.15
472.95	16.15
473.075	13.15
473.2	1.15
473.325	-1.85
473.45	7.15
473.575	0.15
473.7	7.15
473.825	14.15
473.95	23.15
474.075	18.15
474.2	15.15
474.325	2.15
474.45	28.15
474.574	21.15
474.699	26.15
474.824	22.15
474.949	7.15
475.074	0.15
475.199	25.15
475.324	20.15
475.449	7.15
475.574	13.15
475.699	10.15
475.824	2.15
475.949	1.15
476.073	5.15
476.198	2.15
476.323	6.15
476.448	1.15
476.573	6.15
476.698	11.15
476.823	15.15
476.947	0.15
477.072	-0.85
477.197	8.15
477.322	-3.85
477.447	7.15
477.572	20.15
477.697	18.15
477.821	13.15
477.946	28.15
478.071	32.15
478.196	32.15
478.321	21.15
478.445	9.15
478.57	-0.85
478.695	7.15
478.82	20.15
478.945	14.15
479.069	-6.85
479.194	17.15
479.319	40.15
479.444	30.15
479.569	4.15
479.693	-1.85
479.818	0.15
479.943	8.15
480.068	15.15
480.192	24.15
480.317	-0.85
480.442	10.15
480.567	20.15
480.691	22.15
480.816	12.15
480.941	1.15
481.066	17.15
481.19	18.15
481.315	21.15
481.44	10.15
481.564	-8.85
481.689	25.15
481.814	30.15
481.938	0.15
482.063	3.15
482.188	22.15
482.313	36.15
482.437	11.15
482.562	11.15
482.687	31.15
482.811	37.15
482.936	24.15
483.061	24.15
483.185	18.15
483.31	36.15
483.435	33.15
483.559	37.15
483.684	7.15
483.808	18.15
483.933	3.15
484.058	-5.85
484.182	14.15
484.307	30.15
484.432	18.15
484.556	19.15
484.681	31.15
484.805	13.15
484.93	29.15
485.055	41.15
485.179	67.15
485.304	113.15
485.428	332.15
485.553	1252.15
485.678	1697.15
485.802	1614.15
485.927	1750.15
486.051	2643.15
486.176	1620.15
486.3	425.15
486.425	146.15
486.549	82.15
486.674	49.15
486.799	36.15
486.923	19.15
487.048	29.15
487.172	28.15
487.297	28.15
487.421	38.15
487.546	34.15
487.67	14.15
487.795	2.15
487.919	12.15
488.044	35.15
488.168	29.15
488.293	20.15
488.417	24.15
488.542	16.15
488.666	22.15
488.791	28.15
488.915	14.15
489.04	11.15
489.164	27.15
489.289	25.15
489.413	6.15
489.538	25.15
489.662	33.15
489.786	4.15
489.911	27.15
490.035	28.15
490.16	4.15
490.284	-2.85
490.409	2.15
490.533	26.15
490.658	36.15
490.782	24.15
490.906	9.15
491.031	6.15
491.155	17.15
491.28	40.15
491.404	35.15
491.528	32.15
491.653	15.15
491.777	20.15
491.902	-4.85
492.026	14.15
492.15	2.15
492.275	37.15
492.399	26.15
492.524	10.15
492.648	33.15
492.772	36.15
492.897	17.15
493.021	6.15
493.145	14.15
493.27	20.15
493.394	14.15
493.518	12.15
493.643	18.15
493.767	23.15
493.891	-4.85
494.016	13.15
494.14	12.15
494.264	7.15
494.389	14.15
494.513	23.15
494.637	9.15
494.762	21.15
494.886	26.15
495.01	6.15
495.134	12.15
495.259	33.15
495.383	17.15
495.507	24.15
495.632	24.15
495.756	39.15
495.88	22.15
496.004	14.15
496.129	7.15
496.253	27.15
496.377	14.15
496.501	45.15
496.626	0.15
496.75	26.15
496.874	14.15
496.998	13.15
497.123	26.15
497.247	12.15
497.371	5.15
497.495	20.15
497.62	15.15
497.744	7.15
497.868	20.15
497.992	38.15
498.116	9.15
498.241	9.15
498.365	6.15
498.489	8.15
498.613	31.15
498.737	12.15
498.862	14.15
498.986	2.15
499.11	20.15
499.234	18.15
499.358	11.15
499.482	13.15
499.607	8.15
499.731	14.15
499.855	14.15
499.979	33.15
500.103	-0.85
500.227	33.15
500.351	2.15
500.476	5.15
500.6	16.15
500.724	3.15
500.848	6.15
500.972	25.15
501.096	17.15
501.22	33.15
501.344	19.15
501.469	6.15
501.593	8.15
501.717	1.15
501.841	17.15
501.965	11.15
502.089	14.15
502.213	19.15
502.337	-3.85
502.461	1.15
502.585	-14.85
502.709	2.15
502.834	13.15
502.958	21.15
503.082	8.15
503.206	11.15
503.33	9.15
503.454	18.15
503.578	19.15
503.702	25.15
503.826	28.15
503.95	49.15
504.074	22.15
504.198	24.15
504.322	6.15
504.446	5.15
504.57	14.15
504.694	-2.85
504.818	7.15
504.942	25.15
505.066	34.15
505.19	19.15
505.314	5.15
505.438	16.15
505.562	-0.85
505.686	26.15
505.81	8.15
505.934	17.15
506.058	7.15
506.182	20.15
506.306	11.15
506.43	0.15
506.554	16.15
506.678	9.15
506.802	17.15
506.926	17.15
507.05	20.15
507.174	30.15
507.298	14.15
507.422	27.15
507.546	18.15
507.67	38.15
507.794	-4.85
507.918	3.15
508.042	13.15
508.165	9.15
508.289	5.15
508.413	21.15
508.537	18.15
508.661	9.15
508.785	26.15
508.909	28.15
509.033	19.15
509.157	20.15
509.281	22.15
509.405	17.15
509.528	36.15
509.652	5.15
509.776	0.15
509.9	14.15
510.024	10.15
510.148	17.15
510.272	10.15
510.396	22.15
510.519	7.15
510.643	24.15
510.767	15.15
510.891	10.15
511.015	13.15
511.139	3.15
511.263	25.15
511.386	28.15
511.51	13.15
511.634	1.15
511.758	3.15
511.882	14.15
512.006	23.15
512.129	20.15
512.253	45.15
512.377	17.15
512.501	23.15
512.625	9.15
512.748	21.15
512.872	-3.85
512.996	7.15
513.12	22.15
513.244	6.15
513.367	10.15
513.491	11.15
513.615	4.15
513.739	4.15
513.862	21.15
513.986	19.15
514.11	28.15
514.234	9.15
514.358	27.15
514.481	26.15
514.605	17.15
514.729	17.15
514.853	26.15
514.976	10.15
515.1	9.15
515.224	24.15
515.348	13.15
515.471	-5.85
515.595	8.15
515.719	7.15
515.842	38.15
515.966	12.15
516.09	34.15
516.214	12.15
516.337	52.15
516.461	20.15
516.585	36.15
516.708	13.15
516.832	13.15
516.956	16.15
517.08	9.15
517.203	12.15
517.327	14.15
517.451	29.15
517.574	31.15
517.698	21.15
517.822	36.15
517.945	34.15
518.069	16.15
518.193	59.15
518.316	21.15
518.44	24.15
518.564	12.15
518.687	32.15
518.811	43.15
518.935	54.15
519.058	18.15
519.182	16.15
519.306	45.15
519.429	15.15
519.553	46.15
519.676	34.15
519.8	10.15
519.924	22.15
520.047	15.15
520.171	5.15
520.294	14.15
520.418	34.15
520.542	11.15
520.665	34.15
520.789	9.15
520.913	1.15
521.036	-7.85
521.16	16.15
521.283	10.15
521.407	6.15
521.53	-1.85
521.654	-10.85
521.778	9.15
521.901	17.15
522.025	4.15
522.148	-10.85
522.272	12.15
522.395	1.15
522.519	23.15
522.643	3.15
522.766	16.15
522.89	-11.85
523.013	30.15
523.137	-13.85
523.26	9.15
523.384	23.15
523.507	19.15
523.631	10.15
523.754	7.15
523.878	2.15
524.002	17.15
524.125	0.15
524.249	-9.85
524.372	-0.85
524.496	19.15
524.619	16.15
524.743	4.15
524.866	-2.85
524.99	19.15
525.113	8.15
525.237	12.15
525.36	13.15
525.484	-7.85
525.607	2.15
525.731	-0.85
525.854	22.15
525.978	42.15
526.101	12.15
526.224	19.15
526.348	21.15
526.471	22.15
526.595	10.15
526.718	14.15
526.842	-7.85
526.965	19.15
527.089	14.15
527.212	15.15
527.336	-1.85
527.459	12.15
527.582	-15.85
527.706	7.15
527.829	24.15
527.953	3.15
528.076	-7.85
528.2	3.15
528.323	9.15
528.446	25.15
528.57	13.15
528.693	25.15
528.817	6.15
528.94	25.15
529.064	25.15
529.187	10.15
529.31	8.15
529.434	-2.85
529.557	-7.85
529.68	-5.85
529.804	6.15
529.927	8.15
530.051	-1.85
530.174	14.15
530.297	19.15
530.421	10.15
530.544	21.15
530.668	9.15
530.791	-20.85
530.914	29.15
531.038	10.15
531.161	11.15
531.284	19.15
531.408	6.15
531.531	15.15
531.654	17.15
531.778	5.15
531.901	-1.85
532.024	20.15
532.148	4.15
532.271	30.15
532.394	27.15
532.518	21.15
532.641	13.15
532.764	25.15
532.888	32.15
533.011	-9.85
533.134	-18.85
533.258	29.15
533.381	6.15
533.504	27.15
533.628	11.15
533.751	24.15
533.874	17.15
533.997	26.15
534.121	0.15
534.244	-14.85
534.367	5.15
534.491	-1.85
534.614	11.15
534.737	17.15
534.86	19.15
534.984	5.15
535.107	14.15
535.23	20.15
535.354	8.15
535.477	2.15
535.6	41.15
535.723	23.15
535.847	-1.85
535.97	8.15
536.093	25.15
536.216	19.15
536.34	14.15
536.463	-1.85
536.586	21.15
536.709	13.15
536.833	35.15
536.956	18.15
537.079	2.15
537.202	27.15
537.325	-0.85
537.449	-2.85
537.572	18.15
537.695	17.15
537.818	21.15
537.941	4.15
538.065	22.15
538.188	17.15
538.311	30.15
538.434	24.15
538.558	9.15
538.681	30.15
538.804	9.15
538.927	9.15
539.05	7.15
539.173	0.15
539.297	21.15
539.42	25.15
539.543	26.15
539.666	35.15
539.789	35.15
539.913	7.15
540.036	19.15
540.159	6.15
540.282	-1.85
540.405	-6.85
540.528	8.15
540.651	6.15
540.775	8.15
540.898	19.15
541.021	25.15
541.144	8.15
541.267	14.15
541.39	-5.85
541.513	7.15
541.637	0.15
541.76	4.15
541.883	-10.85
542.006	13.15
542.129	19.15
542.252	9.15
542.375	25.15
542.498	20.15
542.622	14.15
542.745	19.15
542.868	14.15
542.991	20.15
543.114	24.15
543.237	28.15
543.36	23.15
543.483	18.15
543.606	12.15
543.73	30.15
543.853	23.15
543.976	14.15
544.099	24.15
544.222	12.15
544.345	-4.85
544.468	0.15
544.591	14.15
544.714	21.15
544.837	27.15
544.96	26.15
545.083	28.15
545.206	27.15
545.329	39.15
545.453	9.15
545.576	26.15
545.699	-3.85
545.822	18.15
545.945	29.15
546.068	10.15
546.191	21.15
546.314	8.15
546.437	29.15
546.56	0.15
546.683	14.15
546.806	25.15
546.929	-5.85
547.052	-13.85
547.175	7.15
547.298	22.15
547.421	5.15
547.544	1.15
547.667	7.15
547.79	-1.85
547.913	6.15
548.036	9.15
548.159	11.15
548.282	22.15
548.405	7.15
548.528	11.15
548.651	-0.85
548.774	22.15
548.897	21.15
549.02	45.15
549.143	46.15
549.266	10.15
549.389	14.15
549.512	-6.85
549.635	23.15
549.758	12.15
549.881	0.15
550.004	10.15
550.127	18.15
550.25	9.15
550.373	6.15
550.496	5.15
550.619	14.15
550.742	12.15
550.865	-10.85
550.988	11.15
551.111	21.15
551.234	27.15
551.356	-3.85
551.479	-8.85
551.602	6.15
551.725	4.15
551.848	21.15
551.971	23.15
552.094	17.15
552.217	10.15
552.34	10.15
552.463	2.15
552.586	2.15
552.709	1.15
552.832	24.15
552.955	21.15
553.077	20.15
553.2	18.15
553.323	-6.85
553.446	4.15
553.569	-6.85
553.692	14.15
553.815	25.15
553.938	17.15
554.061	23.15
554.184	17.15
554.306	13.15
554.429	-1.85
554.552	22.15
554.675	0.15
554.798	25.15
554.921	21.15
555.044	-0.85
555.167	8.15
555.29	12.15
555.412	14.15
555.535	16.15
555.658	2.15
555.781	20.15
555.904	15.15
556.027	7.15
556.15	10.15
556.272	16.15
556.395	30.15
556.518	0.15
556.641	-0.85
556.764	28.15
556.887	21.15
557.01	16.15
557.132	2.15
557.255	-3.85
557.378	29.15
557.501	16.15
557.624	9.15
557.747	3.15
557.869	13.15
557.992	15.15
558.115	20.15
558.238	0.15
558.361	29.15
558.483	21.15
558.606	13.15
558.729	14.15
558.852	31.15
558.975	27.15
559.098	34.15
559.22	23.15
559.343	13.15
559.466	8.15
559.589	7.15
559.712	20.15
559.834	17.15
559.957	20.15
560.08	27.15
560.203	17.15
560.325	24.15
560.448	19.15
560.571	2.15
560.694	0.15
560.817	20.15
560.939	-6.85
561.062	1.15
561.185	32.15
561.308	19.15
561.43	4.15
561.553	7.15
561.676	-3.85
561.799	7.15
561.921	0.15
562.044	0.15
562.167	2.15
562.29	20.15
562.413	18.15
562.535	22.15
562.658	5.15
562.781	10.15
562.903	2.15
563.026	-4.85
563.149	26.15
563.272	-1.85
563.394	17.15
563.517	3.15
563.64	-4.85
563.763	-2.85
563.885	13.15
564.008	15.15
564.131	16.15
564.254	-7.85
564.376	7.15
564.499	-19.85
564.622	4.15
564.744	17.15
564.867	18.15
564.99	-5.85
565.113	20.15
565.235	-2.85
565.358	-1.85
565.481	-6.85
565.603	1.15
565.726	2.15
565.849	32.15
565.971	34.15
566.094	-2.85
566.217	20.15
566.34	13.15
566.462	-0.85
566.585	32.15
566.708	30.15
566.83	12.15
566.953	14.15
567.076	8.15
567.198	3.15
567.321	-24.85
567.444	17.15
567.566	4.15
567.689	0.15
567.812	5.15
567.934	23.15
568.057	2.15
568.18	12.15
568.302	-1.85
568.425	19.15
568.548	-1.85
568.67	-1.85
568.793	-5.85
568.916	1.15
569.038	7.15
569.161	24.15
569.283	22.15
569.406	19.15
569.529	5.15
569.651	12.15
569.774	16.15
569.897	8.15
570.019	25.15
570.142	25.15
570.265	11.15
570.387	11.15
570.51	17.15
570.632	29.15
570.755	5.15
570.878	-9.85
571	10.15
571.123	8.15
571.246	20.15
571.368	8.15
571.491	10.15
571.613	-9.85
571.736	-0.85
571.859	16.15
571.981	5.15
572.104	16.15
572.226	11.15
572.349	2.15
572.472	9.15
572.594	22.15
572.717	13.15
572.839	5.15
572.962	15.15
573.085	27.15
573.207	10.15
573.33	27.15
573.452	32.15
573.575	44.15
573.697	25.15
573.82	18.15
573.943	3.15
574.065	11.15
574.188	6.15
574.31	28.15
574.433	21.15
574.555	12.15
574.678	18.15
574.801	6.15
574.923	-2.85
575.046	16.15
575.168	-1.85
575.291	1.15
575.413	11.15
575.536	0.15
575.659	16.15
575.781	-6.85
575.904	-6.85
576.026	18.15
576.149	8.15
576.271	24.15
576.394	22.15
576.516	5.15
576.639	-2.85
576.761	1.15
576.884	15.15
577.007	7.15
577.129	21.15
577.252	14.15
577.374	25.15
577.497	-2.85
577.619	0.15
577.742	2.15
577.864	30.15
577.987	11.15
578.109	20.15
578.232	0.15
578.354	23.15
578.477	8.15
578.599	-3.85
578.722	11.15
578.844	14.15
578.967	15.15
579.089	9.15
579.212	4.15
579.334	35.15
579.457	13.15
579.579	9.15
579.702	9.15
579.824	10.15
579.947	3.15
580.069	2.15
580.192	-7.85
580.314	21.15
580.437	18.15
580.559	38.15
580.682	24.15
580.804	15.15
580.927	25.15
581.049	41.15
581.172	19.15
581.294	25.15
581.417	24.15
581.539	18.15
581.662	31.15
581.784	17.15
581.907	21.15
582.029	22.15
582.152	12.15
582.274	16.15
582.396	16.15
582.519	21.15
582.641	5.15
582.764	3.15
582.886	9.15
583.009	-3.85
583.131	10.15
583.254	10.15
583.376	14.15
583.499	36.15
583.621	9.15
583.743	24.15
583.866	14.15
583.988	14.15
584.111	7.15
584.233	18.15
584.356	9.15
584.478	21.15
584.601	-13.85
584.723	12.15
584.845	19.15
584.968	5.15
585.09	-3.85
585.213	7.15
585.335	-15.85
585.458	5.15
585.58	1.15
585.702	21.15
585.825	6.15
585.947	12.15
586.07	-4.85
586.192	-10.85
586.315	20.15
586.437	-2.85
586.559	9.15
586.682	-5.85
586.804	10.15
586.927	21.15
587.049	8.15
587.171	20.15
587.294	25.15
587.416	33.15
587.539	-2.85
587.661	-2.85
587.783	21.15
587.906	7.15
588.028	18.15
588.151	16.15
588.273	14.15
588.395	8.15
588.518	10.15
588.64	22.15
588.763	31.15
588.885	18.15
589.007	31.15
589.13	-1.85
589.252	-4.85
589.375	16.15
589.497	12.15
589.619	30.15
589.742	20.15
589.864	23.15
589.986	22.15
590.109	3.15
590.231	5.15
590.354	2.15
590.476	3.15
590.598	7.15
590.721	-2.85
590.843	14.15
590.965	4.15
591.088	18.15
591.21	12.15
591.332	24.15
591.455	-2.85
591.577	13.15
591.7	-2.85
591.822	16.15
591.944	14.15
592.067	30.15
592.189	24.15
592.311	13.15
592.434	-1.85
592.556	13.15
592.678	9.15
592.801	10.15
592.923	14.15
593.045	-3.85
593.168	13.15
593.29	23.15
593.412	26.15
593.535	2.15
593.657	10.15
593.779	3.15
593.902	18.15
594.024	9.15
594.146	13.15
594.269	13.15
594.391	1.15
594.513	34.15
594.636	13.15
594.758	4.15
594.88	15.15
595.003	29.15
595.125	18.15
595.247	18.15
595.37	4.15
595.492	3.15
595.614	44.15
595.737	6.15
595.859	11.15
595.981	-7.85
596.104	1.15
596.226	2.15
596.348	21.15
596.471	4.15
596.593	12.15
596.715	9.15
596.838	9.15
596.96	2.15
597.082	11.15
597.204	27.15
597.327	-1.85
597.449	7.15
597.571	9.15
597.694	27.15
597.816	12.15
597.938	27.15
598.061	9.15
598.183	13.15
598.305	20.15
598.427	28.15
598.55	15.15
598.672	18.15
598.794	2.15
598.917	-1.85
599.039	11.15
599.161	18.15
599.283	9.15
599.406	9.15
599.528	15.15
599.65	35.15
599.773	19.15
599.895	17.15
600.017	20.15
600.139	12.15
600.262	1.15
600.384	2.15
600.506	11.15
600.628	27.15
600.751	12.15
600.873	8.15
600.995	-2.85
601.118	34.15
601.24	-7.85
601.362	21.15
601.484	26.15
601.607	17.15
601.729	-1.85
601.851	19.15
601.973	18.15
602.096	18.15
602.218	18.15
602.34	22.15
602.462	26.15
602.585	12.15
602.707	-5.85
602.829	11.15
602.951	14.15
603.074	5.15
603.196	19.15
603.318	-3.85
603.44	27.15
603.563	32.15
603.685	-7.85
603.807	23.15
603.929	14.15
604.052	33.15
604.174	18.15
604.296	7.15
604.418	24.15
604.541	39.15
604.663	1.15
604.785	26.15
604.907	20.15
605.03	-9.85
605.152	39.15
605.274	0.15
605.396	5.15
605.519	0.15
605.641	-5.85
605.763	16.15
605.885	24.15
606.008	-3.85
606.13	16.15
606.252	7.15
606.374	4.15
606.496	1.15
606.619	15.15
606.741	14.15
606.863	27.15
606.985	28.15
607.108	23.15
607.23	18.15
607.352	-7.85
607.474	4.15
607.596	13.15
607.719	-5.85
607.841	16.15
607.963	18.15
608.085	4.15
608.207	38.15
608.33	15.15
608.452	12.15
608.574	10.15
608.696	29.15
608.819	11.15
608.941	9.15
609.063	11.15
609.185	12.15
609.307	17.15
609.43	15.15
609.552	-4.85
609.674	-6.85
609.796	22.15
609.918	10.15
610.041	16.15
610.163	12.15
610.285	2.15
610.407	7.15
610.529	1.15
610.652	20.15
610.774	7.15
610.896	13.15
611.018	-1.85
611.14	7.15
611.263	4.15
611.385	-3.85
611.507	26.15
611.629	7.15
611.751	10.15
611.873	38.15
611.996	10.15
612.118	25.15
612.24	14.15
612.362	36.15
612.484	27.15
612.607	53.15
612.729	50.15
612.851	18.15
612.973	5.15
613.095	15.15
613.218	2.15
613.34	25.15
613.462	19.15
613.584	1.15
613.706	6.15
613.828	45.15
613.951	9.15
614.073	9.15
614.195	-0.85
614.317	32.15
614.439	9.15
614.561	7.15
614.684	2.15
614.806	16.15
614.928	25.15
615.05	21.15
615.172	9.15
615.294	14.15
615.417	12.15
615.539	-2.85
615.661	10.15
615.783	22.15
615.905	30.15
616.027	76.15
616.15	93.15
616.272	66.15
616.394	54.15
616.516	33.15
616.638	34.15
616.76	23.15
616.883	19.15
617.005	16.15
617.127	16.15
617.249	27.15
617.371	20.15
617.493	21.15
617.615	28.15
617.738	20.15
617.86	22.15
617.982	18.15
618.104	7.15
618.226	-6.85
618.348	-5.85
618.471	18.15
618.593	21.15
618.715	10.15
618.837	4.15
618.959	9.15
619.081	10.15
619.203	19.15
619.326	12.15
619.448	7.15
619.57	6.15
619.692	3.15
619.814	10.15
619.936	9.15
620.058	11.15
620.181	19.15
620.303	27.15
620.425	26.15
620.547	23.15
620.669	3.15
620.791	9.15
620.913	8.15
621.036	-2.85
621.158	7.15
621.28	13.15
621.402	-9.85
621.524	-4.85
621.646	-5.85
621.768	-11.85
621.891	-7.85
622.013	14.15
622.135	-7.85
622.257	-5.85
622.379	0.15
622.501	20.15
622.623	12.15
622.745	14.15
622.868	14.15
622.99	0.15
623.112	-0.85
623.234	6.15
623.356	30.15
623.478	10.15
623.6	27.15
623.722	2.15
623.845	18.15
623.967	8.15
624.089	8.15
624.211	4.15
624.333	23.15
624.455	26.15
624.577	-4.85
624.699	18.15
624.822	17.15
624.944	2.15
625.066	-9.85
625.188	2.15
625.31	2.15
625.432	44.15
625.554	11.15
625.676	23.15
625.799	5.15
625.921	6.15
626.043	10.15
626.165	10.15
626.287	-17.85
626.409	11.15
626.531	1.15
626.653	8.15
626.775	14.15
626.898	10.15
627.02	12.15
627.142	28.15
627.264	0.15
627.386	11.15
627.508	14.15
627.63	6.15
627.752	14.15
627.874	27.15
627.997	14.15
628.119	27.15
628.241	34.15
628.363	23.15
628.485	22.15
628.607	36.15
628.729	5.15
628.851	4.15
628.973	10.15
629.096	-10.85
629.218	3.15
629.34	17.15
629.462	8.15
629.584	4.15
629.706	17.15
629.828	13.15
629.95	18.15
630.072	7.15
630.195	4.15
630.317	36.15
630.439	8.15
630.561	13.15
630.683	4.15
630.805	13.15
630.927	15.15
631.049	1.15
631.171	8.15
631.293	21.15
631.416	4.15
631.538	0.15
631.66	13.15
631.782	17.15
631.904	28.15
632.026	24.15
632.148	14.15
632.27	-5.85
632.392	12.15
632.514	20.15
632.637	33.15
632.759	7.15
632.881	-3.85
633.003	-3.85
633.125	-5.85
633.247	5.15
633.369	-5.85
633.491	0.15
633.613	18.15
633.735	7.15
633.858	10.15
633.98	20.15
634.102	1.15
634.224	-2.85
634.346	-11.85
634.468	10.15
634.59	11.15
634.712	15.15
634.834	19.15
634.956	6.15
635.078	-17.85
635.201	11.15
635.323	15.15
635.445	16.15
635.567	4.15
635.689	22.15
635.811	6.15
635.933	12.15
636.055	8.15
636.177	-1.85
636.299	11.15
636.421	-6.85
636.544	-6.85
636.666	-2.85
636.788	3.15
636.91	20.15
637.032	3.15
637.154	7.15
637.276	26.15
637.398	17.15
637.52	15.15
637.642	0.15
637.764	19.15
637.887	2.15
638.009	4.15
638.131	9.15
638.253	-11.85
638.375	10.15
638.497	12.15
638.619	-1.85
638.741	3.15
638.863	-8.85
638.985	-5.85
639.107	13.15
639.23	18.15
639.352	22.15
639.474	17.15
639.596	9.15
639.718	19.15
639.84	12.15
639.962	3.15
640.084	23.15
640.206	8.15
640.328	-13.85
640.45	27.15
640.573	9.15
640.695	11.15
640.817	17.15
640.939	25.15
641.061	-0.85
641.183	4.15
641.305	11.15
641.427	15.15
641.549	2.15
641.671	-2.85
641.793	10.15
641.915	17.15
642.038	15.15
642.16	4.15
642.282	8.15
642.404	10.15
642.526	6.15
642.648	15.15
642.77	7.15
642.892	3.15
643.014	12.15
643.136	15.15
643.258	14.15
643.381	21.15
643.503	21.15
643.625	11.15
643.747	1.15
643.869	-0.85
643.991	17.15
644.113	15.15
644.235	11.15
644.357	9.15
644.479	12.15
644.601	1.15
644.723	14.15
644.846	23.15
644.968	12.15
645.09	-3.85
645.212	7.15
645.334	6.15
645.456	3.15
645.578	27.15
645.7	3.15
645.822	-9.85
645.944	9.15
646.066	14.15
646.188	-6.85
646.311	8.15
646.433	19.15
646.555	59.15
646.677	41.15
646.799	34.15
646.921	16.15
647.043	17.15
647.165	-7.85
647.287	11.15
647.409	16.15
647.531	10.15
647.654	-4.85
647.776	24.15
647.898	18.15
648.02	5.15
648.142	5.15
648.264	13.15
648.386	8.15
648.508	2.15
648.63	18.15
648.752	17.15
648.874	-8.85
648.997	17.15
649.119	33.15
649.241	-1.85
649.363	24.15
649.485	7.15
649.607	9.15
649.729	-6.85
649.851	-3.85
649.973	24.15
650.095	16.15
650.217	-13.85
650.34	6.15
650.462	10.15
650.584	6.15
650.706	8.15
650.828	17.15
650.95	11.15
651.072	-1.85
651.194	6.15
651.316	10.15
651.438	15.15
651.56	1.15
651.683	2.15
651.805	-7.85
651.927	-15.85
652.049	-2.85
652.171	15.15
652.293	15.15
652.415	16.15
652.537	-1.85
652.659	9.15
652.781	12.15
652.903	23.15
653.026	24.15
653.148	28.15
653.27	19.15
653.392	4.15
653.514	-2.85
653.636	19.15
653.758	12.15
653.88	12.15
654.002	6.15
654.124	14.15
654.247	2.15
654.369	28.15
654.491	17.15
654.613	11.15
654.735	6.15
654.857	25.15
654.979	9.15
655.101	18.15
655.223	44.15
655.345	23.15
655.468	19.15
655.59	17.15
655.712	24.15
655.834	27.15
655.956	38.15
656.078	31.15
656.2	42.15
656.322	22.15
656.444	16.15
656.566	43.15
656.689	44.15
656.811	76.15
656.933	91.15
657.055	84.15
657.177	148.15
657.299	239.15
657.421	491.15
657.543	1835.15
657.665	12425.15
657.787	15161.15
657.91	15227.15
658.032	15663.15
658.154	4616.15
658.276	3235.15
658.398	1128.15
658.52	992.15
658.642	479.15
658.764	585.15
658.886	266.15
659.009	409.15
659.131	212.15
659.253	313.15
659.375	147.15
659.497	234.15
659.619	123.15
659.741	199.15
659.863	89.15
659.985	173.15
660.108	98.15
660.23	125.15
660.352	74.15
660.474	160.15
660.596	75.15
660.718	146.15
660.84	61.15
660.962	114.15
661.084	43.15
661.207	107.15
661.329	54.15
661.451	82.15
661.573	55.15
661.695	101.15
661.817	58.15
661.939	114.15
662.061	66.15
662.184	65.15
662.306	25.15
662.428	67.15
662.55	64.15
662.672	74.15
662.794	42.15
662.916	65.15
663.038	28.15
663.161	76.15
663.283	49.15
663.405	70.15
663.527	34.15
663.649	85.15
663.771	31.15
663.893	67.15
664.015	32.15
664.138	41.15
664.26	37.15
664.382	71.15
664.504	13.15
664.626	40.15
664.748	27.15
664.87	30.15
664.992	41.15
665.115	39.15
665.237	25.15
665.359	34.15
665.481	15.15
665.603	51.15
665.725	19.15
665.847	22.15
665.97	24.15
666.092	56.15
666.214	42.15
666.336	35.15
666.458	43.15
666.58	43.15
666.702	21.15
666.825	48.15
666.947	4.15
667.069	46.15
667.191	11.15
667.313	21.15
667.435	15.15
667.557	18.15
667.68	11.15
667.802	28.15
667.924	16.15
668.046	28.15
668.168	21.15
668.29	35.15
668.412	7.15
668.535	50.15
668.657	4.15
668.779	3.15
668.901	4.15
669.023	38.15
669.145	23.15
669.267	35.15
669.39	8.15
669.512	22.15
669.634	6.15
669.756	11.15
669.878	14.15
670	25.15
670.123	6.15
670.245	30.15
670.367	30.15
670.489	49.15
670.611	1.15
670.733	18.15
670.856	21.15
670.978	20.15
671.1	39.15
671.222	24.15
671.344	12.15
671.466	17.15
671.589	-13.85
671.711	21.15
671.833	16.15
671.955	19.15
672.077	4.15
672.199	43.15
672.322	45.15
672.444	38.15
672.566	20.15
672.688	21.15
672.81	28.15
672.932	43.15
673.055	13.15
673.177	9.15
673.299	17.15
673.421	21.15
673.543	3.15
673.665	39.15
673.788	17.15
673.91	16.15
674.032	-11.85
674.154	24.15
674.276	14.15
674.399	13.15
674.521	18.15
674.643	26.15
674.765	1.15
674.887	19.15
675.009	1.15
675.132	12.15
675.254	16.15
675.376	18.15
675.498	9.15
675.62	29.15
675.743	18.15
675.865	9.15
675.987	1.15
676.109	27.15
676.231	16.15
676.354	23.15
676.476	6.15
676.598	33.15
676.72	21.15
676.842	43.15
676.965	9.15
677.087	27.15
677.209	14.15
677.331	33.15
677.453	20.15
677.576	17.15
677.698	12.15
677.82	22.15
677.942	5.15
678.064	26.15
678.187	14.15
678.309	18.15
678.431	4.15
678.553	13.15
678.675	43.15
678.798	40.15
678.92	6.15
679.042	9.15
679.164	4.15
679.286	-0.85
679.409	6.15
679.531	-6.85
679.653	-16.85
679.775	4.15
679.898	-4.85
680.02	5.15
680.142	14.15
680.264	20.15
680.386	-7.85
680.509	23.15
680.631	24.15
680.753	12.15
680.875	-1.85
680.998	27.15
681.12	6.15
681.242	17.15
681.364	0.15
681.486	15.15
681.609	14.15
681.731	0.15
681.853	-7.85
681.975	7.15
682.098	30.15
682.22	36.15
682.342	5.15
682.464	34.15
682.587	0.15
682.709	4.15
682.831	-8.85
682.953	7.15
683.076	6.15
683.198	8.15
683.32	10.15
683.442	8.15
683.565	27.15
683.687	20.15
683.809	-1.85
683.931	5.15
684.054	11.15
684.176	7.15
684.298	18.15
684.42	18.15
684.543	15.15
684.665	20.15
684.787	7.15
684.909	-4.85
685.032	15.15
685.154	0.15
685.276	16.15
685.398	20.15
685.521	-8.85
685.643	22.15
685.765	0.15
685.887	22.15
686.01	12.15
686.132	22.15
686.254	17.15
686.377	12.15
686.499	19.15
686.621	23.15
686.743	25.15
686.866	-1.85
686.988	34.15
687.11	14.15
687.232	-4.85
687.355	9.15
687.477	4.15
687.599	17.15
687.722	8.15
687.844	17.15
687.966	16.15
688.088	21.15
688.211	37.15
688.333	8.15
688.455	0.15
688.578	30.15
688.7	21.15
688.822	11.15
688.944	-4.85
689.067	49.15
689.189	25.15
689.311	13.15
689.434	12.15
689.556	28.15
689.678	15.15
689.801	11.15
689.923	3.15
690.045	21.15
690.167	14.15
690.29	33.15
690.412	20.15
690.534	34.15
690.657	8.15
690.779	14.15
690.901	12.15
691.024	13.15
691.146	2.15
691.268	-7.85
691.391	16.15
691.513	12.15
691.635	30.15
691.758	24.15
691.88	14.15
692.002	-2.85
692.125	5.15
692.247	9.15
692.369	-3.85
692.492	8.15
692.614	18.15
692.736	13.15
692.859	2.15
692.981	1.15
693.103	8.15
693.226	27.15
693.348	32.15
693.47	11.15
693.593	3.15
693.715	-8.85
693.837	12.15
693.96	9.15
694.082	-3.85
694.204	-2.85
694.327	18.15
694.449	-6.85
694.571	0.15
694.694	6.15
694.816	24.15
694.938	3.15
695.061	16.15
695.183	24.15
695.305	-6.85
695.428	9.15
695.55	-8.85
695.672	-0.85
695.795	16.15
695.917	24.15
696.04	5.15
696.162	11.15
696.284	18.15
696.407	8.15
696.529	-5.85
696.651	22.15
696.774	4.15
696.896	11.15
697.019	6.15
697.141	7.15
697.263	1.15
697.386	-2.85
697.508	-1.85
697.63	5.15
697.753	9.15
697.875	7.15
697.998	-17.85
698.12	9.15
698.242	6.15
698.365	9.15
698.487	14.15
698.61	-2.85
698.732	2.15
698.854	27.15
698.977	1.15
699.099	1.15
699.221	1.15
699.344	8.15
699.466	12.15
699.589	7.15
699.711	-9.85
699.834	1.15
699.956	14.15
700.078	20.15
700.201	9.15
700.323	38.15
700.446	11.15
700.568	-2.85
700.69	2.15
700.813	4.15
700.935	15.15
701.058	6.15
701.18	16.15
701.302	19.15
701.425	-4.85
701.547	6.15
701.67	14.15
701.792	6.15
701.915	-2.85
702.037	2.15
702.159	17.15
702.282	26.15
702.404	-2.85
702.527	2.15
702.649	10.15
702.772	14.15
702.894	4.15
703.017	13.15
703.139	13.15
703.261	29.15
703.384	14.15
703.506	-1.85
703.629	12.15
703.751	8.15
703.874	5.15
703.996	-9.85
704.119	-7.85
704.241	16.15
704.364	-2.85
704.486	-5.85
704.608	14.15
704.731	11.15
704.853	16.15
704.976	1.15
705.098	14.15
705.221	12.15
705.343	-3.85
705.466	20.15
705.588	1.15
705.711	20.15
705.833	16.15
705.956	5.15
706.078	8.15
706.201	10.15
706.323	10.15
706.446	-6.85
