Data from LowRes_H2_15_26_11_07_2024_HR4C61881__26__15-28-16-237.txt Node

Date: Thu Nov 07 15:28:16 EST 2024
User: crc00042
Spectrometer: HR4C6188
Trigger mode: 4
Integration Time (sec): 1.000000E-1
Scans to average: 1
Electric dark correction enabled: true
Nonlinearity correction enabled: false
Boxcar width: 0
XAxis mode: Wavelengths
Number of Pixels in Spectrum: 3648
>>>>>Begin Spectral Data<<<<<
245.66	-99.69
245.797	-99.69
245.934	-99.69
246.071	-75.69
246.208	0.31
246.344	11.31
246.481	-20.69
246.618	-19.69
246.755	17.31
246.892	-3.69
247.029	-18.69
247.165	4.31
247.302	3.31
247.439	17.31
247.576	8.31
247.713	-6.69
247.849	26.31
247.986	-18.69
248.123	1.31
248.26	4.31
248.396	12.31
248.533	-1.69
248.67	-1.69
248.806	-4.69
248.943	-12.69
249.08	-9.69
249.216	13.31
249.353	-13.69
249.49	-8.69
249.626	11.31
249.763	7.31
249.9	-2.69
250.036	17.31
250.173	19.31
250.309	12.31
250.446	22.31
250.582	11.31
250.719	-0.69
250.856	-1.69
250.992	-16.69
251.129	6.31
251.265	-4.69
251.402	-1.69
251.538	7.31
251.675	-2.69
251.811	10.31
251.948	21.31
252.084	1.31
252.221	-1.69
252.357	-28.69
252.493	6.31
252.63	7.31
252.766	9.31
252.903	-14.69
253.039	-14.69
253.175	-9.69
253.312	8.31
253.448	-7.69
253.585	4.31
253.721	2.31
253.857	-6.69
253.994	3.31
254.13	11.31
254.266	-3.69
254.403	10.31
254.539	12.31
254.675	3.31
254.811	-1.69
254.948	3.31
255.084	-10.69
255.22	-4.69
255.356	-2.69
255.493	1.31
255.629	-1.69
255.765	8.31
255.901	17.31
256.037	6.31
256.174	8.31
256.31	-4.69
256.446	-2.69
256.582	13.31
256.718	11.31
256.854	-1.69
256.991	4.31
257.127	27.31
257.263	0.31
257.399	-11.69
257.535	-0.69
257.671	0.31
257.807	-16.69
257.943	10.31
258.079	1.31
258.215	7.31
258.351	2.31
258.487	4.31
258.623	10.31
258.759	-2.69
258.895	4.31
259.031	1.31
259.167	-3.69
259.303	15.31
259.439	0.31
259.575	22.31
259.711	14.31
259.847	-7.69
259.983	7.31
260.119	-0.69
260.255	-9.69
260.391	20.31
260.527	4.31
260.663	1.31
260.799	8.31
260.934	-10.69
261.07	-10.69
261.206	-25.69
261.342	-20.69
261.478	5.31
261.614	5.31
261.749	-1.69
261.885	-4.69
262.021	3.31
262.157	2.31
262.293	-2.69
262.428	-10.69
262.564	1.31
262.7	19.31
262.836	-5.69
262.971	0.31
263.107	11.31
263.243	9.31
263.378	-4.69
263.514	-0.69
263.65	4.31
263.785	-2.69
263.921	-7.69
264.057	16.31
264.192	14.31
264.328	9.31
264.464	6.31
264.599	11.31
264.735	21.31
264.871	-5.69
265.006	3.31
265.142	10.31
265.277	6.31
265.413	15.31
265.548	14.31
265.684	17.31
265.819	16.31
265.955	-15.69
266.091	-9.69
266.226	1.31
266.362	-8.69
266.497	3.31
266.633	-1.69
266.768	-1.69
266.903	14.31
267.039	17.31
267.174	20.31
267.31	-1.69
267.445	-6.69
267.581	-19.69
267.716	8.31
267.851	29.31
267.987	9.31
268.122	1.31
268.258	-10.69
268.393	-14.69
268.528	8.31
268.664	1.31
268.799	-4.69
268.934	4.31
269.07	4.31
269.205	-1.69
269.34	25.31
269.476	-1.69
269.611	-5.69
269.746	19.31
269.881	4.31
270.017	23.31
270.152	4.31
270.287	8.31
270.422	14.31
270.558	-3.69
270.693	-3.69
270.828	0.31
270.963	-5.69
271.098	-7.69
271.234	0.31
271.369	11.31
271.504	1.31
271.639	-23.69
271.774	-0.69
271.909	14.31
272.045	-4.69
272.18	-0.69
272.315	-1.69
272.45	27.31
272.585	-10.69
272.72	-1.69
272.855	5.31
272.99	25.31
273.125	-3.69
273.26	-19.69
273.395	-10.69
273.53	-15.69
273.665	9.31
273.8	19.31
273.935	12.31
274.07	9.31
274.205	0.31
274.34	2.31
274.475	10.31
274.61	14.31
274.745	-3.69
274.88	15.31
275.015	-18.69
275.15	8.31
275.285	24.31
275.42	18.31
275.555	29.31
275.69	8.31
275.825	-4.69
275.959	-0.69
276.094	-11.69
276.229	2.31
276.364	1.31
276.499	0.31
276.634	17.31
276.768	19.31
276.903	6.31
277.038	19.31
277.173	7.31
277.308	4.31
277.442	2.31
277.577	-13.69
277.712	-4.69
277.847	3.31
277.981	0.31
278.116	-23.69
278.251	22.31
278.386	7.31
278.52	14.31
278.655	0.31
278.79	14.31
278.924	0.31
279.059	0.31
279.194	-3.69
279.328	30.31
279.463	-1.69
279.598	22.31
279.732	14.31
279.867	22.31
280.001	17.31
280.136	5.31
280.271	20.31
280.405	8.31
280.54	18.31
280.674	-4.69
280.809	11.31
280.943	18.31
281.078	9.31
281.213	18.31
281.347	5.31
281.482	8.31
281.616	-10.69
281.751	8.31
281.885	-15.69
282.02	-12.69
282.154	7.31
282.288	-6.69
282.423	-7.69
282.557	-14.69
282.692	12.31
282.826	-0.69
282.961	4.31
283.095	16.31
283.229	7.31
283.364	-7.69
283.498	17.31
283.633	15.31
283.767	20.31
283.901	-5.69
284.036	11.31
284.17	17.31
284.304	-16.69
284.439	-3.69
284.573	0.31
284.707	9.31
284.842	-3.69
284.976	3.31
285.11	-4.69
285.244	22.31
285.379	38.31
285.513	-0.69
285.647	8.31
285.781	4.31
285.916	27.31
286.05	-8.69
286.184	8.31
286.318	14.31
286.453	-11.69
286.587	3.31
286.721	-2.69
286.855	16.31
286.989	24.31
287.123	-1.69
287.258	-4.69
287.392	1.31
287.526	0.31
287.66	-12.69
287.794	18.31
287.928	-4.69
288.062	27.31
288.196	6.31
288.33	-8.69
288.464	6.31
288.598	8.31
288.733	24.31
288.867	13.31
289.001	4.31
289.135	3.31
289.269	-4.69
289.403	10.31
289.537	13.31
289.671	18.31
289.805	-21.69
289.939	13.31
290.073	-16.69
290.207	-16.69
290.34	-1.69
290.474	23.31
290.608	12.31
290.742	11.31
290.876	-10.69
291.01	11.31
291.144	19.31
291.278	33.31
291.412	10.31
291.546	4.31
291.679	-13.69
291.813	0.31
291.947	17.31
292.081	-5.69
292.215	-0.69
292.349	3.31
292.482	16.31
292.616	2.31
292.75	8.31
292.884	7.31
293.018	7.31
293.151	-21.69
293.285	5.31
293.419	2.31
293.553	-11.69
293.686	-0.69
293.82	12.31
293.954	20.31
294.088	30.31
294.221	-4.69
294.355	9.31
294.489	15.31
294.622	-10.69
294.756	4.31
294.89	-5.69
295.023	18.31
295.157	10.31
295.291	12.31
295.424	27.31
295.558	-6.69
295.691	7.31
295.825	-5.69
295.959	4.31
296.092	-6.69
296.226	-1.69
296.359	5.31
296.493	2.31
296.627	-8.69
296.76	0.31
296.894	5.31
297.027	16.31
297.161	-1.69
297.294	-3.69
297.428	-0.69
297.561	36.31
297.695	3.31
297.828	9.31
297.962	-4.69
298.095	-0.69
298.229	1.31
298.362	13.31
298.495	0.31
298.629	-13.69
298.762	-3.69
298.896	15.31
299.029	6.31
299.162	3.31
299.296	-6.69
299.429	-23.69
299.563	11.31
299.696	-0.69
299.829	8.31
299.963	7.31
300.096	42.31
300.229	29.31
300.363	-5.69
300.496	-2.69
300.629	-8.69
300.763	-25.69
300.896	-14.69
301.029	27.31
301.162	18.31
301.296	-30.69
301.429	-2.69
301.562	-9.69
301.695	21.31
301.829	18.31
301.962	12.31
302.095	-3.69
302.228	-25.69
302.362	21.31
302.495	-24.69
302.628	-12.69
302.761	-11.69
302.894	14.31
303.027	-3.69
303.161	-2.69
303.294	-12.69
303.427	14.31
303.56	3.31
303.693	3.31
303.826	-4.69
303.959	-13.69
304.092	-4.69
304.225	-4.69
304.359	14.31
304.492	9.31
304.625	-1.69
304.758	12.31
304.891	10.31
305.024	4.31
305.157	9.31
305.29	-1.69
305.423	9.31
305.556	21.31
305.689	26.31
305.822	-0.69
305.955	12.31
306.088	9.31
306.221	7.31
306.354	4.31
306.487	-0.69
306.62	4.31
306.752	-14.69
306.885	-2.69
307.018	-3.69
307.151	10.31
307.284	16.31
307.417	10.31
307.55	8.31
307.683	8.31
307.816	10.31
307.948	28.31
308.081	18.31
308.214	10.31
308.347	24.31
308.48	0.31
308.613	-10.69
308.745	4.31
308.878	16.31
309.011	18.31
309.144	29.31
309.277	11.31
309.409	10.31
309.542	1.31
309.675	17.31
309.808	-3.69
309.94	22.31
310.073	-12.69
310.206	-14.69
310.339	0.31
310.471	-23.69
310.604	3.31
310.737	-13.69
310.869	8.31
311.002	-9.69
311.135	17.31
311.267	-17.69
311.4	-9.69
311.533	22.31
311.665	10.31
311.798	22.31
311.93	26.31
312.063	25.31
312.196	15.31
312.328	12.31
312.461	10.31
312.593	3.31
312.726	1.31
312.859	13.31
312.991	6.31
313.124	-24.69
313.256	7.31
313.389	14.31
313.521	-15.69
313.654	8.31
313.786	7.31
313.919	1.31
314.051	7.31
314.184	15.31
314.316	7.31
314.449	-10.69
314.581	4.31
314.714	-3.69
314.846	14.31
314.978	-12.69
315.111	-8.69
315.243	13.31
315.376	8.31
315.508	18.31
315.641	2.31
315.773	24.31
315.905	-2.69
316.038	19.31
316.17	16.31
316.302	6.31
316.435	-11.69
316.567	2.31
316.699	17.31
316.832	0.31
316.964	14.31
317.096	-0.69
317.229	0.31
317.361	-16.69
317.493	-8.69
317.625	-8.69
317.758	-1.69
317.89	8.31
318.022	0.31
318.155	1.31
318.287	5.31
318.419	-2.69
318.551	5.31
318.683	-8.69
318.816	-13.69
318.948	-8.69
319.08	-14.69
319.212	9.31
319.344	3.31
319.477	7.31
319.609	-0.69
319.741	12.31
319.873	-1.69
320.005	9.31
320.137	-4.69
320.269	6.31
320.401	10.31
320.534	-8.69
320.666	-22.69
320.798	-0.69
320.93	-11.69
321.062	-3.69
321.194	-4.69
321.326	5.31
321.458	-9.69
321.59	-11.69
321.722	-8.69
321.854	-3.69
321.986	9.31
322.118	14.31
322.25	-15.69
322.382	-2.69
322.514	0.31
322.646	-18.69
322.778	5.31
322.91	-11.69
323.042	19.31
323.174	-11.69
323.306	2.31
323.438	-16.69
323.57	0.31
323.702	2.31
323.834	-3.69
323.966	-15.69
324.097	-25.69
324.229	-4.69
324.361	11.31
324.493	12.31
324.625	-6.69
324.757	9.31
324.889	0.31
325.021	4.31
325.152	20.31
325.284	22.31
325.416	-0.69
325.548	10.31
325.68	-9.69
325.811	25.31
325.943	23.31
326.075	-5.69
326.207	14.31
326.339	16.31
326.47	-4.69
326.602	26.31
326.734	14.31
326.866	11.31
326.997	-15.69
327.129	5.31
327.261	-21.69
327.392	-3.69
327.524	11.31
327.656	-18.69
327.787	7.31
327.919	-1.69
328.051	19.31
328.182	17.31
328.314	14.31
328.446	0.31
328.577	19.31
328.709	15.31
328.841	-11.69
328.972	-19.69
329.104	3.31
329.235	3.31
329.367	-5.69
329.499	-0.69
329.63	4.31
329.762	-7.69
329.893	0.31
330.025	-15.69
330.156	-16.69
330.288	11.31
330.419	25.31
330.551	8.31
330.683	21.31
330.814	13.31
330.946	18.31
331.077	-17.69
331.208	0.31
331.34	-2.69
331.471	-15.69
331.603	16.31
331.734	-15.69
331.866	13.31
331.997	5.31
332.129	5.31
332.26	2.31
332.392	14.31
332.523	1.31
332.654	-9.69
332.786	10.31
332.917	-5.69
333.048	13.31
333.18	24.31
333.311	-7.69
333.443	-7.69
333.574	6.31
333.705	25.31
333.837	-16.69
333.968	6.31
334.099	22.31
334.231	33.31
334.362	0.31
334.493	22.31
334.624	22.31
334.756	-10.69
334.887	18.31
335.018	10.31
335.15	6.31
335.281	6.31
335.412	21.31
335.543	10.31
335.675	5.31
335.806	15.31
335.937	-2.69
336.068	5.31
336.199	38.31
336.331	5.31
336.462	7.31
336.593	12.31
336.724	-5.69
336.855	11.31
336.986	0.31
337.118	-7.69
337.249	7.31
337.38	11.31
337.511	-3.69
337.642	6.31
337.773	6.31
337.904	-3.69
338.035	0.31
338.166	3.31
338.298	14.31
338.429	-3.69
338.56	13.31
338.691	6.31
338.822	9.31
338.953	20.31
339.084	22.31
339.215	19.31
339.346	-1.69
339.477	-4.69
339.608	12.31
339.739	-6.69
339.87	-3.69
340.001	-11.69
340.132	-3.69
340.263	11.31
340.394	12.31
340.525	-17.69
340.656	2.31
340.787	8.31
340.918	12.31
341.049	-0.69
341.179	26.31
341.31	4.31
341.441	-7.69
341.572	9.31
341.703	10.31
341.834	-5.69
341.965	13.31
342.096	8.31
342.227	10.31
342.357	5.31
342.488	12.31
342.619	16.31
342.75	9.31
342.881	3.31
343.012	24.31
343.142	33.31
343.273	-4.69
343.404	17.31
343.535	28.31
343.666	27.31
343.796	18.31
343.927	19.31
344.058	19.31
344.189	13.31
344.319	14.31
344.45	16.31
344.581	16.31
344.712	-7.69
344.842	3.31
344.973	-13.69
345.104	12.31
345.234	8.31
345.365	1.31
345.496	24.31
345.626	8.31
345.757	3.31
345.888	-1.69
346.018	18.31
346.149	5.31
346.28	10.31
346.41	-7.69
346.541	14.31
346.672	-6.69
346.802	12.31
346.933	-0.69
347.063	-1.69
347.194	-9.69
347.325	5.31
347.455	25.31
347.586	1.31
347.716	2.31
347.847	2.31
347.977	7.31
348.108	13.31
348.238	3.31
348.369	-1.69
348.499	18.31
348.63	14.31
348.76	-0.69
348.891	9.31
349.021	27.31
349.152	15.31
349.282	20.31
349.413	7.31
349.543	35.31
349.674	9.31
349.804	30.31
349.935	-5.69
350.065	-5.69
350.196	-24.69
350.326	26.31
350.456	13.31
350.587	28.31
350.717	0.31
350.848	14.31
350.978	-9.69
351.108	-16.69
351.239	20.31
351.369	-5.69
351.499	-11.69
351.63	12.31
351.76	16.31
351.89	-1.69
352.021	13.31
352.151	3.31
352.281	33.31
352.412	26.31
352.542	0.31
352.672	5.31
352.803	9.31
352.933	14.31
353.063	10.31
353.193	3.31
353.324	14.31
353.454	6.31
353.584	28.31
353.714	-0.69
353.845	0.31
353.975	1.31
354.105	5.31
354.235	19.31
354.365	0.31
354.496	0.31
354.626	15.31
354.756	30.31
354.886	14.31
355.016	5.31
355.146	-10.69
355.277	4.31
355.407	18.31
355.537	18.31
355.667	8.31
355.797	-8.69
355.927	-5.69
356.057	6.31
356.187	-0.69
356.318	-4.69
356.448	8.31
356.578	0.31
356.708	21.31
356.838	11.31
356.968	21.31
357.098	4.31
357.228	17.31
357.358	6.31
357.488	8.31
357.618	28.31
357.748	36.31
357.878	6.31
358.008	-6.69
358.138	5.31
358.268	-3.69
358.398	14.31
358.528	-7.69
358.658	5.31
358.788	0.31
358.918	11.31
359.048	17.31
359.178	20.31
359.308	-1.69
359.438	14.31
359.568	14.31
359.698	10.31
359.827	18.31
359.957	-0.69
360.087	-6.69
360.217	21.31
360.347	4.31
360.477	16.31
360.607	6.31
360.737	22.31
360.866	13.31
360.996	-2.69
361.126	-4.69
361.256	25.31
361.386	25.31
361.516	22.31
361.645	5.31
361.775	14.31
361.905	-28.69
362.035	0.31
362.165	12.31
362.294	12.31
362.424	22.31
362.554	9.31
362.684	-27.69
362.813	-0.69
362.943	13.31
363.073	14.31
363.203	9.31
363.332	0.31
363.462	-7.69
363.592	-3.69
363.721	9.31
363.851	8.31
363.981	13.31
364.111	15.31
364.24	-11.69
364.37	11.31
364.5	16.31
364.629	3.31
364.759	-19.69
364.888	-19.69
365.018	12.31
365.148	-3.69
365.277	25.31
365.407	12.31
365.537	-0.69
365.666	15.31
365.796	1.31
365.925	19.31
366.055	26.31
366.184	4.31
366.314	9.31
366.444	10.31
366.573	3.31
366.703	9.31
366.832	8.31
366.962	11.31
367.091	35.31
367.221	13.31
367.35	4.31
367.48	42.31
367.609	23.31
367.739	16.31
367.868	7.31
367.998	2.31
368.127	10.31
368.257	18.31
368.386	17.31
368.516	14.31
368.645	-3.69
368.775	11.31
368.904	15.31
369.033	-5.69
369.163	3.31
369.292	24.31
369.422	20.31
369.551	9.31
369.68	21.31
369.81	26.31
369.939	6.31
370.069	16.31
370.198	15.31
370.327	5.31
370.457	-5.69
370.586	18.31
370.715	-6.69
370.845	-9.69
370.974	21.31
371.103	41.31
371.233	1.31
371.362	14.31
371.491	12.31
371.621	26.31
371.75	17.31
371.879	9.31
372.008	23.31
372.138	4.31
372.267	35.31
372.396	6.31
372.525	-5.69
372.655	4.31
372.784	-10.69
372.913	21.31
373.042	25.31
373.172	31.31
373.301	-18.69
373.43	-10.69
373.559	-9.69
373.688	21.31
373.818	22.31
373.947	20.31
374.076	9.31
374.205	5.31
374.334	0.31
374.463	-4.69
374.593	4.31
374.722	15.31
374.851	21.31
374.98	9.31
375.109	5.31
375.238	13.31
375.367	22.31
375.496	-7.69
375.625	5.31
375.755	23.31
375.884	24.31
376.013	22.31
376.142	-3.69
376.271	11.31
376.4	9.31
376.529	-5.69
376.658	20.31
376.787	19.31
376.916	17.31
377.045	11.31
377.174	2.31
377.303	21.31
377.432	25.31
377.561	14.31
377.69	15.31
377.819	9.31
377.948	8.31
378.077	3.31
378.206	7.31
378.335	4.31
378.464	15.31
378.593	26.31
378.722	22.31
378.851	1.31
378.98	17.31
379.108	9.31
379.237	0.31
379.366	4.31
379.495	6.31
379.624	12.31
379.753	20.31
379.882	23.31
380.011	9.31
380.14	2.31
380.268	-0.69
380.397	9.31
380.526	37.31
380.655	-1.69
380.784	-16.69
380.913	5.31
381.041	19.31
381.17	5.31
381.299	-6.69
381.428	3.31
381.557	22.31
381.685	1.31
381.814	14.31
381.943	8.31
382.072	-6.69
382.2	-4.69
382.329	3.31
382.458	23.31
382.587	13.31
382.715	22.31
382.844	14.31
382.973	-2.69
383.102	11.31
383.23	-0.69
383.359	-13.69
383.488	18.31
383.616	16.31
383.745	17.31
383.874	9.31
384.003	1.31
384.131	-12.69
384.26	6.31
384.389	9.31
384.517	-8.69
384.646	10.31
384.774	6.31
384.903	15.31
385.032	22.31
385.16	-2.69
385.289	-3.69
385.418	-1.69
385.546	10.31
385.675	26.31
385.803	3.31
385.932	3.31
386.06	-0.69
386.189	18.31
386.318	15.31
386.446	10.31
386.575	28.31
386.703	4.31
386.832	-3.69
386.96	-17.69
387.089	13.31
387.217	-6.69
387.346	-2.69
387.474	2.31
387.603	-0.69
387.731	-1.69
387.86	20.31
387.988	0.31
388.117	21.31
388.245	7.31
388.374	6.31
388.502	14.31
388.631	-6.69
388.759	3.31
388.888	6.31
389.016	4.31
389.144	4.31
389.273	11.31
389.401	-6.69
389.53	-1.69
389.658	12.31
389.786	-16.69
389.915	-12.69
390.043	-26.69
390.172	6.31
390.3	26.31
390.428	25.31
390.557	-7.69
390.685	26.31
390.813	22.31
390.942	18.31
391.07	3.31
391.198	3.31
391.327	9.31
391.455	-24.69
391.583	29.31
391.712	5.31
391.84	16.31
391.968	2.31
392.096	5.31
392.225	10.31
392.353	28.31
392.481	1.31
392.609	27.31
392.738	5.31
392.866	-8.69
392.994	-6.69
393.122	26.31
393.251	24.31
393.379	2.31
393.507	-19.69
393.635	-20.69
393.764	-3.69
393.892	13.31
394.02	11.31
394.148	-4.69
394.276	8.31
394.404	24.31
394.533	22.31
394.661	17.31
394.789	25.31
394.917	25.31
395.045	-13.69
395.173	0.31
395.302	-4.69
395.43	0.31
395.558	15.31
395.686	13.31
395.814	43.31
395.942	13.31
396.07	2.31
396.198	16.31
396.326	7.31
396.454	21.31
396.582	29.31
396.711	7.31
396.839	21.31
396.967	13.31
397.095	21.31
397.223	9.31
397.351	19.31
397.479	36.31
397.607	-8.69
397.735	4.31
397.863	18.31
397.991	12.31
398.119	-4.69
398.247	8.31
398.375	25.31
398.503	5.31
398.631	4.31
398.759	4.31
398.887	13.31
399.015	-7.69
399.143	1.31
399.271	17.31
399.399	15.31
399.526	29.31
399.654	27.31
399.782	3.31
399.91	22.31
400.038	17.31
400.166	-4.69
400.294	18.31
400.422	11.31
400.55	18.31
400.678	27.31
400.805	2.31
400.933	-7.69
401.061	27.31
401.189	3.31
401.317	22.31
401.445	38.31
401.573	42.31
401.7	24.31
401.828	-3.69
401.956	-7.69
402.084	19.31
402.212	21.31
402.34	7.31
402.467	19.31
402.595	7.31
402.723	13.31
402.851	28.31
402.978	18.31
403.106	15.31
403.234	1.31
403.362	21.31
403.489	20.31
403.617	7.31
403.745	24.31
403.873	0.31
404	40.31
404.128	26.31
404.256	17.31
404.384	30.31
404.511	30.31
404.639	-12.69
404.767	2.31
404.894	3.31
405.022	22.31
405.15	20.31
405.277	-1.69
405.405	13.31
405.533	11.31
405.66	-0.69
405.788	-11.69
405.916	-3.69
406.043	-17.69
406.171	11.31
406.299	12.31
406.426	17.31
406.554	15.31
406.681	31.31
406.809	14.31
406.937	2.31
407.064	5.31
407.192	30.31
407.319	15.31
407.447	0.31
407.574	21.31
407.702	15.31
407.83	0.31
407.957	0.31
408.085	12.31
408.212	-4.69
408.34	13.31
408.467	-3.69
408.595	1.31
408.722	23.31
408.85	24.31
408.977	-0.69
409.105	7.31
409.232	4.31
409.36	4.31
409.487	0.31
409.615	9.31
409.742	25.31
409.87	32.31
409.997	46.31
410.125	44.31
410.252	71.31
410.379	36.31
410.507	43.31
410.634	20.31
410.762	10.31
410.889	15.31
411.017	33.31
411.144	24.31
411.271	-1.69
411.399	1.31
411.526	-7.69
411.653	13.31
411.781	14.31
411.908	7.31
412.036	10.31
412.163	35.31
412.29	32.31
412.418	31.31
412.545	14.31
412.672	4.31
412.8	26.31
412.927	19.31
413.054	7.31
413.182	21.31
413.309	14.31
413.436	-1.69
413.564	6.31
413.691	14.31
413.818	33.31
413.945	-12.69
414.073	6.31
414.2	12.31
414.327	20.31
414.454	24.31
414.582	12.31
414.709	-1.69
414.836	3.31
414.963	7.31
415.091	-3.69
415.218	0.31
415.345	8.31
415.472	17.31
415.6	-8.69
415.727	9.31
415.854	4.31
415.981	8.31
416.108	15.31
416.236	23.31
416.363	9.31
416.49	9.31
416.617	6.31
416.744	20.31
416.871	23.31
416.998	-5.69
417.126	10.31
417.253	17.31
417.38	16.31
417.507	4.31
417.634	14.31
417.761	34.31
417.888	20.31
418.015	7.31
418.143	25.31
418.27	49.31
418.397	20.31
418.524	22.31
418.651	1.31
418.778	-1.69
418.905	8.31
419.032	9.31
419.159	10.31
419.286	26.31
419.413	4.31
419.54	30.31
419.667	-18.69
419.794	3.31
419.921	8.31
420.048	22.31
420.175	11.31
420.302	-6.69
420.429	18.31
420.556	10.31
420.683	-2.69
420.81	-8.69
420.937	7.31
421.064	22.31
421.191	-2.69
421.318	32.31
421.445	48.31
421.572	8.31
421.699	30.31
421.826	20.31
421.953	6.31
422.08	11.31
422.207	1.31
422.334	-0.69
422.461	22.31
422.588	4.31
422.714	26.31
422.841	15.31
422.968	26.31
423.095	24.31
423.222	4.31
423.349	12.31
423.476	6.31
423.603	2.31
423.729	2.31
423.856	3.31
423.983	15.31
424.11	13.31
424.237	9.31
424.364	16.31
424.491	12.31
424.617	-0.69
424.744	9.31
424.871	15.31
424.998	-7.69
425.125	1.31
425.251	15.31
425.378	0.31
425.505	6.31
425.632	19.31
425.758	8.31
425.885	24.31
426.012	19.31
426.139	23.31
426.266	7.31
426.392	13.31
426.519	20.31
426.646	5.31
426.772	38.31
426.899	-3.69
427.026	13.31
427.153	3.31
427.279	23.31
427.406	10.31
427.533	2.31
427.659	14.31
427.786	-1.69
427.913	32.31
428.039	24.31
428.166	-4.69
428.293	12.31
428.419	28.31
428.546	22.31
428.673	-4.69
428.799	-5.69
428.926	-5.69
429.053	27.31
429.179	-9.69
429.306	21.31
429.433	34.31
429.559	28.31
429.686	11.31
429.812	-3.69
429.939	-1.69
430.066	-4.69
430.192	-1.69
430.319	27.31
430.445	17.31
430.572	10.31
430.699	-2.69
430.825	-5.69
430.952	11.31
431.078	-1.69
431.205	9.31
431.331	-4.69
431.458	-4.69
431.584	19.31
431.711	7.31
431.837	10.31
431.964	6.31
432.09	17.31
432.217	-5.69
432.343	-0.69
432.47	27.31
432.596	3.31
432.723	-0.69
432.849	-0.69
432.976	-10.69
433.102	13.31
433.229	-0.69
433.355	47.31
433.482	65.31
433.608	158.31
433.735	141.31
433.861	127.31
433.987	137.31
434.114	236.31
434.24	192.31
434.367	55.31
434.493	16.31
434.62	18.31
434.746	21.31
434.872	17.31
434.999	18.31
435.125	11.31
435.252	2.31
435.378	-11.69
435.504	12.31
435.631	18.31
435.757	-4.69
435.883	25.31
436.01	30.31
436.136	3.31
436.262	20.31
436.389	7.31
436.515	13.31
436.641	18.31
436.768	28.31
436.894	15.31
437.02	11.31
437.147	19.31
437.273	24.31
437.399	-1.69
437.526	25.31
437.652	-0.69
437.778	21.31
437.904	-10.69
438.031	12.31
438.157	16.31
438.283	12.31
438.409	-24.69
438.536	-15.69
438.662	22.31
438.788	6.31
438.914	-7.69
439.041	20.31
439.167	16.31
439.293	11.31
439.419	14.31
439.546	27.31
439.672	19.31
439.798	22.31
439.924	25.31
440.05	42.31
440.177	14.31
440.303	16.31
440.429	21.31
440.555	27.31
440.681	13.31
440.807	25.31
440.934	18.31
441.06	8.31
441.186	-0.69
441.312	-3.69
441.438	12.31
441.564	27.31
441.69	8.31
441.816	10.31
441.943	6.31
442.069	20.31
442.195	16.31
442.321	10.31
442.447	3.31
442.573	7.31
442.699	3.31
442.825	-12.69
442.951	27.31
443.077	11.31
443.203	22.31
443.33	2.31
443.456	-20.69
443.582	25.31
443.708	8.31
443.834	26.31
443.96	23.31
444.086	25.31
444.212	26.31
444.338	10.31
444.464	22.31
444.59	15.31
444.716	2.31
444.842	25.31
444.968	7.31
445.094	9.31
445.22	4.31
445.346	1.31
445.472	0.31
445.598	18.31
445.724	14.31
445.85	26.31
445.976	24.31
446.102	31.31
446.228	32.31
446.354	20.31
446.48	2.31
446.605	11.31
446.731	25.31
446.857	22.31
446.983	25.31
447.109	8.31
447.235	17.31
447.361	9.31
447.487	23.31
447.613	14.31
447.739	2.31
447.865	3.31
447.99	-4.69
448.116	10.31
448.242	4.31
448.368	9.31
448.494	1.31
448.62	11.31
448.746	9.31
448.872	10.31
448.997	-3.69
449.123	8.31
449.249	21.31
449.375	34.31
449.501	14.31
449.627	3.31
449.752	43.31
449.878	-2.69
450.004	26.31
450.13	12.31
450.256	11.31
450.381	12.31
450.507	11.31
450.633	27.31
450.759	31.31
450.884	24.31
451.01	25.31
451.136	16.31
451.262	16.31
451.388	11.31
451.513	4.31
451.639	18.31
451.765	21.31
451.89	25.31
452.016	28.31
452.142	14.31
452.268	26.31
452.393	26.31
452.519	14.31
452.645	12.31
452.771	9.31
452.896	4.31
453.022	-21.69
453.148	17.31
453.273	22.31
453.399	7.31
453.525	-5.69
453.65	-0.69
453.776	26.31
453.902	14.31
454.027	16.31
454.153	34.31
454.279	28.31
454.404	16.31
454.53	13.31
454.656	40.31
454.781	24.31
454.907	15.31
455.032	29.31
455.158	37.31
455.284	31.31
455.409	37.31
455.535	20.31
455.66	11.31
455.786	20.31
455.912	23.31
456.037	2.31
456.163	28.31
456.288	30.31
456.414	4.31
456.539	-6.69
456.665	27.31
456.791	7.31
456.916	2.31
457.042	18.31
457.167	24.31
457.293	10.31
457.418	16.31
457.544	22.31
457.669	6.31
457.795	5.31
457.92	-1.69
458.046	9.31
458.171	20.31
458.297	-3.69
458.422	2.31
458.548	11.31
458.673	23.31
458.799	5.31
458.924	-9.69
459.05	13.31
459.175	28.31
459.301	12.31
459.426	19.31
459.552	15.31
459.677	14.31
459.803	18.31
459.928	21.31
460.053	10.31
460.179	14.31
460.304	18.31
460.43	0.31
460.555	15.31
460.681	6.31
460.806	12.31
460.931	35.31
461.057	24.31
461.182	3.31
461.308	24.31
461.433	12.31
461.558	-0.69
461.684	36.31
461.809	21.31
461.934	15.31
462.06	25.31
462.185	-2.69
462.311	7.31
462.436	19.31
462.561	28.31
462.687	14.31
462.812	19.31
462.937	6.31
463.063	8.31
463.188	1.31
463.313	30.31
463.439	16.31
463.564	6.31
463.689	27.31
463.814	16.31
463.94	-12.69
464.065	15.31
464.19	25.31
464.316	-8.69
464.441	-13.69
464.566	6.31
464.692	10.31
464.817	11.31
464.942	-5.69
465.067	10.31
465.193	-7.69
465.318	-0.69
465.443	5.31
465.568	3.31
465.694	-16.69
465.819	17.31
465.944	2.31
466.069	20.31
466.194	22.31
466.32	17.31
466.445	23.31
466.57	21.31
466.695	7.31
466.82	9.31
466.946	30.31
467.071	20.31
467.196	-1.69
467.321	10.31
467.446	8.31
467.572	19.31
467.697	-6.69
467.822	6.31
467.947	22.31
468.072	4.31
468.197	-0.69
468.323	-5.69
468.448	-7.69
468.573	-1.69
468.698	19.31
468.823	7.31
468.948	36.31
469.073	15.31
469.198	24.31
469.324	21.31
469.449	13.31
469.574	29.31
469.699	30.31
469.824	25.31
469.949	8.31
470.074	0.31
470.199	51.31
470.324	28.31
470.449	28.31
470.574	-5.69
470.7	6.31
470.825	36.31
470.95	29.31
471.075	2.31
471.2	20.31
471.325	23.31
471.45	22.31
471.575	12.31
471.7	20.31
471.825	0.31
471.95	13.31
472.075	-1.69
472.2	5.31
472.325	24.31
472.45	-8.69
472.575	8.31
472.7	6.31
472.825	25.31
472.95	19.31
473.075	8.31
473.2	2.31
473.325	7.31
473.45	7.31
473.575	-1.69
473.7	16.31
473.825	5.31
473.95	21.31
474.075	21.31
474.2	25.31
474.325	5.31
474.45	31.31
474.574	28.31
474.699	14.31
474.824	7.31
474.949	0.31
475.074	-0.69
475.199	14.31
475.324	24.31
475.449	1.31
475.574	30.31
475.699	20.31
475.824	14.31
475.949	4.31
476.073	6.31
476.198	11.31
476.323	17.31
476.448	0.31
476.573	13.31
476.698	27.31
476.823	10.31
476.947	9.31
477.072	0.31
477.197	8.31
477.322	10.31
477.447	18.31
477.572	23.31
477.697	18.31
477.821	6.31
477.946	24.31
478.071	25.31
478.196	28.31
478.321	25.31
478.445	28.31
478.57	14.31
478.695	6.31
478.82	10.31
478.945	30.31
479.069	4.31
479.194	10.31
479.319	27.31
479.444	26.31
479.569	28.31
479.693	28.31
479.818	30.31
479.943	30.31
480.068	20.31
480.192	23.31
480.317	7.31
480.442	20.31
480.567	16.31
480.691	10.31
480.816	18.31
480.941	3.31
481.066	28.31
481.19	42.31
481.315	27.31
481.44	19.31
481.564	5.31
481.689	28.31
481.814	43.31
481.938	25.31
482.063	18.31
482.188	14.31
482.313	32.31
482.437	2.31
482.562	22.31
482.687	37.31
482.811	47.31
482.936	33.31
483.061	6.31
483.185	26.31
483.31	22.31
483.435	11.31
483.559	7.31
483.684	19.31
483.808	33.31
483.933	11.31
484.058	23.31
484.182	23.31
484.307	8.31
484.432	24.31
484.556	3.31
484.681	32.31
484.805	18.31
484.93	36.31
485.055	55.31
485.179	84.31
485.304	132.31
485.428	366.31
485.553	1231.31
485.678	1722.31
485.802	1589.31
485.927	1743.31
486.051	2585.31
486.176	1593.31
486.3	448.31
486.425	140.31
486.549	64.31
486.674	61.31
486.799	31.31
486.923	21.31
487.048	29.31
487.172	19.31
487.297	15.31
487.421	38.31
487.546	28.31
487.67	26.31
487.795	4.31
487.919	4.31
488.044	10.31
488.168	31.31
488.293	18.31
488.417	9.31
488.542	31.31
488.666	22.31
488.791	33.31
488.915	21.31
489.04	19.31
489.164	33.31
489.289	29.31
489.413	-12.69
489.538	19.31
489.662	22.31
489.786	8.31
489.911	16.31
490.035	23.31
490.16	11.31
490.284	18.31
490.409	-0.69
490.533	16.31
490.658	46.31
490.782	21.31
490.906	37.31
491.031	23.31
491.155	19.31
491.28	20.31
491.404	24.31
491.528	23.31
491.653	20.31
491.777	31.31
491.902	14.31
492.026	21.31
492.15	24.31
492.275	31.31
492.399	28.31
492.524	12.31
492.648	31.31
492.772	41.31
492.897	37.31
493.021	19.31
493.145	32.31
493.27	32.31
493.394	8.31
493.518	10.31
493.643	21.31
493.767	36.31
493.891	6.31
494.016	4.31
494.14	21.31
494.264	21.31
494.389	22.31
494.513	20.31
494.637	11.31
494.762	21.31
494.886	28.31
495.01	24.31
495.134	29.31
495.259	26.31
495.383	14.31
495.507	6.31
495.632	31.31
495.756	42.31
495.88	34.31
496.004	40.31
496.129	-1.69
496.253	14.31
496.377	26.31
496.501	38.31
496.626	21.31
496.75	29.31
496.874	34.31
496.998	18.31
497.123	35.31
497.247	-1.69
497.371	17.31
497.495	27.31
497.62	8.31
497.744	4.31
497.868	21.31
497.992	21.31
498.116	-3.69
498.241	9.31
498.365	18.31
498.489	9.31
498.613	36.31
498.737	-0.69
498.862	19.31
498.986	10.31
499.11	26.31
499.234	16.31
499.358	14.31
499.482	8.31
499.607	19.31
499.731	25.31
499.855	28.31
499.979	23.31
500.103	8.31
500.227	11.31
500.351	35.31
500.476	31.31
500.6	29.31
500.724	38.31
500.848	16.31
500.972	16.31
501.096	14.31
501.22	28.31
501.344	7.31
501.469	5.31
501.593	23.31
501.717	29.31
501.841	33.31
501.965	16.31
502.089	16.31
502.213	23.31
502.337	2.31
502.461	15.31
502.585	21.31
502.709	12.31
502.834	11.31
502.958	29.31
503.082	10.31
503.206	22.31
503.33	37.31
503.454	48.31
503.578	23.31
503.702	26.31
503.826	13.31
503.95	19.31
504.074	10.31
504.198	15.31
504.322	7.31
504.446	24.31
504.57	30.31
504.694	12.31
504.818	27.31
504.942	34.31
505.066	10.31
505.19	11.31
505.314	10.31
505.438	14.31
505.562	12.31
505.686	-0.69
505.81	15.31
505.934	18.31
506.058	11.31
506.182	16.31
506.306	31.31
506.43	14.31
506.554	7.31
506.678	0.31
506.802	18.31
506.926	27.31
507.05	5.31
507.174	27.31
507.298	30.31
507.422	20.31
507.546	12.31
507.67	22.31
507.794	0.31
507.918	10.31
508.042	24.31
508.165	-0.69
508.289	8.31
508.413	24.31
508.537	5.31
508.661	22.31
508.785	15.31
508.909	28.31
509.033	32.31
509.157	18.31
509.281	23.31
509.405	19.31
509.528	24.31
509.652	20.31
509.776	-3.69
509.9	34.31
510.024	13.31
510.148	15.31
510.272	28.31
510.396	13.31
510.519	1.31
510.643	25.31
510.767	16.31
510.891	19.31
511.015	-1.69
511.139	6.31
511.263	28.31
511.386	24.31
511.51	21.31
511.634	0.31
511.758	16.31
511.882	14.31
512.006	24.31
512.129	15.31
512.253	52.31
512.377	0.31
512.501	17.31
512.625	18.31
512.748	17.31
512.872	24.31
512.996	14.31
513.12	23.31
513.244	18.31
513.367	17.31
513.491	20.31
513.615	8.31
513.739	12.31
513.862	13.31
513.986	14.31
514.11	26.31
514.234	12.31
514.358	25.31
514.481	26.31
514.605	3.31
514.729	23.31
514.853	19.31
514.976	-3.69
515.1	8.31
515.224	29.31
515.348	20.31
515.471	19.31
515.595	24.31
515.719	18.31
515.842	31.31
515.966	19.31
516.09	34.31
516.214	12.31
516.337	45.31
516.461	27.31
516.585	15.31
516.708	32.31
516.832	15.31
516.956	-7.69
517.08	27.31
517.203	10.31
517.327	15.31
517.451	29.31
517.574	43.31
517.698	25.31
517.822	30.31
517.945	28.31
518.069	32.31
518.193	46.31
518.316	41.31
518.44	34.31
518.564	39.31
518.687	17.31
518.811	35.31
518.935	46.31
519.058	34.31
519.182	32.31
519.306	34.31
519.429	22.31
519.553	50.31
519.676	21.31
519.8	33.31
519.924	13.31
520.047	17.31
520.171	4.31
520.294	12.31
520.418	29.31
520.542	8.31
520.665	19.31
520.789	19.31
520.913	15.31
521.036	5.31
521.16	4.31
521.283	1.31
521.407	9.31
521.53	1.31
521.654	-5.69
521.778	5.31
521.901	26.31
522.025	18.31
522.148	10.31
522.272	24.31
522.395	18.31
522.519	15.31
522.643	6.31
522.766	-1.69
522.89	-0.69
523.013	27.31
523.137	-8.69
523.26	4.31
523.384	13.31
523.507	-2.69
523.631	-1.69
523.754	16.31
523.878	22.31
524.002	13.31
524.125	8.31
524.249	10.31
524.372	18.31
524.496	20.31
524.619	21.31
524.743	16.31
524.866	0.31
524.99	10.31
525.113	2.31
525.237	27.31
525.36	40.31
525.484	20.31
525.607	-0.69
525.731	8.31
525.854	31.31
525.978	36.31
526.101	24.31
526.224	6.31
526.348	2.31
526.471	18.31
526.595	24.31
526.718	7.31
526.842	8.31
526.965	24.31
527.089	2.31
527.212	16.31
527.336	-2.69
527.459	7.31
527.582	19.31
527.706	22.31
527.829	11.31
527.953	16.31
528.076	-1.69
528.2	8.31
528.323	25.31
528.446	22.31
528.57	6.31
528.693	35.31
528.817	12.31
528.94	6.31
529.064	42.31
529.187	20.31
529.31	7.31
529.434	12.31
529.557	6.31
529.68	2.31
529.804	24.31
529.927	5.31
530.051	7.31
530.174	3.31
530.297	20.31
530.421	38.31
530.544	37.31
530.668	13.31
530.791	7.31
530.914	25.31
531.038	29.31
531.161	9.31
531.284	12.31
531.408	15.31
531.531	15.31
531.654	8.31
531.778	14.31
531.901	-5.69
532.024	22.31
532.148	3.31
532.271	12.31
532.394	12.31
532.518	24.31
532.641	28.31
532.764	35.31
532.888	30.31
533.011	17.31
533.134	-3.69
533.258	40.31
533.381	2.31
533.504	-6.69
533.628	10.31
533.751	30.31
533.874	25.31
533.997	19.31
534.121	4.31
534.244	17.31
534.367	5.31
534.491	22.31
534.614	25.31
534.737	20.31
534.86	23.31
534.984	6.31
535.107	-1.69
535.23	27.31
535.354	28.31
535.477	4.31
535.6	13.31
535.723	7.31
535.847	1.31
535.97	-8.69
536.093	-4.69
536.216	4.31
536.34	24.31
536.463	9.31
536.586	-1.69
536.709	17.31
536.833	13.31
536.956	12.31
537.079	-9.69
537.202	19.31
537.325	-4.69
537.449	2.31
537.572	32.31
537.695	-1.69
537.818	24.31
537.941	9.31
538.065	-1.69
538.188	12.31
538.311	22.31
538.434	22.31
538.558	8.31
538.681	27.31
538.804	17.31
538.927	19.31
539.05	-5.69
539.173	4.31
539.297	3.31
539.42	15.31
539.543	18.31
539.666	35.31
539.789	30.31
539.913	10.31
540.036	12.31
540.159	14.31
540.282	14.31
540.405	0.31
540.528	2.31
540.651	21.31
540.775	8.31
540.898	-1.69
541.021	-3.69
541.144	20.31
541.267	10.31
541.39	10.31
541.513	20.31
541.637	7.31
541.76	14.31
541.883	15.31
542.006	26.31
542.129	18.31
542.252	-4.69
542.375	9.31
542.498	18.31
542.622	13.31
542.745	3.31
542.868	8.31
542.991	28.31
543.114	26.31
543.237	40.31
543.36	44.31
543.483	6.31
543.606	6.31
543.73	40.31
543.853	5.31
543.976	-0.69
544.099	2.31
544.222	19.31
544.345	14.31
544.468	19.31
544.591	18.31
544.714	24.31
544.837	23.31
544.96	13.31
545.083	10.31
545.206	25.31
545.329	27.31
545.453	16.31
545.576	14.31
545.699	16.31
545.822	29.31
545.945	26.31
546.068	8.31
546.191	34.31
546.314	22.31
546.437	22.31
546.56	17.31
546.683	14.31
546.806	19.31
546.929	18.31
547.052	-5.69
547.175	7.31
547.298	25.31
547.421	-1.69
547.544	2.31
547.667	31.31
547.79	7.31
547.913	-5.69
548.036	-3.69
548.159	3.31
548.282	10.31
548.405	-7.69
548.528	18.31
548.651	-1.69
548.774	5.31
548.897	15.31
549.02	38.31
549.143	32.31
549.266	32.31
549.389	8.31
549.512	3.31
549.635	29.31
549.758	20.31
549.881	2.31
550.004	12.31
550.127	2.31
550.25	13.31
550.373	-0.69
550.496	28.31
550.619	15.31
550.742	7.31
550.865	3.31
550.988	26.31
551.111	18.31
551.234	26.31
551.356	-8.69
551.479	-20.69
551.602	-3.69
551.725	23.31
551.848	27.31
551.971	37.31
552.094	24.31
552.217	6.31
552.34	-13.69
552.463	-16.69
552.586	22.31
552.709	7.31
552.832	6.31
552.955	7.31
553.077	28.31
553.2	31.31
553.323	0.31
553.446	13.31
553.569	-11.69
553.692	13.31
553.815	0.31
553.938	10.31
554.061	25.31
554.184	26.31
554.306	11.31
554.429	13.31
554.552	12.31
554.675	-5.69
554.798	9.31
554.921	11.31
555.044	6.31
555.167	22.31
555.29	3.31
555.412	9.31
555.535	2.31
555.658	18.31
555.781	15.31
555.904	16.31
556.027	7.31
556.15	12.31
556.272	16.31
556.395	30.31
556.518	12.31
556.641	6.31
556.764	26.31
556.887	5.31
557.01	1.31
557.132	-7.69
557.255	10.31
557.378	27.31
557.501	14.31
557.624	12.31
557.747	14.31
557.869	18.31
557.992	37.31
558.115	15.31
558.238	8.31
558.361	29.31
558.483	39.31
558.606	19.31
558.729	13.31
558.852	25.31
558.975	31.31
559.098	5.31
559.22	18.31
559.343	24.31
559.466	10.31
559.589	5.31
559.712	20.31
559.834	24.31
559.957	17.31
560.08	11.31
560.203	28.31
560.325	52.31
560.448	20.31
560.571	11.31
560.694	15.31
560.817	26.31
560.939	6.31
561.062	7.31
561.185	10.31
561.308	13.31
561.43	-13.69
561.553	6.31
561.676	6.31
561.799	4.31
561.921	-7.69
562.044	4.31
562.167	2.31
562.29	33.31
562.413	34.31
562.535	15.31
562.658	-18.69
562.781	8.31
562.903	4.31
563.026	17.31
563.149	24.31
563.272	7.31
563.394	21.31
563.517	22.31
563.64	-3.69
563.763	6.31
563.885	20.31
564.008	34.31
564.131	16.31
564.254	-7.69
564.376	8.31
564.499	-1.69
564.622	-4.69
564.744	25.31
564.867	-6.69
564.99	-1.69
565.113	7.31
565.235	18.31
565.358	26.31
565.481	-0.69
565.603	-10.69
565.726	0.31
565.849	28.31
565.971	19.31
566.094	0.31
566.217	9.31
566.34	2.31
566.462	2.31
566.585	12.31
566.708	22.31
566.83	12.31
566.953	20.31
567.076	13.31
567.198	5.31
567.321	0.31
567.444	24.31
567.566	7.31
567.689	9.31
567.812	5.31
567.934	7.31
568.057	-1.69
568.18	19.31
568.302	22.31
568.425	9.31
568.548	31.31
568.67	34.31
568.793	22.31
568.916	26.31
569.038	6.31
569.161	19.31
569.283	22.31
569.406	3.31
569.529	-8.69
569.651	2.31
569.774	3.31
569.897	-7.69
570.019	32.31
570.142	31.31
570.265	8.31
570.387	8.31
570.51	30.31
570.632	41.31
570.755	3.31
570.878	20.31
571	18.31
571.123	4.31
571.246	10.31
571.368	32.31
571.491	17.31
571.613	14.31
571.736	-4.69
571.859	15.31
571.981	2.31
572.104	-4.69
572.226	20.31
572.349	-11.69
572.472	2.31
572.594	13.31
572.717	17.31
572.839	0.31
572.962	-1.69
573.085	7.31
573.207	12.31
573.33	3.31
573.452	28.31
573.575	8.31
573.697	11.31
573.82	15.31
573.943	13.31
574.065	24.31
574.188	13.31
574.31	12.31
574.433	17.31
574.555	34.31
574.678	7.31
574.801	7.31
574.923	9.31
575.046	29.31
575.168	2.31
575.291	11.31
575.413	-5.69
575.536	3.31
575.659	24.31
575.781	10.31
575.904	6.31
576.026	7.31
576.149	12.31
576.271	18.31
576.394	6.31
576.516	3.31
576.639	24.31
576.761	4.31
576.884	-12.69
577.007	-2.69
577.129	17.31
577.252	14.31
577.374	23.31
577.497	15.31
577.619	21.31
577.742	7.31
577.864	17.31
577.987	5.31
578.109	35.31
578.232	23.31
578.354	25.31
578.477	12.31
578.599	7.31
578.722	14.31
578.844	1.31
578.967	8.31
579.089	7.31
579.212	-5.69
579.334	22.31
579.457	-4.69
579.579	6.31
579.702	10.31
579.824	10.31
579.947	2.31
580.069	8.31
580.192	16.31
580.314	19.31
580.437	-8.69
580.559	24.31
580.682	19.31
580.804	11.31
580.927	27.31
581.049	32.31
581.172	30.31
581.294	16.31
581.417	15.31
581.539	7.31
581.662	28.31
581.784	15.31
581.907	5.31
582.029	15.31
582.152	8.31
582.274	11.31
582.396	11.31
582.519	6.31
582.641	-6.69
582.764	12.31
582.886	34.31
583.009	9.31
583.131	20.31
583.254	5.31
583.376	27.31
583.499	38.31
583.621	18.31
583.743	24.31
583.866	7.31
583.988	15.31
584.111	22.31
584.233	24.31
584.356	20.31
584.478	15.31
584.601	-13.69
584.723	14.31
584.845	16.31
584.968	-2.69
585.09	-5.69
585.213	10.31
585.335	-14.69
585.458	-0.69
585.58	-5.69
585.702	5.31
585.825	18.31
585.947	14.31
586.07	-4.69
586.192	-2.69
586.315	8.31
586.437	-0.69
586.559	4.31
586.682	0.31
586.804	14.31
586.927	4.31
587.049	7.31
587.171	16.31
587.294	11.31
587.416	41.31
587.539	17.31
587.661	-0.69
587.783	-0.69
587.906	17.31
588.028	14.31
588.151	4.31
588.273	30.31
588.395	7.31
588.518	12.31
588.64	0.31
588.763	8.31
588.885	27.31
589.007	28.31
589.13	1.31
589.252	16.31
589.375	-2.69
589.497	9.31
589.619	13.31
589.742	-5.69
589.864	16.31
589.986	9.31
590.109	-10.69
590.231	20.31
590.354	14.31
590.476	-13.69
590.598	8.31
590.721	9.31
590.843	2.31
590.965	10.31
591.088	17.31
591.21	25.31
591.332	23.31
591.455	-3.69
591.577	8.31
591.7	18.31
591.822	7.31
591.944	12.31
592.067	2.31
592.189	31.31
592.311	19.31
592.434	4.31
592.556	25.31
592.678	-0.69
592.801	20.31
592.923	2.31
593.045	8.31
593.168	16.31
593.29	20.31
593.412	26.31
593.535	-2.69
593.657	3.31
593.779	20.31
593.902	16.31
594.024	-1.69
594.146	11.31
594.269	12.31
594.391	18.31
594.513	22.31
594.636	-1.69
594.758	-0.69
594.88	14.31
595.003	14.31
595.125	22.31
595.247	22.31
595.37	24.31
595.492	-5.69
595.614	20.31
595.737	15.31
595.859	23.31
595.981	7.31
596.104	10.31
596.226	10.31
596.348	6.31
596.471	27.31
596.593	18.31
596.715	8.31
596.838	6.31
596.96	18.31
597.082	6.31
597.204	3.31
597.327	12.31
597.449	0.31
597.571	19.31
597.694	16.31
597.816	10.31
597.938	14.31
598.061	11.31
598.183	2.31
598.305	13.31
598.427	7.31
598.55	19.31
598.672	22.31
598.794	10.31
598.917	-5.69
599.039	26.31
599.161	20.31
599.283	10.31
599.406	19.31
599.528	7.31
599.65	25.31
599.773	32.31
599.895	25.31
600.017	32.31
600.139	14.31
600.262	14.31
600.384	6.31
600.506	7.31
600.628	18.31
600.751	34.31
600.873	4.31
600.995	10.31
601.118	28.31
601.24	18.31
601.362	37.31
601.484	14.31
601.607	27.31
601.729	21.31
601.851	0.31
601.973	15.31
602.096	16.31
602.218	28.31
602.34	18.31
602.462	12.31
602.585	18.31
602.707	-6.69
602.829	13.31
602.951	11.31
603.074	-7.69
603.196	8.31
603.318	19.31
603.44	5.31
603.563	12.31
603.685	11.31
603.807	11.31
603.929	25.31
604.052	36.31
604.174	18.31
604.296	15.31
604.418	29.31
604.541	22.31
604.663	17.31
604.785	22.31
604.907	3.31
605.03	4.31
605.152	24.31
605.274	13.31
605.396	5.31
605.519	27.31
605.641	4.31
605.763	5.31
605.885	23.31
606.008	18.31
606.13	26.31
606.252	17.31
606.374	6.31
606.496	-1.69
606.619	4.31
606.741	0.31
606.863	22.31
606.985	32.31
607.108	12.31
607.23	16.31
607.352	8.31
607.474	7.31
607.596	31.31
607.719	4.31
607.841	32.31
607.963	37.31
608.085	5.31
608.207	38.31
608.33	12.31
608.452	14.31
608.574	18.31
608.696	26.31
608.819	19.31
608.941	17.31
609.063	7.31
609.185	3.31
609.307	23.31
609.43	37.31
609.552	17.31
609.674	7.31
609.796	21.31
609.918	36.31
610.041	24.31
610.163	16.31
610.285	8.31
610.407	21.31
610.529	6.31
610.652	8.31
610.774	28.31
610.896	16.31
611.018	2.31
611.14	10.31
611.263	6.31
611.385	8.31
611.507	14.31
611.629	2.31
611.751	14.31
611.873	52.31
611.996	32.31
612.118	6.31
612.24	8.31
612.362	24.31
612.484	34.31
612.607	18.31
612.729	32.31
612.851	11.31
612.973	-1.69
613.095	-7.69
613.218	12.31
613.34	27.31
613.462	19.31
613.584	11.31
613.706	13.31
613.828	32.31
613.951	25.31
614.073	4.31
614.195	-4.69
614.317	26.31
614.439	30.31
614.561	21.31
614.684	25.31
614.806	24.31
614.928	20.31
615.05	16.31
615.172	24.31
615.294	32.31
615.417	12.31
615.539	1.31
615.661	24.31
615.783	12.31
615.905	19.31
616.027	54.31
616.15	88.31
616.272	84.31
616.394	40.31
616.516	38.31
616.638	23.31
616.76	9.31
616.883	14.31
617.005	2.31
617.127	23.31
617.249	15.31
617.371	10.31
617.493	5.31
617.615	19.31
617.738	-4.69
617.86	13.31
617.982	27.31
618.104	24.31
618.226	3.31
618.348	17.31
618.471	4.31
618.593	7.31
618.715	-2.69
618.837	14.31
618.959	7.31
619.081	18.31
619.203	21.31
619.326	17.31
619.448	8.31
619.57	23.31
619.692	6.31
619.814	26.31
619.936	16.31
620.058	20.31
620.181	2.31
620.303	-4.69
620.425	17.31
620.547	10.31
620.669	6.31
620.791	4.31
620.913	7.31
621.036	12.31
621.158	6.31
621.28	23.31
621.402	-1.69
621.524	2.31
621.646	10.31
621.768	-2.69
621.891	1.31
622.013	9.31
622.135	-5.69
622.257	6.31
622.379	18.31
622.501	23.31
622.623	4.31
622.745	14.31
622.868	22.31
622.99	15.31
623.112	11.31
623.234	3.31
623.356	-4.69
623.478	-0.69
623.6	28.31
623.722	11.31
623.845	4.31
623.967	-1.69
624.089	14.31
624.211	14.31
624.333	9.31
624.455	28.31
624.577	12.31
624.699	37.31
624.822	20.31
624.944	-1.69
625.066	25.31
625.188	11.31
625.31	6.31
625.432	39.31
625.554	1.31
625.676	51.31
625.799	5.31
625.921	20.31
626.043	20.31
626.165	12.31
626.287	-23.69
626.409	26.31
626.531	-2.69
626.653	19.31
626.775	16.31
626.898	3.31
627.02	-1.69
627.142	10.31
627.264	-7.69
627.386	4.31
627.508	29.31
627.63	18.31
627.752	32.31
627.874	17.31
627.997	23.31
628.119	18.31
628.241	21.31
628.363	19.31
628.485	10.31
628.607	23.31
628.729	11.31
628.851	12.31
628.973	13.31
629.096	4.31
629.218	14.31
629.34	20.31
629.462	13.31
629.584	15.31
629.706	22.31
629.828	29.31
629.95	23.31
630.072	7.31
630.195	-1.69
630.317	26.31
630.439	14.31
630.561	6.31
630.683	-5.69
630.805	6.31
630.927	4.31
631.049	-3.69
631.171	10.31
631.293	12.31
631.416	9.31
631.538	5.31
631.66	23.31
631.782	16.31
631.904	31.31
632.026	17.31
632.148	24.31
632.27	-12.69
632.392	4.31
632.514	23.31
632.637	17.31
632.759	16.31
632.881	-2.69
633.003	8.31
633.125	-2.69
633.247	9.31
633.369	-2.69
633.491	12.31
633.613	25.31
633.735	26.31
633.858	28.31
633.98	7.31
634.102	5.31
634.224	-13.69
634.346	-8.69
634.468	-5.69
634.59	17.31
634.712	16.31
634.834	19.31
634.956	0.31
635.078	10.31
635.201	1.31
635.323	12.31
635.445	-12.69
635.567	6.31
635.689	26.31
635.811	3.31
635.933	10.31
636.055	10.31
636.177	5.31
636.299	1.31
636.421	5.31
636.544	5.31
636.666	13.31
636.788	14.31
636.91	25.31
637.032	8.31
637.154	3.31
637.276	36.31
637.398	26.31
637.52	16.31
637.642	4.31
637.764	30.31
637.887	13.31
638.009	-1.69
638.131	4.31
638.253	11.31
638.375	20.31
638.497	17.31
638.619	5.31
638.741	12.31
638.863	15.31
638.985	-5.69
639.107	6.31
639.23	9.31
639.352	19.31
639.474	-3.69
639.596	8.31
639.718	4.31
639.84	15.31
639.962	9.31
640.084	24.31
640.206	8.31
640.328	2.31
640.45	12.31
640.573	20.31
640.695	-1.69
640.817	16.31
640.939	14.31
641.061	10.31
641.183	-3.69
641.305	5.31
641.427	4.31
641.549	21.31
641.671	21.31
641.793	3.31
641.915	3.31
642.038	6.31
642.16	5.31
642.282	-5.69
642.404	9.31
642.526	28.31
642.648	23.31
642.77	-9.69
642.892	2.31
643.014	22.31
643.136	21.31
643.258	13.31
643.381	19.31
643.503	31.31
643.625	8.31
643.747	-15.69
643.869	7.31
643.991	13.31
644.113	15.31
644.235	-1.69
644.357	5.31
644.479	29.31
644.601	3.31
644.723	-9.69
644.846	13.31
644.968	-4.69
645.09	10.31
645.212	-8.69
645.334	30.31
645.456	27.31
645.578	26.31
645.7	9.31
645.822	11.31
645.944	10.31
646.066	-9.69
646.188	-0.69
646.311	24.31
646.433	13.31
646.555	53.31
646.677	51.31
646.799	28.31
646.921	2.31
647.043	29.31
647.165	0.31
647.287	18.31
647.409	14.31
647.531	15.31
647.654	-12.69
647.776	6.31
647.898	28.31
648.02	-1.69
648.142	7.31
648.264	7.31
648.386	11.31
648.508	-8.69
648.63	7.31
648.752	7.31
648.874	12.31
648.997	16.31
649.119	13.31
649.241	10.31
649.363	23.31
649.485	37.31
649.607	5.31
649.729	14.31
649.851	20.31
649.973	6.31
650.095	14.31
650.217	11.31
650.34	8.31
650.462	9.31
650.584	6.31
650.706	7.31
650.828	16.31
650.95	-9.69
651.072	31.31
651.194	0.31
651.316	10.31
651.438	4.31
651.56	-9.69
651.683	3.31
651.805	6.31
651.927	8.31
652.049	15.31
652.171	2.31
652.293	15.31
652.415	-9.69
652.537	-7.69
652.659	2.31
652.781	22.31
652.903	20.31
653.026	32.31
653.148	10.31
653.27	15.31
653.392	28.31
653.514	0.31
653.636	14.31
653.758	1.31
653.88	-3.69
654.002	-5.69
654.124	-9.69
654.247	6.31
654.369	36.31
654.491	8.31
654.613	19.31
654.735	-6.69
654.857	20.31
654.979	24.31
655.101	29.31
655.223	53.31
655.345	18.31
655.468	42.31
655.59	26.31
655.712	33.31
655.834	29.31
655.956	57.31
656.078	45.31
656.2	41.31
656.322	41.31
656.444	12.31
656.566	58.31
656.689	60.31
656.811	56.31
656.933	73.31
657.055	79.31
657.177	148.31
657.299	258.31
657.421	508.31
657.543	1868.31
657.665	12497.31
657.787	15166.31
657.91	15232.31
658.032	15665.31
658.154	4585.31
658.276	3197.31
658.398	1100.31
658.52	1017.31
658.642	494.31
658.764	586.31
658.886	268.31
659.009	384.31
659.131	195.31
659.253	309.31
659.375	150.31
659.497	235.31
659.619	120.31
659.741	210.31
659.863	105.31
659.985	156.31
660.108	99.31
660.23	153.31
660.352	76.31
660.474	146.31
660.596	94.31
660.718	133.31
660.84	68.31
660.962	123.31
661.084	70.31
661.207	102.31
661.329	59.31
661.451	89.31
661.573	52.31
661.695	84.31
661.817	51.31
661.939	102.31
662.061	58.31
662.184	75.31
662.306	40.31
662.428	76.31
662.55	54.31
662.672	76.31
662.794	50.31
662.916	63.31
663.038	34.31
663.161	80.31
663.283	52.31
663.405	66.31
663.527	28.31
663.649	61.31
663.771	8.31
663.893	60.31
664.015	25.31
664.138	36.31
664.26	36.31
664.382	53.31
664.504	12.31
664.626	46.31
664.748	22.31
664.87	48.31
664.992	41.31
665.115	52.31
665.237	24.31
665.359	32.31
665.481	16.31
665.603	42.31
665.725	15.31
665.847	22.31
665.97	26.31
666.092	42.31
666.214	21.31
666.336	35.31
666.458	12.31
666.58	31.31
666.702	19.31
666.825	38.31
666.947	4.31
667.069	31.31
667.191	10.31
667.313	51.31
667.435	2.31
667.557	18.31
667.68	10.31
667.802	15.31
667.924	24.31
668.046	41.31
668.168	4.31
668.29	49.31
668.412	22.31
668.535	57.31
668.657	16.31
668.779	27.31
668.901	19.31
669.023	34.31
669.145	15.31
669.267	43.31
669.39	30.31
669.512	7.31
669.634	24.31
669.756	11.31
669.878	14.31
670	35.31
670.123	14.31
670.245	42.31
670.367	23.31
670.489	40.31
670.611	6.31
670.733	30.31
670.856	27.31
670.978	40.31
671.1	29.31
671.222	28.31
671.344	12.31
671.466	20.31
671.589	5.31
671.711	13.31
671.833	12.31
671.955	18.31
672.077	14.31
672.199	43.31
672.322	43.31
672.444	43.31
672.566	24.31
672.688	14.31
672.81	22.31
672.932	40.31
673.055	21.31
673.177	7.31
673.299	12.31
673.421	14.31
673.543	17.31
673.665	32.31
673.788	16.31
673.91	6.31
674.032	1.31
674.154	23.31
674.276	25.31
674.399	4.31
674.521	-10.69
674.643	31.31
674.765	6.31
674.887	31.31
675.009	18.31
675.132	18.31
675.254	6.31
675.376	14.31
675.498	3.31
675.62	32.31
675.743	14.31
675.865	12.31
675.987	-4.69
676.109	20.31
676.231	32.31
676.354	55.31
676.476	-3.69
676.598	7.31
676.72	10.31
676.842	43.31
676.965	-2.69
677.087	12.31
677.209	7.31
677.331	12.31
677.453	6.31
677.576	22.31
677.698	16.31
677.82	16.31
677.942	8.31
678.064	24.31
678.187	15.31
678.309	24.31
678.431	2.31
678.553	13.31
678.675	36.31
678.798	25.31
678.92	13.31
679.042	16.31
679.164	-1.69
679.286	25.31
679.409	17.31
679.531	-0.69
679.653	4.31
679.775	23.31
679.898	-5.69
680.02	5.31
680.142	0.31
680.264	26.31
680.386	-4.69
680.509	24.31
680.631	22.31
680.753	10.31
680.875	8.31
680.998	24.31
681.12	6.31
681.242	28.31
681.364	17.31
681.486	17.31
681.609	10.31
681.731	19.31
681.853	3.31
681.975	7.31
682.098	12.31
682.22	33.31
682.342	7.31
682.464	23.31
682.587	13.31
682.709	8.31
682.831	6.31
682.953	10.31
683.076	2.31
683.198	10.31
683.32	14.31
683.442	6.31
683.565	4.31
683.687	25.31
683.809	13.31
683.931	-0.69
684.054	-0.69
684.176	16.31
684.298	24.31
684.42	22.31
684.543	8.31
684.665	18.31
684.787	7.31
684.909	-3.69
685.032	14.31
685.154	6.31
685.276	5.31
685.398	6.31
685.521	0.31
685.643	18.31
685.765	7.31
685.887	28.31
686.01	6.31
686.132	-13.69
686.254	10.31
686.377	11.31
686.499	17.31
686.621	17.31
686.743	12.31
686.866	7.31
686.988	37.31
687.11	27.31
687.232	-1.69
687.355	-7.69
687.477	4.31
687.599	10.31
687.722	2.31
687.844	-5.69
687.966	4.31
688.088	3.31
688.211	43.31
688.333	23.31
688.455	12.31
688.578	25.31
688.7	14.31
688.822	17.31
688.944	6.31
689.067	46.31
689.189	18.31
689.311	7.31
689.434	13.31
689.556	18.31
689.678	16.31
689.801	22.31
689.923	7.31
690.045	24.31
690.167	21.31
690.29	32.31
690.412	12.31
690.534	26.31
690.657	9.31
690.779	12.31
690.901	25.31
691.024	16.31
691.146	8.31
691.268	0.31
691.391	11.31
691.513	26.31
691.635	11.31
691.758	33.31
691.88	21.31
692.002	14.31
692.125	0.31
692.247	5.31
692.369	6.31
692.492	13.31
692.614	19.31
692.736	20.31
692.859	-6.69
692.981	12.31
693.103	10.31
693.226	7.31
693.348	19.31
693.47	16.31
693.593	2.31
693.715	-11.69
693.837	10.31
693.96	10.31
694.082	6.31
694.204	14.31
694.327	11.31
694.449	-5.69
694.571	5.31
694.694	18.31
694.816	16.31
694.938	7.31
695.061	-0.69
695.183	14.31
695.305	8.31
695.428	16.31
695.55	0.31
695.672	0.31
695.795	27.31
695.917	11.31
696.04	5.31
696.162	-8.69
696.284	18.31
696.407	6.31
696.529	15.31
696.651	35.31
696.774	3.31
696.896	28.31
697.019	20.31
697.141	13.31
697.263	7.31
697.386	14.31
697.508	4.31
697.63	10.31
697.753	18.31
697.875	7.31
697.998	7.31
698.12	19.31
698.242	19.31
698.365	27.31
698.487	25.31
698.61	34.31
698.732	10.31
698.854	34.31
698.977	11.31
699.099	20.31
699.221	5.31
699.344	24.31
699.466	12.31
699.589	6.31
699.711	2.31
699.834	10.31
699.956	10.31
700.078	12.31
700.201	6.31
700.323	34.31
700.446	16.31
700.568	8.31
700.69	15.31
700.813	16.31
700.935	8.31
701.058	-0.69
701.18	25.31
701.302	12.31
701.425	-15.69
701.547	-1.69
701.67	9.31
701.792	11.31
701.915	-8.69
702.037	-1.69
702.159	2.31
702.282	3.31
702.404	13.31
702.527	-4.69
702.649	28.31
702.772	7.31
702.894	15.31
703.017	24.31
703.139	23.31
703.261	30.31
703.384	12.31
703.506	-0.69
703.629	-0.69
703.751	26.31
703.874	20.31
703.996	13.31
704.119	5.31
704.241	23.31
704.364	-4.69
704.486	12.31
704.608	26.31
704.731	6.31
704.853	6.31
704.976	0.31
705.098	24.31
705.221	3.31
705.343	11.31
705.466	22.31
705.588	16.31
705.711	0.31
705.833	12.31
705.956	-1.69
706.078	7.31
706.201	19.31
706.323	6.31
706.446	6.31
