Data from LowRes_H2_15_26_11_07_2024_HR4C61881__99__15-28-23-536.txt Node

Date: Thu Nov 07 15:28:23 EST 2024
User: crc00042
Spectrometer: HR4C6188
Trigger mode: 4
Integration Time (sec): 1.000000E-1
Scans to average: 1
Electric dark correction enabled: true
Nonlinearity correction enabled: false
Boxcar width: 0
XAxis mode: Wavelengths
Number of Pixels in Spectrum: 3648
>>>>>Begin Spectral Data<<<<<
245.66	-120.85
245.797	-120.85
245.934	-120.85
246.071	-88.85
246.208	2.15
246.344	5.15
246.481	-17.85
246.618	-18.85
246.755	14.15
246.892	-2.85
247.029	-8.85
247.165	-11.85
247.302	8.15
247.439	-1.85
247.576	-1.85
247.713	3.15
247.849	34.15
247.986	-0.85
248.123	-3.85
248.26	-8.85
248.396	-5.85
248.533	-7.85
248.67	-1.85
248.806	-6.85
248.943	-8.85
249.08	-8.85
249.216	15.15
249.353	-16.85
249.49	1.15
249.626	7.15
249.763	1.15
249.9	9.15
250.036	4.15
250.173	-0.85
250.309	1.15
250.446	7.15
250.582	4.15
250.719	-15.85
250.856	-23.85
250.992	-24.85
251.129	-5.85
251.265	-20.85
251.402	-11.85
251.538	-8.85
251.675	-12.85
251.811	12.15
251.948	16.15
252.084	2.15
252.221	7.15
252.357	-0.85
252.493	24.15
252.63	-2.85
252.766	18.15
252.903	5.15
253.039	-4.85
253.175	4.15
253.312	7.15
253.448	-13.85
253.585	-20.85
253.721	1.15
253.857	-4.85
253.994	8.15
254.13	-6.85
254.266	-2.85
254.403	5.15
254.539	-4.85
254.675	-7.85
254.811	2.15
254.948	-14.85
255.084	-12.85
255.22	-10.85
255.356	2.15
255.493	11.15
255.629	-10.85
255.765	10.15
255.901	5.15
256.037	18.15
256.174	24.15
256.31	-18.85
256.446	-10.85
256.582	-16.85
256.718	6.15
256.854	18.15
256.991	10.15
257.127	-6.85
257.263	0.15
257.399	-12.85
257.535	-11.85
257.671	-4.85
257.807	-17.85
257.943	-12.85
258.079	-18.85
258.215	-10.85
258.351	24.15
258.487	3.15
258.623	29.15
258.759	10.15
258.895	0.15
259.031	-6.85
259.167	-2.85
259.303	20.15
259.439	-6.85
259.575	-6.85
259.711	2.15
259.847	-7.85
259.983	-6.85
260.119	-19.85
260.255	-12.85
260.391	-4.85
260.527	6.15
260.663	14.15
260.799	18.15
260.934	-3.85
261.07	-10.85
261.206	-15.85
261.342	-5.85
261.478	7.15
261.614	-3.85
261.749	5.15
261.885	3.15
262.021	1.15
262.157	17.15
262.293	0.15
262.428	-1.85
262.564	-11.85
262.7	-7.85
262.836	-17.85
262.971	31.15
263.107	19.15
263.243	10.15
263.378	-14.85
263.514	-26.85
263.65	13.15
263.785	-17.85
263.921	-13.85
264.057	7.15
264.192	2.15
264.328	31.15
264.464	-5.85
264.599	8.15
264.735	16.15
264.871	-10.85
265.006	12.15
265.142	-6.85
265.277	1.15
265.413	-9.85
265.548	-7.85
265.684	8.15
265.819	-9.85
265.955	-21.85
266.091	-12.85
266.226	-13.85
266.362	-9.85
266.497	-0.85
266.633	-9.85
266.768	-9.85
266.903	9.15
267.039	6.15
267.174	28.15
267.31	-4.85
267.445	-7.85
267.581	-15.85
267.716	3.15
267.851	17.15
267.987	8.15
268.122	27.15
268.258	-22.85
268.393	-12.85
268.528	-4.85
268.664	-24.85
268.799	4.15
268.934	-1.85
269.07	-2.85
269.205	0.15
269.34	14.15
269.476	-9.85
269.611	-9.85
269.746	2.15
269.881	11.15
270.017	-1.85
270.152	-15.85
270.287	-4.85
270.422	14.15
270.558	-7.85
270.693	11.15
270.828	0.15
270.963	-6.85
271.098	-28.85
271.234	0.15
271.369	1.15
271.504	-16.85
271.639	-10.85
271.774	-10.85
271.909	5.15
272.045	-24.85
272.18	2.15
272.315	1.15
272.45	2.15
272.585	-18.85
272.72	-6.85
272.855	-16.85
272.99	19.15
273.125	-1.85
273.26	-20.85
273.395	-14.85
273.53	-9.85
273.665	11.15
273.8	-12.85
273.935	7.15
274.07	4.15
274.205	7.15
274.34	-12.85
274.475	-11.85
274.61	27.15
274.745	4.15
274.88	18.15
275.015	3.15
275.15	-11.85
275.285	3.15
275.42	7.15
275.555	30.15
275.69	-7.85
275.825	-0.85
275.959	9.15
276.094	-7.85
276.229	-3.85
276.364	-9.85
276.499	-3.85
276.634	-0.85
276.768	-6.85
276.903	14.15
277.038	7.15
277.173	-18.85
277.308	-8.85
277.442	-6.85
277.577	-11.85
277.712	-10.85
277.847	-1.85
277.981	-2.85
278.116	-8.85
278.251	10.15
278.386	-8.85
278.52	-1.85
278.655	15.15
278.79	9.15
278.924	11.15
279.059	9.15
279.194	-15.85
279.328	33.15
279.463	2.15
279.598	22.15
279.732	-4.85
279.867	-14.85
280.001	0.15
280.136	-0.85
280.271	9.15
280.405	4.15
280.54	3.15
280.674	-12.85
280.809	16.15
280.943	20.15
281.078	4.15
281.213	1.15
281.347	-2.85
281.482	0.15
281.616	-2.85
281.751	5.15
281.885	-14.85
282.02	-5.85
282.154	9.15
282.288	-8.85
282.423	-1.85
282.557	-21.85
282.692	1.15
282.826	-17.85
282.961	13.15
283.095	-0.85
283.229	-12.85
283.364	-19.85
283.498	-3.85
283.633	-11.85
283.767	-0.85
283.901	4.15
284.036	-4.85
284.17	-1.85
284.304	4.15
284.439	0.15
284.573	-24.85
284.707	5.15
284.842	-10.85
284.976	-18.85
285.11	-8.85
285.244	-19.85
285.379	46.15
285.513	-14.85
285.647	0.15
285.781	13.15
285.916	8.15
286.05	14.15
286.184	34.15
286.318	4.15
286.453	-20.85
286.587	-8.85
286.721	-16.85
286.855	-3.85
286.989	9.15
287.123	-16.85
287.258	-20.85
287.392	-13.85
287.526	18.15
287.66	4.15
287.794	7.15
287.928	-6.85
288.062	0.15
288.196	8.15
288.33	12.15
288.464	22.15
288.598	12.15
288.733	1.15
288.867	10.15
289.001	-0.85
289.135	9.15
289.269	-8.85
289.403	6.15
289.537	-7.85
289.671	10.15
289.805	-29.85
289.939	7.15
290.073	-8.85
290.207	13.15
290.34	1.15
290.474	-9.85
290.608	6.15
290.742	10.15
290.876	-16.85
291.01	-0.85
291.144	12.15
291.278	2.15
291.412	16.15
291.546	2.15
291.679	-1.85
291.813	-3.85
291.947	-6.85
292.081	-19.85
292.215	-2.85
292.349	4.15
292.482	24.15
292.616	-6.85
292.75	-7.85
292.884	2.15
293.018	-16.85
293.151	-16.85
293.285	-0.85
293.419	-4.85
293.553	-2.85
293.686	4.15
293.82	3.15
293.954	-2.85
294.088	14.15
294.221	-2.85
294.355	-11.85
294.489	4.15
294.622	1.15
294.756	-7.85
294.89	-4.85
295.023	1.15
295.157	7.15
295.291	11.15
295.424	15.15
295.558	2.15
295.691	-0.85
295.825	-19.85
295.959	8.15
296.092	-8.85
296.226	-6.85
296.359	-5.85
296.493	-15.85
296.627	-8.85
296.76	-19.85
296.894	-11.85
297.027	-30.85
297.161	-14.85
297.294	-15.85
297.428	-20.85
297.561	16.15
297.695	-16.85
297.828	-7.85
297.962	-11.85
298.095	-15.85
298.229	3.15
298.362	-10.85
298.495	-16.85
298.629	-3.85
298.762	-9.85
298.896	-13.85
299.029	-4.85
299.162	-13.85
299.296	-5.85
299.429	-19.85
299.563	15.15
299.696	0.15
299.829	-3.85
299.963	6.15
300.096	8.15
300.229	3.15
300.363	-6.85
300.496	-1.85
300.629	-10.85
300.763	-24.85
300.896	-8.85
301.029	-8.85
301.162	-6.85
301.296	-0.85
301.429	2.15
301.562	-33.85
301.695	9.15
301.829	8.15
301.962	13.15
302.095	-13.85
302.228	-39.85
302.362	8.15
302.495	-19.85
302.628	-14.85
302.761	-7.85
302.894	-0.85
303.027	7.15
303.161	-0.85
303.294	-11.85
303.427	-2.85
303.56	2.15
303.693	12.15
303.826	10.15
303.959	-4.85
304.092	-4.85
304.225	-8.85
304.359	12.15
304.492	-1.85
304.625	-3.85
304.758	12.15
304.891	-21.85
305.024	-6.85
305.157	-4.85
305.29	-10.85
305.423	17.15
305.556	6.15
305.689	16.15
305.822	6.15
305.955	-13.85
306.088	-18.85
306.221	-14.85
306.354	-7.85
306.487	-10.85
306.62	-18.85
306.752	1.15
306.885	-8.85
307.018	-20.85
307.151	-26.85
307.284	5.15
307.417	-19.85
307.55	15.15
307.683	-11.85
307.816	24.15
307.948	13.15
308.081	10.15
308.214	18.15
308.347	4.15
308.48	-3.85
308.613	-3.85
308.745	4.15
308.878	-4.85
309.011	9.15
309.144	3.15
309.277	-7.85
309.409	20.15
309.542	-1.85
309.675	11.15
309.808	3.15
309.94	20.15
310.073	-19.85
310.206	-2.85
310.339	-0.85
310.471	-14.85
310.604	16.15
310.737	-0.85
310.869	7.15
311.002	-9.85
311.135	1.15
311.267	-24.85
311.4	-1.85
311.533	13.15
311.665	-19.85
311.798	-18.85
311.93	-10.85
312.063	23.15
312.196	4.15
312.328	-0.85
312.461	2.15
312.593	11.15
312.726	13.15
312.859	-7.85
312.991	2.15
313.124	-26.85
313.256	0.15
313.389	-6.85
313.521	-24.85
313.654	0.15
313.786	-23.85
313.919	-8.85
314.051	2.15
314.184	10.15
314.316	1.15
314.449	-9.85
314.581	-18.85
314.714	4.15
314.846	6.15
314.978	-21.85
315.111	4.15
315.243	-22.85
315.376	13.15
315.508	15.15
315.641	6.15
315.773	3.15
315.905	20.15
316.038	-9.85
316.17	-9.85
316.302	-3.85
316.435	-7.85
316.567	7.15
316.699	19.15
316.832	-19.85
316.964	-7.85
317.096	-15.85
317.229	-13.85
317.361	-12.85
317.493	-19.85
317.625	-10.85
317.758	0.15
317.89	18.15
318.022	-11.85
318.155	-1.85
318.287	4.15
318.419	-15.85
318.551	-7.85
318.683	-6.85
318.816	-2.85
318.948	3.15
319.08	-4.85
319.212	12.15
319.344	-8.85
319.477	5.15
319.609	-10.85
319.741	20.15
319.873	-1.85
320.005	1.15
320.137	11.15
320.269	-0.85
320.401	6.15
320.534	4.15
320.666	-12.85
320.798	-2.85
320.93	-22.85
321.062	-16.85
321.194	-16.85
321.326	-0.85
321.458	-4.85
321.59	1.15
321.722	-5.85
321.854	-9.85
321.986	-0.85
322.118	-6.85
322.25	-25.85
322.382	-9.85
322.514	-7.85
322.646	-20.85
322.778	4.15
322.91	6.15
323.042	-8.85
323.174	-7.85
323.306	-23.85
323.438	-12.85
323.57	-6.85
323.702	-6.85
323.834	-3.85
323.966	-15.85
324.097	2.15
324.229	-4.85
324.361	3.15
324.493	-10.85
324.625	-7.85
324.757	3.15
324.889	-8.85
325.021	0.15
325.152	-8.85
325.284	3.15
325.416	-1.85
325.548	13.15
325.68	2.15
325.811	19.15
325.943	6.15
326.075	3.15
326.207	-2.85
326.339	6.15
326.47	-7.85
326.602	-2.85
326.734	-0.85
326.866	6.15
326.997	-25.85
327.129	-11.85
327.261	-17.85
327.392	-13.85
327.524	1.15
327.656	-3.85
327.787	4.15
327.919	-5.85
328.051	8.15
328.182	13.15
328.314	23.15
328.446	-8.85
328.577	5.15
328.709	5.15
328.841	-14.85
328.972	-0.85
329.104	-0.85
329.235	1.15
329.367	-1.85
329.499	2.15
329.63	4.15
329.762	13.15
329.893	9.15
330.025	13.15
330.156	-23.85
330.288	-11.85
330.419	4.15
330.551	20.15
330.683	3.15
330.814	-18.85
330.946	13.15
331.077	-23.85
331.208	-18.85
331.34	-11.85
331.471	6.15
331.603	9.15
331.734	-15.85
331.866	3.15
331.997	3.15
332.129	7.15
332.26	5.15
332.392	11.15
332.523	14.15
332.654	-23.85
332.786	-12.85
332.917	-11.85
333.048	2.15
333.18	25.15
333.311	-14.85
333.443	-6.85
333.574	-8.85
333.705	14.15
333.837	-10.85
333.968	10.15
334.099	20.15
334.231	-1.85
334.362	-6.85
334.493	-9.85
334.624	3.15
334.756	7.15
334.887	-7.85
335.018	1.15
335.15	13.15
335.281	0.15
335.412	20.15
335.543	7.15
335.675	-6.85
335.806	13.15
335.937	-7.85
336.068	-1.85
336.199	37.15
336.331	-8.85
336.462	-6.85
336.593	7.15
336.724	-4.85
336.855	3.15
336.986	-12.85
337.118	0.15
337.249	14.15
337.38	0.15
337.511	-17.85
337.642	-13.85
337.773	-10.85
337.904	-7.85
338.035	15.15
338.166	-4.85
338.298	-2.85
338.429	-7.85
338.56	12.15
338.691	23.15
338.822	-2.85
338.953	-3.85
339.084	24.15
339.215	3.15
339.346	0.15
339.477	-4.85
339.608	3.15
339.739	3.15
339.87	4.15
340.001	2.15
340.132	13.15
340.263	1.15
340.394	29.15
340.525	5.15
340.656	-8.85
340.787	-5.85
340.918	28.15
341.049	-4.85
341.179	-10.85
341.31	5.15
341.441	2.15
341.572	9.15
341.703	-4.85
341.834	3.15
341.965	12.15
342.096	-16.85
342.227	4.15
342.357	2.15
342.488	-11.85
342.619	-2.85
342.75	-3.85
342.881	-10.85
343.012	9.15
343.142	26.15
343.273	-16.85
343.404	12.15
343.535	41.15
343.666	3.15
343.796	13.15
343.927	17.15
344.058	19.15
344.189	23.15
344.319	-9.85
344.45	-6.85
344.581	6.15
344.712	-7.85
344.842	13.15
344.973	-6.85
345.104	4.15
345.234	-12.85
345.365	-15.85
345.496	-2.85
345.626	3.15
345.757	31.15
345.888	0.15
346.018	7.15
346.149	9.15
346.28	10.15
346.41	12.15
346.541	6.15
346.672	-16.85
346.802	28.15
346.933	26.15
347.063	15.15
347.194	5.15
347.325	4.15
347.455	17.15
347.586	8.15
347.716	-15.85
347.847	9.15
347.977	-7.85
348.108	9.15
348.238	7.15
348.369	3.15
348.499	8.15
348.63	-8.85
348.76	-1.85
348.891	-4.85
349.021	11.15
349.152	-2.85
349.282	-5.85
349.413	4.15
349.543	7.15
349.674	3.15
349.804	16.15
349.935	-8.85
350.065	-17.85
350.196	-16.85
350.326	17.15
350.456	4.15
350.587	26.15
350.717	0.15
350.848	6.15
350.978	5.15
351.108	-15.85
351.239	-3.85
351.369	-32.85
351.499	3.15
351.63	-6.85
351.76	1.15
351.89	-5.85
352.021	-3.85
352.151	-0.85
352.281	17.15
352.412	8.15
352.542	5.15
352.672	-14.85
352.803	0.15
352.933	11.15
353.063	4.15
353.193	8.15
353.324	3.15
353.454	6.15
353.584	11.15
353.714	-10.85
353.845	-0.85
353.975	-22.85
354.105	-20.85
354.235	-7.85
354.365	6.15
354.496	-25.85
354.626	21.15
354.756	17.15
354.886	-9.85
355.016	7.15
355.146	5.15
355.277	9.15
355.407	-19.85
355.537	12.15
355.667	-9.85
355.797	-25.85
355.927	-25.85
356.057	-0.85
356.187	-10.85
356.318	-12.85
356.448	2.15
356.578	1.15
356.708	-10.85
356.838	-10.85
356.968	-18.85
357.098	6.15
357.228	5.15
357.358	0.15
357.488	-3.85
357.618	31.15
357.748	0.15
357.878	-4.85
358.008	2.15
358.138	-4.85
358.268	1.15
358.398	13.15
358.528	-16.85
358.658	-16.85
358.788	-14.85
358.918	16.15
359.048	14.15
359.178	7.15
359.308	15.15
359.438	38.15
359.568	16.15
359.698	2.15
359.827	4.15
359.957	-0.85
360.087	6.15
360.217	-9.85
360.347	2.15
360.477	7.15
360.607	-12.85
360.737	7.15
360.866	-3.85
360.996	-28.85
361.126	-5.85
361.256	28.15
361.386	31.15
361.516	11.15
361.645	-5.85
361.775	19.15
361.905	-16.85
362.035	6.15
362.165	0.15
362.294	5.15
362.424	26.15
362.554	25.15
362.684	-9.85
362.813	-4.85
362.943	6.15
363.073	18.15
363.203	10.15
363.332	7.15
363.462	-15.85
363.592	-16.85
363.721	-4.85
363.851	-8.85
363.981	17.15
364.111	-0.85
364.24	-13.85
364.37	-1.85
364.5	-0.85
364.629	21.15
364.759	13.15
364.888	-3.85
365.018	19.15
365.148	18.15
365.277	7.15
365.407	11.15
365.537	18.15
365.666	12.15
365.796	5.15
365.925	-6.85
366.055	0.15
366.184	-14.85
366.314	-9.85
366.444	2.15
366.573	19.15
366.703	-8.85
366.832	18.15
366.962	12.15
367.091	24.15
367.221	22.15
367.35	6.15
367.48	37.15
367.609	26.15
367.739	7.15
367.868	-6.85
367.998	0.15
368.127	33.15
368.257	14.15
368.386	31.15
368.516	21.15
368.645	15.15
368.775	0.15
368.904	-0.85
369.033	2.15
369.163	-1.85
369.292	5.15
369.422	6.15
369.551	7.15
369.68	14.15
369.81	14.15
369.939	3.15
370.069	22.15
370.198	-6.85
370.327	-20.85
370.457	-0.85
370.586	6.15
370.715	-8.85
370.845	-3.85
370.974	21.15
371.103	-4.85
371.233	9.15
371.362	9.15
371.491	5.15
371.621	1.15
371.75	2.15
371.879	-10.85
372.008	8.15
372.138	11.15
372.267	5.15
372.396	-4.85
372.525	-9.85
372.655	-6.85
372.784	-3.85
372.913	8.15
373.042	8.15
373.172	15.15
373.301	-17.85
373.43	-15.85
373.559	0.15
373.688	8.15
373.818	8.15
373.947	-2.85
374.076	-16.85
374.205	21.15
374.334	-7.85
374.463	-28.85
374.593	7.15
374.722	11.15
374.851	19.15
374.98	-11.85
375.109	-8.85
375.238	14.15
375.367	25.15
375.496	6.15
375.625	-2.85
375.755	5.15
375.884	16.15
376.013	10.15
376.142	-11.85
376.271	7.15
376.4	21.15
376.529	23.15
376.658	11.15
376.787	5.15
376.916	8.15
377.045	-15.85
377.174	0.15
377.303	-2.85
377.432	39.15
377.561	9.15
377.69	-6.85
377.819	4.15
377.948	11.15
378.077	-11.85
378.206	-5.85
378.335	-5.85
378.464	13.15
378.593	8.15
378.722	5.15
378.851	-17.85
378.98	11.15
379.108	-8.85
379.237	-7.85
379.366	1.15
379.495	16.15
379.624	4.15
379.753	4.15
379.882	-9.85
380.011	-18.85
380.14	4.15
380.268	7.15
380.397	-8.85
380.526	21.15
380.655	-10.85
380.784	-8.85
380.913	-8.85
381.041	1.15
381.17	-14.85
381.299	-10.85
381.428	25.15
381.557	6.15
381.685	-6.85
381.814	0.15
381.943	11.15
382.072	-4.85
382.2	-6.85
382.329	0.15
382.458	1.15
382.587	19.15
382.715	24.15
382.844	4.15
382.973	17.15
383.102	7.15
383.23	9.15
383.359	-4.85
383.488	8.15
383.616	7.15
383.745	-5.85
383.874	-5.85
384.003	-0.85
384.131	-14.85
384.26	4.15
384.389	18.15
384.517	-2.85
384.646	-14.85
384.774	9.15
384.903	3.15
385.032	13.15
385.16	5.15
385.289	-7.85
385.418	11.15
385.546	3.15
385.675	27.15
385.803	0.15
385.932	-1.85
386.06	-8.85
386.189	-5.85
386.318	2.15
386.446	-5.85
386.575	-4.85
386.703	4.15
386.832	-5.85
386.96	-23.85
387.089	7.15
387.217	6.15
387.346	-6.85
387.474	11.15
387.603	-6.85
387.731	0.15
387.86	-0.85
387.988	-5.85
388.117	20.15
388.245	-4.85
388.374	-0.85
388.502	11.15
388.631	0.15
388.759	19.15
388.888	18.15
389.016	3.15
389.144	-12.85
389.273	-0.85
389.401	-2.85
389.53	-9.85
389.658	1.15
389.786	-14.85
389.915	-0.85
390.043	9.15
390.172	12.15
390.3	23.15
390.428	9.15
390.557	-8.85
390.685	2.15
390.813	-1.85
390.942	15.15
391.07	-2.85
391.198	-1.85
391.327	3.15
391.455	0.15
391.583	8.15
391.712	-3.85
391.84	10.15
391.968	-15.85
392.096	4.15
392.225	-11.85
392.353	14.15
392.481	-2.85
392.609	16.15
392.738	2.15
392.866	3.15
392.994	-12.85
393.122	24.15
393.251	-1.85
393.379	-31.85
393.507	-26.85
393.635	-14.85
393.764	11.15
393.892	-1.85
394.02	-3.85
394.148	-11.85
394.276	-10.85
394.404	24.15
394.533	-3.85
394.661	-7.85
394.789	13.15
394.917	24.15
395.045	-11.85
395.173	-4.85
395.302	-4.85
395.43	6.15
395.558	15.15
395.686	-0.85
395.814	5.15
395.942	-18.85
396.07	-16.85
396.198	25.15
396.326	23.15
396.454	21.15
396.582	16.15
396.711	-12.85
396.839	14.15
396.967	19.15
397.095	8.15
397.223	26.15
397.351	4.15
397.479	15.15
397.607	-10.85
397.735	18.15
397.863	18.15
397.991	6.15
398.119	-16.85
398.247	-1.85
398.375	1.15
398.503	-5.85
398.631	2.15
398.759	-13.85
398.887	-15.85
399.015	1.15
399.143	-4.85
399.271	-6.85
399.399	7.15
399.526	13.15
399.654	16.15
399.782	-0.85
399.91	10.15
400.038	18.15
400.166	4.15
400.294	-6.85
400.422	-28.85
400.55	6.15
400.678	-0.85
400.805	-4.85
400.933	4.15
401.061	20.15
401.189	3.15
401.317	10.15
401.445	5.15
401.573	20.15
401.7	9.15
401.828	9.15
401.956	0.15
402.084	10.15
402.212	11.15
402.34	8.15
402.467	3.15
402.595	1.15
402.723	-3.85
402.851	18.15
402.978	9.15
403.106	13.15
403.234	-12.85
403.362	23.15
403.489	19.15
403.617	4.15
403.745	6.15
403.873	1.15
404	10.15
404.128	-8.85
404.256	9.15
404.384	16.15
404.511	13.15
404.639	-8.85
404.767	-4.85
404.894	5.15
405.022	-5.85
405.15	9.15
405.277	-7.85
405.405	-13.85
405.533	-8.85
405.66	3.15
405.788	-13.85
405.916	-8.85
406.043	-1.85
406.171	1.15
406.299	7.15
406.426	4.15
406.554	13.15
406.681	3.15
406.809	8.15
406.937	10.15
407.064	-2.85
407.192	12.15
407.319	-12.85
407.447	11.15
407.574	19.15
407.702	2.15
407.83	10.15
407.957	4.15
408.085	12.15
408.212	4.15
408.34	-9.85
408.467	-13.85
408.595	-7.85
408.722	7.15
408.85	10.15
408.977	4.15
409.105	-0.85
409.232	2.15
409.36	16.15
409.487	14.15
409.615	11.15
409.742	21.15
409.87	38.15
409.997	36.15
410.125	36.15
410.252	46.15
410.379	49.15
410.507	25.15
410.634	16.15
410.762	7.15
410.889	16.15
411.017	-1.85
411.144	5.15
411.271	-3.85
411.399	4.15
411.526	16.15
411.653	19.15
411.781	28.15
411.908	14.15
412.036	-2.85
412.163	12.15
412.29	26.15
412.418	9.15
412.545	3.15
412.672	22.15
412.8	21.15
412.927	9.15
413.054	25.15
413.182	16.15
413.309	-12.85
413.436	-9.85
413.564	-0.85
413.691	15.15
413.818	25.15
413.945	-6.85
414.073	11.15
414.2	14.15
414.327	4.15
414.454	-6.85
414.582	8.15
414.709	-12.85
414.836	-4.85
414.963	-3.85
415.091	8.15
415.218	-7.85
415.345	-12.85
415.472	-1.85
415.6	1.15
415.727	7.15
415.854	0.15
415.981	-18.85
416.108	-11.85
416.236	21.15
416.363	11.15
416.49	-1.85
416.617	7.15
416.744	2.15
416.871	0.15
416.998	7.15
417.126	2.15
417.253	2.15
417.38	-3.85
417.507	12.15
417.634	14.15
417.761	14.15
417.888	8.15
418.015	-1.85
418.143	16.15
418.27	7.15
418.397	1.15
418.524	9.15
418.651	-18.85
418.778	6.15
418.905	28.15
419.032	20.15
419.159	-5.85
419.286	29.15
419.413	15.15
419.54	18.15
419.667	-16.85
419.794	-33.85
419.921	10.15
420.048	17.15
420.175	8.15
420.302	-6.85
420.429	-6.85
420.556	4.15
420.683	4.15
420.81	-5.85
420.937	-4.85
421.064	16.15
421.191	1.15
421.318	0.15
421.445	18.15
421.572	-16.85
421.699	12.15
421.826	11.15
421.953	6.15
422.08	-1.85
422.207	-14.85
422.334	-2.85
422.461	15.15
422.588	-11.85
422.714	5.15
422.841	22.15
422.968	31.15
423.095	-2.85
423.222	-18.85
423.349	5.15
423.476	5.15
423.603	0.15
423.729	-1.85
423.856	4.15
423.983	18.15
424.11	-2.85
424.237	-4.85
424.364	3.15
424.491	-17.85
424.617	-20.85
424.744	-12.85
424.871	11.15
424.998	-3.85
425.125	6.15
425.251	3.15
425.378	-18.85
425.505	-0.85
425.632	17.15
425.758	-6.85
425.885	10.15
426.012	11.15
426.139	28.15
426.266	-1.85
426.392	7.15
426.519	19.15
426.646	12.15
426.772	3.15
426.899	-10.85
427.026	9.15
427.153	5.15
427.279	21.15
427.406	15.15
427.533	4.15
427.659	-12.85
427.786	1.15
427.913	24.15
428.039	-0.85
428.166	0.15
428.293	-14.85
428.419	19.15
428.546	8.15
428.673	-12.85
428.799	-8.85
428.926	6.15
429.053	17.15
429.179	9.15
429.306	5.15
429.433	8.15
429.559	10.15
429.686	-20.85
429.812	1.15
429.939	-9.85
430.066	-4.85
430.192	1.15
430.319	8.15
430.445	9.15
430.572	5.15
430.699	-13.85
430.825	-0.85
430.952	3.15
431.078	-2.85
431.205	-0.85
431.331	13.15
431.458	8.15
431.584	21.15
431.711	16.15
431.837	22.15
431.964	4.15
432.09	0.15
432.217	-14.85
432.343	1.15
432.47	19.15
432.596	13.15
432.723	-6.85
432.849	-1.85
432.976	-3.85
433.102	2.15
433.229	-8.85
433.355	36.15
433.482	80.15
433.608	149.15
433.735	150.15
433.861	131.15
433.987	152.15
434.114	247.15
434.24	211.15
434.367	70.15
434.493	9.15
434.62	17.15
434.746	21.15
434.872	2.15
434.999	11.15
435.125	3.15
435.252	-14.85
435.378	-0.85
435.504	0.15
435.631	2.15
435.757	1.15
435.883	21.15
436.01	-3.85
436.136	14.15
436.262	2.15
436.389	13.15
436.515	6.15
436.641	9.15
436.768	-0.85
436.894	3.15
437.02	26.15
437.147	9.15
437.273	3.15
437.399	5.15
437.526	31.15
437.652	-0.85
437.778	23.15
437.904	-20.85
438.031	-4.85
438.157	7.15
438.283	7.15
438.409	-8.85
438.536	-11.85
438.662	9.15
438.788	20.15
438.914	19.15
439.041	0.15
439.167	15.15
439.293	1.15
439.419	18.15
439.546	10.15
439.672	7.15
439.798	0.15
439.924	11.15
440.05	12.15
440.177	19.15
440.303	7.15
440.429	-3.85
440.555	0.15
440.681	13.15
440.807	16.15
440.934	11.15
441.06	-0.85
441.186	-0.85
441.312	5.15
441.438	16.15
441.564	21.15
441.69	14.15
441.816	25.15
441.943	5.15
442.069	14.15
442.195	14.15
442.321	4.15
442.447	8.15
442.573	20.15
442.699	0.15
442.825	-9.85
442.951	6.15
443.077	8.15
443.203	-0.85
443.33	0.15
443.456	-4.85
443.582	2.15
443.708	-10.85
443.834	15.15
443.96	12.15
444.086	3.15
444.212	15.15
444.338	24.15
444.464	21.15
444.59	4.15
444.716	9.15
444.842	10.15
444.968	-13.85
445.094	19.15
445.22	9.15
445.346	-3.85
445.472	2.15
445.598	9.15
445.724	-3.85
445.85	-17.85
445.976	20.15
446.102	26.15
446.228	19.15
446.354	10.15
446.48	6.15
446.605	3.15
446.731	3.15
446.857	-8.85
446.983	-11.85
447.109	5.15
447.235	-16.85
447.361	-7.85
447.487	18.15
447.613	8.15
447.739	3.15
447.865	0.15
447.99	-2.85
448.116	13.15
448.242	-0.85
448.368	-18.85
448.494	1.15
448.62	22.15
448.746	6.15
448.872	5.15
448.997	-6.85
449.123	12.15
449.249	21.15
449.375	9.15
449.501	8.15
449.627	5.15
449.752	16.15
449.878	-3.85
450.004	-12.85
450.13	3.15
450.256	5.15
450.381	-2.85
450.507	2.15
450.633	25.15
450.759	25.15
450.884	-8.85
451.01	18.15
451.136	13.15
451.262	-1.85
451.388	3.15
451.513	2.15
451.639	10.15
451.765	3.15
451.89	18.15
452.016	1.15
452.142	8.15
452.268	10.15
452.393	4.15
452.519	-6.85
452.645	18.15
452.771	2.15
452.896	-0.85
453.022	-9.85
453.148	25.15
453.273	21.15
453.399	7.15
453.525	-0.85
453.65	17.15
453.776	21.15
453.902	7.15
454.027	23.15
454.153	9.15
454.279	25.15
454.404	-6.85
454.53	16.15
454.656	43.15
454.781	13.15
454.907	-4.85
455.032	21.15
455.158	20.15
455.284	21.15
455.409	19.15
455.535	4.15
455.66	18.15
455.786	20.15
455.912	13.15
456.037	3.15
456.163	21.15
456.288	15.15
456.414	-19.85
456.539	-9.85
456.665	11.15
456.791	9.15
456.916	-3.85
457.042	-6.85
457.167	-11.85
457.293	2.15
457.418	0.15
457.544	11.15
457.669	-0.85
457.795	9.15
457.92	6.15
458.046	5.15
458.171	13.15
458.297	3.15
458.422	5.15
458.548	1.15
458.673	2.15
458.799	3.15
458.924	-9.85
459.05	11.15
459.175	-4.85
459.301	-2.85
459.426	11.15
459.552	1.15
459.677	3.15
459.803	18.15
459.928	24.15
460.053	13.15
460.179	10.15
460.304	22.15
460.43	3.15
460.555	6.15
460.681	-4.85
460.806	-5.85
460.931	8.15
461.057	4.15
461.182	-2.85
461.308	2.15
461.433	14.15
461.558	14.15
461.684	30.15
461.809	24.15
461.934	11.15
462.06	12.15
462.185	-1.85
462.311	1.15
462.436	21.15
462.561	28.15
462.687	25.15
462.812	5.15
462.937	-10.85
463.063	-8.85
463.188	-11.85
463.313	10.15
463.439	4.15
463.564	-2.85
463.689	16.15
463.814	25.15
463.94	-4.85
464.065	14.15
464.19	20.15
464.316	4.15
464.441	-2.85
464.566	4.15
464.692	13.15
464.817	10.15
464.942	8.15
465.067	-4.85
465.193	-12.85
465.318	-3.85
465.443	-2.85
465.568	8.15
465.694	0.15
465.819	22.15
465.944	16.15
466.069	22.15
466.194	15.15
466.32	9.15
466.445	-1.85
466.57	2.15
466.695	-1.85
466.82	2.15
466.946	10.15
467.071	9.15
467.196	-7.85
467.321	8.15
467.446	6.15
467.572	11.15
467.697	-16.85
467.822	3.15
467.947	9.15
468.072	0.15
468.197	-2.85
468.323	-8.85
468.448	-8.85
468.573	-12.85
468.698	-1.85
468.823	7.15
468.948	13.15
469.073	18.15
469.198	0.15
469.324	21.15
469.449	-6.85
469.574	12.15
469.699	17.15
469.824	15.15
469.949	21.15
470.074	10.15
470.199	39.15
470.324	20.15
470.449	32.15
470.574	29.15
470.7	14.15
470.825	10.15
470.95	32.15
471.075	10.15
471.2	6.15
471.325	19.15
471.45	2.15
471.575	-1.85
471.7	5.15
471.825	-9.85
471.95	-13.85
472.075	-5.85
472.2	11.15
472.325	-6.85
472.45	-4.85
472.575	0.15
472.7	7.15
472.825	25.15
472.95	15.15
473.075	12.15
473.2	-14.85
473.325	18.15
473.45	3.15
473.575	1.15
473.7	25.15
473.825	0.15
473.95	3.15
474.075	25.15
474.2	-0.85
474.325	0.15
474.45	24.15
474.574	-0.85
474.699	14.15
474.824	22.15
474.949	-4.85
475.074	-0.85
475.199	17.15
475.324	6.15
475.449	12.15
475.574	18.15
475.699	19.15
475.824	5.15
475.949	-2.85
476.073	13.15
476.198	12.15
476.323	4.15
476.448	3.15
476.573	4.15
476.698	22.15
476.823	15.15
476.947	1.15
477.072	14.15
477.197	1.15
477.322	1.15
477.447	9.15
477.572	8.15
477.697	8.15
477.821	-1.85
477.946	27.15
478.071	15.15
478.196	40.15
478.321	11.15
478.445	17.15
478.57	7.15
478.695	-3.85
478.82	9.15
478.945	15.15
479.069	1.15
479.194	3.15
479.319	9.15
479.444	17.15
479.569	23.15
479.693	28.15
479.818	13.15
479.943	9.15
480.068	6.15
480.192	19.15
480.317	7.15
480.442	12.15
480.567	-1.85
480.691	-0.85
480.816	3.15
480.941	1.15
481.066	18.15
481.19	26.15
481.315	18.15
481.44	14.15
481.564	2.15
481.689	27.15
481.814	15.15
481.938	21.15
482.063	3.15
482.188	14.15
482.313	34.15
482.437	34.15
482.562	20.15
482.687	18.15
482.811	22.15
482.936	18.15
483.061	26.15
483.185	19.15
483.31	16.15
483.435	23.15
483.559	15.15
483.684	7.15
483.808	22.15
483.933	22.15
484.058	8.15
484.182	7.15
484.307	13.15
484.432	21.15
484.556	2.15
484.681	1.15
484.805	10.15
484.93	25.15
485.055	34.15
485.179	72.15
485.304	118.15
485.428	355.15
485.553	1329.15
485.678	1846.15
485.802	1688.15
485.927	1852.15
486.051	2788.15
486.176	1701.15
486.3	474.15
486.425	145.15
486.549	80.15
486.674	61.15
486.799	37.15
486.923	21.15
487.048	15.15
487.172	17.15
487.297	22.15
487.421	32.15
487.546	18.15
487.67	40.15
487.795	10.15
487.919	11.15
488.044	35.15
488.168	34.15
488.293	20.15
488.417	9.15
488.542	32.15
488.666	24.15
488.791	17.15
488.915	16.15
489.04	17.15
489.164	27.15
489.289	18.15
489.413	-5.85
489.538	4.15
489.662	7.15
489.786	2.15
489.911	16.15
490.035	9.15
490.16	9.15
490.284	10.15
490.409	-19.85
490.533	17.15
490.658	33.15
490.782	3.15
490.906	19.15
491.031	14.15
491.155	13.15
491.28	17.15
491.404	8.15
491.528	23.15
491.653	14.15
491.777	35.15
491.902	-0.85
492.026	22.15
492.15	32.15
492.275	34.15
492.399	24.15
492.524	20.15
492.648	11.15
492.772	12.15
492.897	16.15
493.021	10.15
493.145	15.15
493.27	6.15
493.394	-3.85
493.518	-1.85
493.643	6.15
493.767	23.15
493.891	9.15
494.016	9.15
494.14	-2.85
494.264	33.15
494.389	50.15
494.513	6.15
494.637	-4.85
494.762	18.15
494.886	34.15
495.01	2.15
495.134	13.15
495.259	21.15
495.383	0.15
495.507	13.15
495.632	17.15
495.756	47.15
495.88	37.15
496.004	22.15
496.129	5.15
496.253	5.15
496.377	19.15
496.501	26.15
496.626	-1.85
496.75	25.15
496.874	14.15
496.998	21.15
497.123	31.15
497.247	10.15
497.371	-4.85
497.495	14.15
497.62	5.15
497.744	5.15
497.868	5.15
497.992	18.15
498.116	4.15
498.241	-6.85
498.365	6.15
498.489	-2.85
498.613	24.15
498.737	1.15
498.862	19.15
498.986	4.15
499.11	7.15
499.234	-10.85
499.358	3.15
499.482	5.15
499.607	8.15
499.731	15.15
499.855	8.15
499.979	18.15
500.103	9.15
500.227	17.15
500.351	9.15
500.476	-0.85
500.6	-0.85
500.724	-0.85
500.848	21.15
500.972	13.15
501.096	11.15
501.22	19.15
501.344	7.15
501.469	-5.85
501.593	19.15
501.717	11.15
501.841	9.15
501.965	5.15
502.089	-6.85
502.213	20.15
502.337	6.15
502.461	6.15
502.585	7.15
502.709	14.15
502.834	8.15
502.958	-8.85
503.082	18.15
503.206	10.15
503.33	26.15
503.454	23.15
503.578	25.15
503.702	18.15
503.826	18.15
503.95	41.15
504.074	17.15
504.198	14.15
504.322	-7.85
504.446	7.15
504.57	7.15
504.694	28.15
504.818	21.15
504.942	12.15
505.066	12.15
505.19	4.15
505.314	3.15
505.438	7.15
505.562	17.15
505.686	15.15
505.81	1.15
505.934	19.15
506.058	17.15
506.182	16.15
506.306	9.15
506.43	9.15
506.554	6.15
506.678	-2.85
506.802	11.15
506.926	22.15
507.05	19.15
507.174	13.15
507.298	29.15
507.422	29.15
507.546	4.15
507.67	11.15
507.794	2.15
507.918	5.15
508.042	0.15
508.165	6.15
508.289	0.15
508.413	12.15
508.537	-6.85
508.661	16.15
508.785	21.15
508.909	15.15
509.033	18.15
509.157	11.15
509.281	11.15
509.405	18.15
509.528	38.15
509.652	24.15
509.776	4.15
509.9	28.15
510.024	13.15
510.148	3.15
510.272	5.15
510.396	15.15
510.519	4.15
510.643	13.15
510.767	19.15
510.891	19.15
511.015	6.15
511.139	4.15
511.263	17.15
511.386	-1.85
511.51	12.15
511.634	-14.85
511.758	1.15
511.882	-1.85
512.006	24.15
512.129	20.15
512.253	27.15
512.377	4.15
512.501	15.15
512.625	24.15
512.748	11.15
512.872	-2.85
512.996	12.15
513.12	27.15
513.244	16.15
513.367	23.15
513.491	9.15
513.615	19.15
513.739	17.15
513.862	30.15
513.986	29.15
514.11	18.15
514.234	12.15
514.358	31.15
514.481	18.15
514.605	0.15
514.729	10.15
514.853	15.15
514.976	8.15
515.1	7.15
515.224	16.15
515.348	11.15
515.471	6.15
515.595	6.15
515.719	5.15
515.842	38.15
515.966	10.15
516.09	27.15
516.214	-7.85
516.337	41.15
516.461	37.15
516.585	7.15
516.708	12.15
516.832	12.15
516.956	24.15
517.08	23.15
517.203	8.15
517.327	17.15
517.451	33.15
517.574	34.15
517.698	11.15
517.822	15.15
517.945	19.15
518.069	37.15
518.193	41.15
518.316	29.15
518.44	40.15
518.564	19.15
518.687	25.15
518.811	25.15
518.935	53.15
519.058	32.15
519.182	36.15
519.306	55.15
519.429	28.15
519.553	62.15
519.676	26.15
519.8	24.15
519.924	-4.85
520.047	7.15
520.171	6.15
520.294	15.15
520.418	17.15
520.542	-1.85
520.665	25.15
520.789	9.15
520.913	-17.85
521.036	-20.85
521.16	-0.85
521.283	11.15
521.407	-7.85
521.53	5.15
521.654	-4.85
521.778	18.15
521.901	10.15
522.025	2.15
522.148	-6.85
522.272	0.15
522.395	-5.85
522.519	9.15
522.643	11.15
522.766	9.15
522.89	2.15
523.013	6.15
523.137	-13.85
523.26	9.15
523.384	12.15
523.507	8.15
523.631	16.15
523.754	17.15
523.878	0.15
524.002	16.15
524.125	6.15
524.249	-2.85
524.372	-2.85
524.496	0.15
524.619	21.15
524.743	12.15
524.866	0.15
524.99	16.15
525.113	6.15
525.237	14.15
525.36	15.15
525.484	14.15
525.607	-3.85
525.731	-6.85
525.854	16.15
525.978	34.15
526.101	21.15
526.224	5.15
526.348	8.15
526.471	3.15
526.595	9.15
526.718	5.15
526.842	-11.85
526.965	18.15
527.089	20.15
527.212	23.15
527.336	-11.85
527.459	9.15
527.582	8.15
527.706	11.15
527.829	11.15
527.953	-0.85
528.076	-11.85
528.2	12.15
528.323	28.15
528.446	17.15
528.57	12.15
528.693	13.15
528.817	-4.85
528.94	8.15
529.064	52.15
529.187	17.15
529.31	1.15
529.434	-8.85
529.557	8.15
529.68	3.15
529.804	2.15
529.927	10.15
530.051	9.15
530.174	4.15
530.297	11.15
530.421	14.15
530.544	22.15
530.668	13.15
530.791	-2.85
530.914	18.15
531.038	-7.85
531.161	-0.85
531.284	8.15
531.408	4.15
531.531	8.15
531.654	2.15
531.778	27.15
531.901	-4.85
532.024	1.15
532.148	6.15
532.271	16.15
532.394	24.15
532.518	27.15
532.641	24.15
532.764	36.15
532.888	27.15
533.011	5.15
533.134	-0.85
533.258	2.15
533.381	11.15
533.504	4.15
533.628	15.15
533.751	12.15
533.874	7.15
533.997	11.15
534.121	-2.85
534.244	0.15
534.367	-21.85
534.491	10.15
534.614	13.15
534.737	21.15
534.86	14.15
534.984	-2.85
535.107	-22.85
535.23	8.15
535.354	-5.85
535.477	0.15
535.6	20.15
535.723	13.15
535.847	17.15
535.97	19.15
536.093	9.15
536.216	4.15
536.34	14.15
536.463	1.15
536.586	23.15
536.709	14.15
536.833	6.15
536.956	5.15
537.079	4.15
537.202	31.15
537.325	9.15
537.449	5.15
537.572	12.15
537.695	-17.85
537.818	-14.85
537.941	1.15
538.065	4.15
538.188	5.15
538.311	5.15
538.434	33.15
538.558	-7.85
538.681	16.15
538.804	24.15
538.927	25.15
539.05	19.15
539.173	11.15
539.297	0.15
539.42	10.15
539.543	-1.85
539.666	16.15
539.789	1.15
539.913	0.15
540.036	7.15
540.159	19.15
540.282	-2.85
540.405	-6.85
540.528	-3.85
540.651	9.15
540.775	18.15
540.898	17.15
541.021	18.15
541.144	17.15
541.267	-5.85
541.39	-7.85
541.513	20.15
541.637	11.15
541.76	2.15
541.883	8.15
542.006	3.15
542.129	25.15
542.252	2.15
542.375	0.15
542.498	25.15
542.622	17.15
542.745	10.15
542.868	3.15
542.991	11.15
543.114	23.15
543.237	17.15
543.36	1.15
543.483	27.15
543.606	5.15
543.73	25.15
543.853	11.15
543.976	16.15
544.099	17.15
544.222	4.15
544.345	-15.85
544.468	8.15
544.591	9.15
544.714	-0.85
544.837	32.15
544.96	6.15
545.083	17.15
545.206	1.15
545.329	11.15
545.453	12.15
545.576	-5.85
545.699	1.15
545.822	21.15
545.945	2.15
546.068	8.15
546.191	-2.85
546.314	22.15
546.437	5.15
546.56	14.15
546.683	12.15
546.806	26.15
546.929	10.15
547.052	-5.85
547.175	-0.85
547.298	22.15
547.421	-16.85
547.544	-7.85
547.667	8.15
547.79	15.15
547.913	3.15
548.036	1.15
548.159	4.15
548.282	-6.85
548.405	6.15
548.528	22.15
548.651	-2.85
548.774	15.15
548.897	27.15
549.02	19.15
549.143	18.15
549.266	4.15
549.389	-0.85
549.512	-6.85
549.635	30.15
549.758	6.15
549.881	-12.85
550.004	5.15
550.127	-2.85
550.25	13.15
550.373	-0.85
550.496	4.15
550.619	-1.85
550.742	5.15
550.865	-8.85
550.988	14.15
551.111	14.15
551.234	15.15
551.356	-17.85
551.479	5.15
551.602	-5.85
551.725	18.15
551.848	19.15
551.971	16.15
552.094	7.15
552.217	-1.85
552.34	8.15
552.463	-14.85
552.586	-2.85
552.709	2.15
552.832	8.15
552.955	13.15
553.077	16.15
553.2	7.15
553.323	-18.85
553.446	13.15
553.569	-6.85
553.692	8.15
553.815	19.15
553.938	20.15
554.061	25.15
554.184	18.15
554.306	8.15
554.429	7.15
554.552	8.15
554.675	3.15
554.798	13.15
554.921	25.15
555.044	6.15
555.167	7.15
555.29	-0.85
555.412	11.15
555.535	16.15
555.658	-4.85
555.781	7.15
555.904	21.15
556.027	14.15
556.15	8.15
556.272	-6.85
556.395	20.15
556.518	5.15
556.641	21.15
556.764	20.15
556.887	29.15
557.01	4.15
557.132	-3.85
557.255	3.15
557.378	6.15
557.501	10.15
557.624	25.15
557.747	16.15
557.869	7.15
557.992	8.15
558.115	7.15
558.238	-1.85
558.361	9.15
558.483	24.15
558.606	3.15
558.729	13.15
558.852	15.15
558.975	16.15
559.098	6.15
559.22	19.15
559.343	-16.85
559.466	12.15
559.589	17.15
559.712	13.15
559.834	8.15
559.957	15.15
560.08	5.15
560.203	24.15
560.325	31.15
560.448	34.15
560.571	-0.85
560.694	13.15
560.817	21.15
560.939	-3.85
561.062	8.15
561.185	28.15
561.308	5.15
561.43	-3.85
561.553	0.15
561.676	6.15
561.799	-4.85
561.921	-6.85
562.044	22.15
562.167	1.15
562.29	15.15
562.413	17.15
562.535	17.15
562.658	-0.85
562.781	-12.85
562.903	16.15
563.026	8.15
563.149	15.15
563.272	11.15
563.394	12.15
563.517	-0.85
563.64	0.15
563.763	12.15
563.885	14.15
564.008	15.15
564.131	12.15
564.254	1.15
564.376	23.15
564.499	-4.85
564.622	-16.85
564.744	17.15
564.867	-7.85
564.99	-17.85
565.113	-14.85
565.235	5.15
565.358	0.15
565.481	-9.85
565.603	-10.85
565.726	-23.85
565.849	1.15
565.971	19.15
566.094	-8.85
566.217	6.15
566.34	-2.85
566.462	-11.85
566.585	-9.85
566.708	19.15
566.83	-3.85
566.953	33.15
567.076	9.15
567.198	7.15
567.321	-20.85
567.444	4.15
567.566	-3.85
567.689	-9.85
567.812	-27.85
567.934	13.15
568.057	-0.85
568.18	14.15
568.302	7.15
568.425	1.15
568.548	9.15
568.67	7.15
568.793	-7.85
568.916	11.15
569.038	4.15
569.161	9.15
569.283	2.15
569.406	2.15
569.529	9.15
569.651	3.15
569.774	-4.85
569.897	8.15
570.019	20.15
570.142	5.15
570.265	26.15
570.387	18.15
570.51	9.15
570.632	13.15
570.755	1.15
570.878	8.15
571	10.15
571.123	9.15
571.246	2.15
571.368	-12.85
571.491	6.15
571.613	-6.85
571.736	-11.85
571.859	-10.85
571.981	-1.85
572.104	-5.85
572.226	12.15
572.349	-3.85
572.472	19.15
572.594	13.15
572.717	1.15
572.839	-0.85
572.962	14.15
573.085	15.15
573.207	8.15
573.33	10.15
573.452	14.15
573.575	25.15
573.697	2.15
573.82	7.15
573.943	-7.85
574.065	6.15
574.188	-0.85
574.31	7.15
574.433	12.15
574.555	14.15
574.678	14.15
574.801	15.15
574.923	0.15
575.046	9.15
575.168	1.15
575.291	4.15
575.413	-4.85
575.536	-12.85
575.659	3.15
575.781	-2.85
575.904	-0.85
576.026	8.15
576.149	-4.85
576.271	17.15
576.394	4.15
576.516	16.15
576.639	10.15
576.761	3.15
576.884	-19.85
577.007	-16.85
577.129	5.15
577.252	6.15
577.374	28.15
577.497	0.15
577.619	-0.85
577.742	-6.85
577.864	9.15
577.987	15.15
578.109	5.15
578.232	14.15
578.354	11.15
578.477	1.15
578.599	7.15
578.722	7.15
578.844	-1.85
578.967	6.15
579.089	3.15
579.212	-1.85
579.334	29.15
579.457	5.15
579.579	-6.85
579.702	-11.85
579.824	-9.85
579.947	-0.85
580.069	-8.85
580.192	-6.85
580.314	11.15
580.437	5.15
580.559	31.15
580.682	2.15
580.804	27.15
580.927	27.15
581.049	33.15
581.172	19.15
581.294	32.15
581.417	21.15
581.539	13.15
581.662	15.15
581.784	25.15
581.907	17.15
582.029	28.15
582.152	-13.85
582.274	35.15
582.396	8.15
582.519	21.15
582.641	-8.85
582.764	-4.85
582.886	17.15
583.009	-11.85
583.131	-2.85
583.254	1.15
583.376	25.15
583.499	25.15
583.621	5.15
583.743	10.15
583.866	11.15
583.988	15.15
584.111	8.15
584.233	10.15
584.356	14.15
584.478	0.15
584.601	-16.85
584.723	-7.85
584.845	19.15
584.968	-10.85
585.09	-15.85
585.213	0.15
585.335	2.15
585.458	-8.85
585.58	-9.85
585.702	13.15
585.825	7.15
585.947	-0.85
586.07	-0.85
586.192	-9.85
586.315	26.15
586.437	-11.85
586.559	8.15
586.682	14.15
586.804	11.15
586.927	18.15
587.049	7.15
587.171	12.15
587.294	14.15
587.416	17.15
587.539	3.15
587.661	-11.85
587.783	-22.85
587.906	4.15
588.028	25.15
588.151	13.15
588.273	28.15
588.395	5.15
588.518	5.15
588.64	-5.85
588.763	4.15
588.885	4.15
589.007	24.15
589.13	-7.85
589.252	-17.85
589.375	13.15
589.497	7.15
589.619	17.15
589.742	3.15
589.864	4.15
589.986	11.15
590.109	-6.85
590.231	-11.85
590.354	4.15
590.476	-7.85
590.598	0.15
590.721	5.15
590.843	6.15
590.965	7.15
591.088	8.15
591.21	6.15
591.332	1.15
591.455	0.15
591.577	-11.85
591.7	4.15
591.822	37.15
591.944	9.15
592.067	8.15
592.189	4.15
592.311	-0.85
592.434	3.15
592.556	14.15
592.678	20.15
592.801	-4.85
592.923	6.15
593.045	11.15
593.168	11.15
593.29	17.15
593.412	-2.85
593.535	-3.85
593.657	6.15
593.779	2.15
593.902	9.15
594.024	13.15
594.146	22.15
594.269	14.15
594.391	-3.85
594.513	-0.85
594.636	13.15
594.758	-0.85
594.88	17.15
595.003	-0.85
595.125	-5.85
595.247	14.15
595.37	16.15
595.492	4.15
595.614	20.15
595.737	2.15
595.859	2.15
595.981	4.15
596.104	-0.85
596.226	3.15
596.348	-3.85
596.471	-9.85
596.593	0.15
596.715	-3.85
596.838	5.15
596.96	-3.85
597.082	14.15
597.204	2.15
597.327	14.15
597.449	11.15
597.571	3.15
597.694	25.15
597.816	5.15
597.938	2.15
598.061	2.15
598.183	1.15
598.305	14.15
598.427	8.15
598.55	11.15
598.672	1.15
598.794	15.15
598.917	6.15
599.039	22.15
599.161	11.15
599.283	6.15
599.406	29.15
599.528	15.15
599.65	39.15
599.773	-11.85
599.895	13.15
600.017	25.15
600.139	2.15
600.262	8.15
600.384	6.15
600.506	2.15
600.628	27.15
600.751	19.15
600.873	9.15
600.995	11.15
601.118	6.15
601.24	11.15
601.362	12.15
601.484	12.15
601.607	15.15
601.729	-4.85
601.851	-6.85
601.973	25.15
602.096	25.15
602.218	19.15
602.34	15.15
602.462	32.15
602.585	-6.85
602.707	-10.85
602.829	21.15
602.951	15.15
603.074	-7.85
603.196	-1.85
603.318	17.15
603.44	20.15
603.563	8.15
603.685	-7.85
603.807	15.15
603.929	3.15
604.052	19.15
604.174	24.15
604.296	8.15
604.418	16.15
604.541	17.15
604.663	-3.85
604.785	12.15
604.907	9.15
605.03	-2.85
605.152	45.15
605.274	0.15
605.396	-4.85
605.519	4.15
605.641	9.15
605.763	5.15
605.885	9.15
606.008	-4.85
606.13	20.15
606.252	7.15
606.374	-5.85
606.496	3.15
606.619	24.15
606.741	6.15
606.863	33.15
606.985	32.15
607.108	20.15
607.23	-4.85
607.352	4.15
607.474	11.15
607.596	17.15
607.719	13.15
607.841	25.15
607.963	-1.85
608.085	15.15
608.207	38.15
608.33	16.15
608.452	0.15
608.574	-3.85
608.696	36.15
608.819	11.15
608.941	1.15
609.063	-6.85
609.185	0.15
609.307	7.15
609.43	16.15
609.552	12.15
609.674	-3.85
609.796	18.15
609.918	27.15
610.041	8.15
610.163	14.15
610.285	-1.85
610.407	-0.85
610.529	-16.85
610.652	-0.85
610.774	16.15
610.896	-9.85
611.018	9.15
611.14	15.15
611.263	2.15
611.385	-9.85
611.507	-7.85
611.629	3.15
611.751	10.15
611.873	9.15
611.996	13.15
612.118	8.15
612.24	4.15
612.362	3.15
612.484	33.15
612.607	11.15
612.729	19.15
612.851	3.15
612.973	-0.85
613.095	3.15
613.218	11.15
613.34	34.15
613.462	10.15
613.584	6.15
613.706	-4.85
613.828	21.15
613.951	15.15
614.073	1.15
614.195	-9.85
614.317	31.15
614.439	16.15
614.561	3.15
614.684	1.15
614.806	-4.85
614.928	13.15
615.05	12.15
615.172	14.15
615.294	10.15
615.417	1.15
615.539	5.15
615.661	-3.85
615.783	30.15
615.905	19.15
616.027	58.15
616.15	97.15
616.272	71.15
616.394	49.15
616.516	27.15
616.638	18.15
616.76	1.15
616.883	9.15
617.005	0.15
617.127	-0.85
617.249	6.15
617.371	4.15
617.493	13.15
617.615	7.15
617.738	11.15
617.86	22.15
617.982	11.15
618.104	8.15
618.226	-16.85
618.348	-3.85
618.471	9.15
618.593	9.15
618.715	-2.85
618.837	13.15
618.959	7.15
619.081	18.15
619.203	3.15
619.326	18.15
619.448	2.15
619.57	13.15
619.692	7.15
619.814	9.15
619.936	17.15
620.058	14.15
620.181	14.15
620.303	6.15
620.425	4.15
620.547	7.15
620.669	7.15
620.791	19.15
620.913	-15.85
621.036	-0.85
621.158	19.15
621.28	0.15
621.402	4.15
621.524	-3.85
621.646	-1.85
621.768	-0.85
621.891	-11.85
622.013	-7.85
622.135	-10.85
622.257	8.15
622.379	3.15
622.501	8.15
622.623	8.15
622.745	9.15
622.868	5.15
622.99	-6.85
623.112	3.15
623.234	-14.85
623.356	-3.85
623.478	1.15
623.6	-3.85
623.722	7.15
623.845	18.15
623.967	-1.85
624.089	12.15
624.211	8.15
624.333	22.15
624.455	15.15
624.577	-9.85
624.699	20.15
624.822	9.15
624.944	-2.85
625.066	11.15
625.188	-4.85
625.31	-0.85
625.432	16.15
625.554	8.15
625.676	34.15
625.799	8.15
625.921	-0.85
626.043	7.15
626.165	6.15
626.287	-25.85
626.409	14.15
626.531	1.15
626.653	8.15
626.775	17.15
626.898	5.15
627.02	10.15
627.142	15.15
627.264	15.15
627.386	-13.85
627.508	13.15
627.63	17.15
627.752	22.15
627.874	3.15
627.997	3.15
628.119	31.15
628.241	8.15
628.363	24.15
628.485	5.15
628.607	-15.85
628.729	-6.85
628.851	5.15
628.973	0.15
629.096	1.15
629.218	7.15
629.34	12.15
629.462	7.15
629.584	8.15
629.706	0.15
629.828	31.15
629.95	13.15
630.072	3.15
630.195	-11.85
630.317	9.15
630.439	-15.85
630.561	20.15
630.683	7.15
630.805	8.15
630.927	22.15
631.049	6.15
631.171	-0.85
631.293	17.15
631.416	12.15
631.538	13.15
631.66	1.15
631.782	8.15
631.904	14.15
632.026	6.15
632.148	12.15
632.27	2.15
632.392	8.15
632.514	15.15
632.637	21.15
632.759	12.15
632.881	5.15
633.003	3.15
633.125	-8.85
633.247	-1.85
633.369	2.15
633.491	15.15
633.613	24.15
633.735	13.15
633.858	31.15
633.98	15.15
634.102	5.15
634.224	7.15
634.346	9.15
634.468	8.15
634.59	3.15
634.712	7.15
634.834	9.15
634.956	-4.85
635.078	-2.85
635.201	-16.85
635.323	10.15
635.445	-0.85
635.567	-1.85
635.689	21.15
635.811	23.15
635.933	25.15
636.055	1.15
636.177	-4.85
636.299	12.15
636.421	14.15
636.544	-5.85
636.666	6.15
636.788	18.15
636.91	27.15
637.032	2.15
637.154	3.15
637.276	36.15
637.398	24.15
637.52	25.15
637.642	3.15
637.764	1.15
637.887	5.15
638.009	-1.85
638.131	9.15
638.253	7.15
638.375	2.15
638.497	11.15
638.619	-4.85
638.741	-8.85
638.863	-4.85
638.985	-11.85
639.107	1.15
639.23	3.15
639.352	29.15
639.474	19.15
639.596	9.15
639.718	4.15
639.84	7.15
639.962	8.15
640.084	-0.85
640.206	17.15
640.328	-16.85
640.45	0.15
640.573	1.15
640.695	1.15
640.817	22.15
640.939	0.15
641.061	7.15
641.183	6.15
641.305	10.15
641.427	-1.85
641.549	15.15
641.671	1.15
641.793	3.15
641.915	28.15
642.038	18.15
642.16	12.15
642.282	3.15
642.404	11.15
642.526	8.15
642.648	15.15
642.77	9.15
642.892	5.15
643.014	35.15
643.136	1.15
643.258	3.15
643.381	9.15
643.503	11.15
643.625	2.15
643.747	5.15
643.869	7.15
643.991	9.15
644.113	-6.85
644.235	14.15
644.357	10.15
644.479	12.15
644.601	1.15
644.723	2.15
644.846	4.15
644.968	8.15
645.09	6.15
645.212	5.15
645.334	5.15
645.456	12.15
645.578	18.15
645.7	19.15
645.822	14.15
645.944	20.15
646.066	21.15
646.188	4.15
646.311	35.15
646.433	4.15
646.555	40.15
646.677	45.15
646.799	36.15
646.921	19.15
647.043	24.15
647.165	-3.85
647.287	18.15
647.409	6.15
647.531	9.15
647.654	-3.85
647.776	19.15
647.898	21.15
648.02	-6.85
648.142	-13.85
648.264	5.15
648.386	0.15
648.508	17.15
648.63	-6.85
648.752	-5.85
648.874	5.15
648.997	-7.85
649.119	14.15
649.241	8.15
649.363	26.15
649.485	21.15
649.607	0.15
649.729	-11.85
649.851	-4.85
649.973	19.15
650.095	11.15
650.217	-12.85
650.34	-14.85
650.462	16.15
650.584	9.15
650.706	4.15
650.828	11.15
650.95	-20.85
651.072	-5.85
651.194	2.15
651.316	6.15
651.438	-3.85
651.56	-9.85
651.683	-13.85
651.805	3.15
651.927	17.15
652.049	-4.85
652.171	5.15
652.293	4.15
652.415	0.15
652.537	2.15
652.659	8.15
652.781	-0.85
652.903	7.15
653.026	31.15
653.148	28.15
653.27	12.15
653.392	17.15
653.514	8.15
653.636	9.15
653.758	19.15
653.88	3.15
654.002	6.15
654.124	2.15
654.247	-6.85
654.369	33.15
654.491	19.15
654.613	15.15
654.735	6.15
654.857	16.15
654.979	10.15
655.101	32.15
655.223	54.15
655.345	36.15
655.468	34.15
655.59	22.15
655.712	27.15
655.834	24.15
655.956	24.15
656.078	12.15
656.2	31.15
656.322	41.15
656.444	21.15
656.566	46.15
656.689	54.15
656.811	63.15
656.933	85.15
657.055	109.15
657.177	151.15
657.299	239.15
657.421	499.15
657.543	1960.15
657.665	12767.15
657.787	15191.15
657.91	15380.15
658.032	15658.15
658.154	4814.15
658.276	4870.15
658.398	1421.15
658.52	1118.15
658.642	513.15
658.764	633.15
658.886	300.15
659.009	422.15
659.131	239.15
659.253	328.15
659.375	183.15
659.497	249.15
659.619	132.15
659.741	196.15
659.863	117.15
659.985	187.15
660.108	100.15
660.23	149.15
660.352	82.15
660.474	169.15
660.596	85.15
660.718	123.15
660.84	67.15
660.962	147.15
661.084	68.15
661.207	113.15
661.329	65.15
661.451	97.15
661.573	57.15
661.695	102.15
661.817	53.15
661.939	88.15
662.061	64.15
662.184	72.15
662.306	43.15
662.428	75.15
662.55	50.15
662.672	53.15
662.794	14.15
662.916	67.15
663.038	9.15
663.161	70.15
663.283	27.15
663.405	69.15
663.527	45.15
663.649	56.15
663.771	23.15
663.893	69.15
664.015	43.15
664.138	48.15
664.26	27.15
664.382	41.15
664.504	23.15
664.626	42.15
664.748	24.15
664.87	37.15
664.992	34.15
665.115	43.15
665.237	16.15
665.359	22.15
665.481	28.15
665.603	43.15
665.725	24.15
665.847	19.15
665.97	11.15
666.092	31.15
666.214	50.15
666.336	42.15
666.458	56.15
666.58	37.15
666.702	14.15
666.825	25.15
666.947	-19.85
667.069	25.15
667.191	9.15
667.313	45.15
667.435	-2.85
667.557	29.15
667.68	19.15
667.802	15.15
667.924	11.15
668.046	21.15
668.168	6.15
668.29	31.15
668.412	26.15
668.535	19.15
668.657	6.15
668.779	16.15
668.901	13.15
669.023	42.15
669.145	13.15
669.267	19.15
669.39	20.15
669.512	23.15
669.634	-1.85
669.756	15.15
669.878	25.15
670	20.15
670.123	14.15
670.245	39.15
670.367	23.15
670.489	26.15
670.611	9.15
670.733	21.15
670.856	7.15
670.978	29.15
671.1	22.15
671.222	35.15
671.344	9.15
671.466	3.15
671.589	12.15
671.711	5.15
671.833	-4.85
671.955	36.15
672.077	8.15
672.199	39.15
672.322	34.15
672.444	13.15
672.566	15.15
672.688	21.15
672.81	11.15
672.932	20.15
673.055	7.15
673.177	11.15
673.299	7.15
673.421	0.15
673.543	6.15
673.665	32.15
673.788	18.15
673.91	17.15
674.032	-15.85
674.154	14.15
674.276	11.15
674.399	-4.85
674.521	11.15
674.643	11.15
674.765	11.15
674.887	7.15
675.009	3.15
675.132	17.15
675.254	-4.85
675.376	14.15
675.498	1.15
675.62	20.15
675.743	9.15
675.865	34.15
675.987	7.15
676.109	11.15
676.231	11.15
676.354	32.15
676.476	-14.85
676.598	20.15
676.72	6.15
676.842	18.15
676.965	13.15
677.087	13.15
677.209	16.15
677.331	14.15
677.453	-0.85
677.576	2.15
677.698	8.15
677.82	19.15
677.942	4.15
678.064	-8.85
678.187	13.15
678.309	9.15
678.431	4.15
678.553	-1.85
678.675	14.15
678.798	18.15
678.92	15.15
679.042	10.15
679.164	-20.85
679.286	25.15
679.409	9.15
679.531	11.15
679.653	8.15
679.775	11.15
679.898	-5.85
680.02	-0.85
680.142	-6.85
680.264	22.15
680.386	-1.85
680.509	13.15
680.631	2.15
680.753	8.15
680.875	4.15
680.998	17.15
681.12	4.15
681.242	17.15
681.364	-8.85
681.486	13.15
681.609	9.15
681.731	-17.85
681.853	4.15
681.975	-9.85
682.098	17.15
682.22	23.15
682.342	-2.85
682.464	24.15
682.587	2.15
682.709	5.15
682.831	5.15
682.953	3.15
683.076	0.15
683.198	30.15
683.32	24.15
683.442	21.15
683.565	12.15
683.687	0.15
683.809	-2.85
683.931	-11.85
684.054	18.15
684.176	20.15
684.298	18.15
684.42	-11.85
684.543	12.15
684.665	11.15
684.787	-4.85
684.909	9.15
685.032	8.15
685.154	-9.85
685.276	-1.85
685.398	10.15
685.521	7.15
685.643	15.15
685.765	16.15
685.887	-7.85
686.01	2.15
686.132	0.15
686.254	15.15
686.377	24.15
686.499	9.15
686.621	13.15
686.743	14.15
686.866	6.15
686.988	24.15
687.11	6.15
687.232	-7.85
687.355	13.15
687.477	-4.85
687.599	11.15
687.722	11.15
687.844	10.15
687.966	2.15
688.088	2.15
688.211	32.15
688.333	18.15
688.455	-2.85
688.578	24.15
688.7	2.15
688.822	11.15
688.944	3.15
689.067	33.15
689.189	8.15
689.311	-4.85
689.434	-10.85
689.556	13.15
689.678	2.15
689.801	16.15
689.923	11.15
690.045	36.15
690.167	31.15
690.29	30.15
690.412	-10.85
690.534	7.15
690.657	-6.85
690.779	3.15
690.901	14.15
691.024	4.15
691.146	11.15
691.268	-2.85
691.391	8.15
691.513	12.15
691.635	7.15
691.758	12.15
691.88	21.15
692.002	-3.85
692.125	9.15
692.247	9.15
692.369	3.15
692.492	3.15
692.614	12.15
692.736	3.15
692.859	-0.85
692.981	13.15
693.103	-4.85
693.226	-4.85
693.348	8.15
693.47	1.15
693.593	-1.85
693.715	-13.85
693.837	-16.85
693.96	-12.85
694.082	-5.85
694.204	3.15
694.327	5.15
694.449	-13.85
694.571	-11.85
694.694	9.15
694.816	11.15
694.938	-3.85
695.061	-0.85
695.183	7.15
695.305	-8.85
695.428	29.15
695.55	7.15
695.672	-1.85
695.795	17.15
695.917	33.15
696.04	4.15
696.162	-1.85
696.284	16.15
696.407	20.15
696.529	6.15
696.651	18.15
696.774	7.15
696.896	18.15
697.019	15.15
697.141	7.15
697.263	-4.85
697.386	-8.85
697.508	-2.85
697.63	10.15
697.753	7.15
697.875	13.15
697.998	-9.85
698.12	5.15
698.242	1.15
698.365	7.15
698.487	-4.85
698.61	-3.85
698.732	-3.85
698.854	-8.85
698.977	-2.85
699.099	20.15
699.221	-2.85
699.344	-1.85
699.466	2.15
699.589	5.15
699.711	-9.85
699.834	18.15
699.956	-1.85
700.078	5.15
700.201	0.15
700.323	28.15
700.446	9.15
700.568	8.15
700.69	8.15
700.813	16.15
700.935	9.15
701.058	-2.85
701.18	-5.85
701.302	11.15
701.425	-2.85
701.547	-0.85
701.67	5.15
701.792	2.15
701.915	-15.85
702.037	-19.85
702.159	7.15
702.282	24.15
702.404	7.15
702.527	9.15
702.649	23.15
702.772	7.15
702.894	-0.85
703.017	15.15
703.139	9.15
703.261	12.15
703.384	27.15
703.506	-1.85
703.629	-3.85
703.751	5.15
703.874	-7.85
703.996	-5.85
704.119	3.15
704.241	0.15
704.364	-8.85
704.486	3.15
704.608	9.15
704.731	6.15
704.853	9.15
704.976	-3.85
705.098	11.15
705.221	-4.85
705.343	7.15
705.466	11.15
705.588	12.15
705.711	12.15
705.833	12.15
705.956	7.15
706.078	12.15
706.201	1.15
706.323	8.15
706.446	4.15
