Data from LowRes_H2_15_26_11_07_2024_HR4C61881__20__15-28-15-637.txt Node

Date: Thu Nov 07 15:28:15 EST 2024
User: crc00042
Spectrometer: HR4C6188
Trigger mode: 4
Integration Time (sec): 1.000000E-1
Scans to average: 1
Electric dark correction enabled: true
Nonlinearity correction enabled: false
Boxcar width: 0
XAxis mode: Wavelengths
Number of Pixels in Spectrum: 3648
>>>>>Begin Spectral Data<<<<<
245.66	-122.85
245.797	-122.85
245.934	-122.85
246.071	-83.85
246.208	-10.85
246.344	-7.85
246.481	-12.85
246.618	-9.85
246.755	30.15
246.892	6.15
247.029	-14.85
247.165	-5.85
247.302	17.15
247.439	-3.85
247.576	17.15
247.713	-9.85
247.849	13.15
247.986	-18.85
248.123	9.15
248.26	-11.85
248.396	5.15
248.533	-2.85
248.67	2.15
248.806	19.15
248.943	-1.85
249.08	-5.85
249.216	5.15
249.353	2.15
249.49	-1.85
249.626	5.15
249.763	6.15
249.9	-15.85
250.036	-0.85
250.173	-0.85
250.309	7.15
250.446	-5.85
250.582	-15.85
250.719	-7.85
250.856	4.15
250.992	-11.85
251.129	-2.85
251.265	-20.85
251.402	6.15
251.538	11.15
251.675	3.15
251.811	30.15
251.948	21.15
252.084	14.15
252.221	3.15
252.357	-1.85
252.493	32.15
252.63	-13.85
252.766	12.15
252.903	-3.85
253.039	2.15
253.175	-8.85
253.312	5.15
253.448	-9.85
253.585	-28.85
253.721	18.15
253.857	-1.85
253.994	21.15
254.13	2.15
254.266	7.15
254.403	-13.85
254.539	-0.85
254.675	24.15
254.811	16.15
254.948	15.15
255.084	8.15
255.22	-10.85
255.356	-8.85
255.493	21.15
255.629	13.15
255.765	12.15
255.901	22.15
256.037	3.15
256.174	1.15
256.31	-8.85
256.446	3.15
256.582	4.15
256.718	8.15
256.854	19.15
256.991	-2.85
257.127	15.15
257.263	-4.85
257.399	-12.85
257.535	-13.85
257.671	-3.85
257.807	-0.85
257.943	-2.85
258.079	-24.85
258.215	11.15
258.351	9.15
258.487	20.15
258.623	39.15
258.759	-2.85
258.895	4.15
259.031	4.15
259.167	-19.85
259.303	-2.85
259.439	3.15
259.575	4.15
259.711	-5.85
259.847	-17.85
259.983	16.15
260.119	1.15
260.255	7.15
260.391	8.15
260.527	17.15
260.663	29.15
260.799	7.15
260.934	-2.85
261.07	-10.85
261.206	-3.85
261.342	3.15
261.478	21.15
261.614	20.15
261.749	2.15
261.885	-3.85
262.021	-2.85
262.157	12.15
262.293	-15.85
262.428	0.15
262.564	3.15
262.7	21.15
262.836	6.15
262.971	17.15
263.107	4.15
263.243	10.15
263.378	-7.85
263.514	-7.85
263.65	5.15
263.785	-3.85
263.921	-2.85
264.057	0.15
264.192	18.15
264.328	25.15
264.464	11.15
264.599	8.15
264.735	29.15
264.871	6.15
265.006	-0.85
265.142	-4.85
265.277	-14.85
265.413	2.15
265.548	13.15
265.684	15.15
265.819	14.15
265.955	-9.85
266.091	8.15
266.226	-11.85
266.362	-6.85
266.497	23.15
266.633	-7.85
266.768	-7.85
266.903	4.15
267.039	20.15
267.174	17.15
267.31	0.15
267.445	-0.85
267.581	1.15
267.716	3.15
267.851	11.15
267.987	9.15
268.122	-0.85
268.258	10.15
268.393	-7.85
268.528	16.15
268.664	-4.85
268.799	-21.85
268.934	-24.85
269.07	-16.85
269.205	-11.85
269.34	7.15
269.476	1.15
269.611	-13.85
269.746	13.15
269.881	12.15
270.017	18.15
270.152	-7.85
270.287	3.15
270.422	7.15
270.558	13.15
270.693	18.15
270.828	5.15
270.963	-16.85
271.098	-4.85
271.234	-10.85
271.369	23.15
271.504	5.15
271.639	-12.85
271.774	-10.85
271.909	0.15
272.045	-20.85
272.18	-6.85
272.315	-12.85
272.45	5.15
272.585	1.15
272.72	-14.85
272.855	-4.85
272.99	17.15
273.125	-4.85
273.26	1.15
273.395	-13.85
273.53	-23.85
273.665	1.15
273.8	4.15
273.935	4.15
274.07	-9.85
274.205	6.15
274.34	13.15
274.475	-4.85
274.61	5.15
274.745	-17.85
274.88	14.15
275.015	-20.85
275.15	9.15
275.285	10.15
275.42	7.15
275.555	22.15
275.69	7.15
275.825	11.15
275.959	34.15
276.094	1.15
276.229	-6.85
276.364	0.15
276.499	-4.85
276.634	3.15
276.768	-11.85
276.903	-5.85
277.038	10.15
277.173	1.15
277.308	-11.85
277.442	-5.85
277.577	-18.85
277.712	-5.85
277.847	8.15
277.981	2.15
278.116	-4.85
278.251	27.15
278.386	3.15
278.52	4.15
278.655	17.15
278.79	21.15
278.924	12.15
279.059	16.15
279.194	-7.85
279.328	37.15
279.463	8.15
279.598	12.15
279.732	5.15
279.867	16.15
280.001	14.15
280.136	2.15
280.271	25.15
280.405	3.15
280.54	-9.85
280.674	-12.85
280.809	15.15
280.943	6.15
281.078	0.15
281.213	19.15
281.347	9.15
281.482	-10.85
281.616	-1.85
281.751	-3.85
281.885	-16.85
282.02	-5.85
282.154	-0.85
282.288	-17.85
282.423	-22.85
282.557	-16.85
282.692	-8.85
282.826	3.15
282.961	8.15
283.095	11.15
283.229	12.15
283.364	4.15
283.498	-3.85
283.633	10.15
283.767	1.15
283.901	10.15
284.036	12.15
284.17	10.15
284.304	-0.85
284.439	0.15
284.573	-5.85
284.707	15.15
284.842	17.15
284.976	5.15
285.11	-14.85
285.244	-3.85
285.379	27.15
285.513	-3.85
285.647	19.15
285.781	21.15
285.916	19.15
286.05	-3.85
286.184	31.15
286.318	26.15
286.453	-7.85
286.587	1.15
286.721	-3.85
286.855	0.15
286.989	0.15
287.123	-5.85
287.258	-12.85
287.392	17.15
287.526	5.15
287.66	1.15
287.794	-6.85
287.928	2.15
288.062	-3.85
288.196	-11.85
288.33	-5.85
288.464	13.15
288.598	5.15
288.733	2.15
288.867	32.15
289.001	11.15
289.135	1.15
289.269	-17.85
289.403	-7.85
289.537	8.15
289.671	16.15
289.805	-22.85
289.939	-8.85
290.073	-4.85
290.207	10.15
290.34	-16.85
290.474	0.15
290.608	30.15
290.742	13.15
290.876	-12.85
291.01	-3.85
291.144	34.15
291.278	11.15
291.412	12.15
291.546	4.15
291.679	-3.85
291.813	12.15
291.947	-3.85
292.081	-9.85
292.215	-5.85
292.349	16.15
292.482	3.15
292.616	0.15
292.75	15.15
292.884	14.15
293.018	-3.85
293.151	-10.85
293.285	11.15
293.419	-18.85
293.553	-5.85
293.686	-6.85
293.82	11.15
293.954	9.15
294.088	29.15
294.221	-6.85
294.355	3.15
294.489	8.15
294.622	-13.85
294.756	0.15
294.89	8.15
295.023	-6.85
295.157	7.15
295.291	18.15
295.424	20.15
295.558	1.15
295.691	1.15
295.825	-11.85
295.959	1.15
296.092	-11.85
296.226	8.15
296.359	-8.85
296.493	12.15
296.627	13.15
296.76	25.15
296.894	-23.85
297.027	21.15
297.161	15.15
297.294	-18.85
297.428	-2.85
297.561	22.15
297.695	-7.85
297.828	-5.85
297.962	-9.85
298.095	-20.85
298.229	5.15
298.362	-22.85
298.495	-19.85
298.629	-9.85
298.762	7.15
298.896	6.15
299.029	-4.85
299.162	2.15
299.296	3.15
299.429	12.15
299.563	21.15
299.696	2.15
299.829	1.15
299.963	9.15
300.096	-4.85
300.229	-9.85
300.363	1.15
300.496	-2.85
300.629	-23.85
300.763	3.15
300.896	-7.85
301.029	11.15
301.162	-7.85
301.296	-7.85
301.429	3.15
301.562	-19.85
301.695	1.15
301.829	16.15
301.962	24.15
302.095	9.15
302.228	-17.85
302.362	4.15
302.495	-26.85
302.628	-1.85
302.761	-12.85
302.894	8.15
303.027	11.15
303.161	-22.85
303.294	-13.85
303.427	0.15
303.56	-12.85
303.693	-1.85
303.826	4.15
303.959	10.15
304.092	6.15
304.225	-8.85
304.359	-2.85
304.492	8.15
304.625	-7.85
304.758	13.15
304.891	-19.85
305.024	-7.85
305.157	-7.85
305.29	-5.85
305.423	-9.85
305.556	18.15
305.689	27.15
305.822	-0.85
305.955	16.15
306.088	-5.85
306.221	-0.85
306.354	-19.85
306.487	-29.85
306.62	-32.85
306.752	11.15
306.885	12.15
307.018	6.15
307.151	-5.85
307.284	3.15
307.417	-4.85
307.55	8.15
307.683	9.15
307.816	20.15
307.948	22.15
308.081	17.15
308.214	16.15
308.347	17.15
308.48	5.15
308.613	-14.85
308.745	-8.85
308.878	-0.85
309.011	-10.85
309.144	4.15
309.277	1.15
309.409	21.15
309.542	-8.85
309.675	-0.85
309.808	9.15
309.94	4.15
310.073	-6.85
310.206	5.15
310.339	-0.85
310.471	-12.85
310.604	13.15
310.737	-6.85
310.869	-12.85
311.002	-11.85
311.135	4.15
311.267	-23.85
311.4	-13.85
311.533	19.15
311.665	-3.85
311.798	-3.85
311.93	-8.85
312.063	1.15
312.196	1.15
312.328	-0.85
312.461	-7.85
312.593	9.15
312.726	22.15
312.859	1.15
312.991	20.15
313.124	-18.85
313.256	18.15
313.389	13.15
313.521	-5.85
313.654	4.15
313.786	-9.85
313.919	-5.85
314.051	-0.85
314.184	7.15
314.316	12.15
314.449	-8.85
314.581	2.15
314.714	9.15
314.846	3.15
314.978	2.15
315.111	-6.85
315.243	23.15
315.376	-7.85
315.508	8.15
315.641	-5.85
315.773	31.15
315.905	21.15
316.038	-17.85
316.17	-2.85
316.302	5.15
316.435	-8.85
316.567	-6.85
316.699	25.15
316.832	-6.85
316.964	-8.85
317.096	5.15
317.229	-0.85
317.361	-14.85
317.493	-5.85
317.625	-22.85
317.758	-0.85
317.89	4.15
318.022	12.15
318.155	-6.85
318.287	-2.85
318.419	-2.85
318.551	3.15
318.683	6.15
318.816	-5.85
318.948	-8.85
319.08	-10.85
319.212	5.15
319.344	9.15
319.477	-0.85
319.609	9.15
319.741	11.15
319.873	-10.85
320.005	9.15
320.137	11.15
320.269	3.15
320.401	15.15
320.534	0.15
320.666	-13.85
320.798	-35.85
320.93	-15.85
321.062	-0.85
321.194	1.15
321.326	-1.85
321.458	24.15
321.59	9.15
321.722	-4.85
321.854	0.15
321.986	1.15
322.118	-1.85
322.25	-7.85
322.382	-3.85
322.514	-11.85
322.646	-18.85
322.778	22.15
322.91	-14.85
323.042	-4.85
323.174	-1.85
323.306	-6.85
323.438	-25.85
323.57	17.15
323.702	6.15
323.834	-1.85
323.966	-18.85
324.097	-4.85
324.229	20.15
324.361	24.15
324.493	2.15
324.625	-11.85
324.757	3.15
324.889	8.15
325.021	-6.85
325.152	15.15
325.284	11.15
325.416	6.15
325.548	17.15
325.68	1.15
325.811	29.15
325.943	9.15
326.075	-9.85
326.207	3.15
326.339	3.15
326.47	-0.85
326.602	4.15
326.734	5.15
326.866	8.15
326.997	-7.85
327.129	-12.85
327.261	-10.85
327.392	-2.85
327.524	-5.85
327.656	8.15
327.787	9.15
327.919	8.15
328.051	18.15
328.182	29.15
328.314	30.15
328.446	-0.85
328.577	9.15
328.709	7.15
328.841	-15.85
328.972	-8.85
329.104	-7.85
329.235	1.15
329.367	3.15
329.499	-13.85
329.63	-2.85
329.762	-6.85
329.893	21.15
330.025	-10.85
330.156	-19.85
330.288	-11.85
330.419	14.15
330.551	29.15
330.683	13.15
330.814	-1.85
330.946	19.15
331.077	-10.85
331.208	1.15
331.34	-6.85
331.471	-13.85
331.603	-18.85
331.734	-15.85
331.866	5.15
331.997	16.15
332.129	3.15
332.26	-11.85
332.392	11.15
332.523	2.15
332.654	1.15
332.786	-22.85
332.917	-1.85
333.048	9.15
333.18	18.15
333.311	-0.85
333.443	-7.85
333.574	-14.85
333.705	19.15
333.837	-12.85
333.968	5.15
334.099	16.15
334.231	26.15
334.362	1.15
334.493	26.15
334.624	17.15
334.756	13.15
334.887	4.15
335.018	6.15
335.15	-2.85
335.281	16.15
335.412	34.15
335.543	8.15
335.675	13.15
335.806	-13.85
335.937	8.15
336.068	1.15
336.199	24.15
336.331	-7.85
336.462	5.15
336.593	22.15
336.724	1.15
336.855	7.15
336.986	24.15
337.118	16.15
337.249	-2.85
337.38	6.15
337.511	-2.85
337.642	3.15
337.773	18.15
337.904	-15.85
338.035	0.15
338.166	11.15
338.298	13.15
338.429	-14.85
338.56	15.15
338.691	17.15
338.822	1.15
338.953	10.15
339.084	22.15
339.215	25.15
339.346	16.15
339.477	1.15
339.608	8.15
339.739	-2.85
339.87	8.15
340.001	3.15
340.132	27.15
340.263	-2.85
340.394	27.15
340.525	8.15
340.656	-3.85
340.787	-18.85
340.918	7.15
341.049	22.15
341.179	9.15
341.31	11.15
341.441	-4.85
341.572	9.15
341.703	7.15
341.834	-12.85
341.965	4.15
342.096	-4.85
342.227	19.15
342.357	7.15
342.488	14.15
342.619	23.15
342.75	13.15
342.881	-8.85
343.012	16.15
343.142	25.15
343.273	-10.85
343.404	9.15
343.535	56.15
343.666	8.15
343.796	0.15
343.927	9.15
344.058	20.15
344.189	-3.85
344.319	7.15
344.45	0.15
344.581	15.15
344.712	-13.85
344.842	-11.85
344.973	6.15
345.104	-5.85
345.234	13.15
345.365	-13.85
345.496	10.15
345.626	4.15
345.757	15.15
345.888	-18.85
346.018	10.15
346.149	-7.85
346.28	10.15
346.41	-16.85
346.541	-0.85
346.672	4.15
346.802	18.15
346.933	1.15
347.063	3.15
347.194	8.15
347.325	13.15
347.455	0.15
347.586	-2.85
347.716	-12.85
347.847	8.15
347.977	14.15
348.108	14.15
348.238	-16.85
348.369	-9.85
348.499	0.15
348.63	0.15
348.76	22.15
348.891	9.15
349.021	9.15
349.152	6.15
349.282	15.15
349.413	5.15
349.543	6.15
349.674	5.15
349.804	30.15
349.935	-5.85
350.065	9.15
350.196	-7.85
350.326	1.15
350.456	2.15
350.587	13.15
350.717	9.15
350.848	16.15
350.978	11.15
351.108	-18.85
351.239	-0.85
351.369	3.15
351.499	10.15
351.63	-4.85
351.76	-3.85
351.89	10.15
352.021	11.15
352.151	4.15
352.281	15.15
352.412	11.15
352.542	5.15
352.672	3.15
352.803	3.15
352.933	17.15
353.063	15.15
353.193	2.15
353.324	0.15
353.454	1.15
353.584	11.15
353.714	12.15
353.845	13.15
353.975	4.15
354.105	-21.85
354.235	10.15
354.365	4.15
354.496	-0.85
354.626	7.15
354.756	33.15
354.886	9.15
355.016	17.15
355.146	-15.85
355.277	13.15
355.407	-2.85
355.537	17.15
355.667	4.15
355.797	-2.85
355.927	-5.85
356.057	13.15
356.187	-2.85
356.318	-11.85
356.448	-6.85
356.578	-0.85
356.708	4.15
356.838	4.15
356.968	0.15
357.098	26.15
357.228	8.15
357.358	-2.85
357.488	-14.85
357.618	24.15
357.748	27.15
357.878	25.15
358.008	10.15
358.138	-2.85
358.268	-11.85
358.398	14.15
358.528	-18.85
358.658	19.15
358.788	16.15
358.918	21.15
359.048	-13.85
359.178	21.15
359.308	15.15
359.438	15.15
359.568	-2.85
359.698	2.15
359.827	-0.85
359.957	17.15
360.087	11.15
360.217	7.15
360.347	11.15
360.477	6.15
360.607	-9.85
360.737	16.15
360.866	6.15
360.996	-3.85
361.126	-8.85
361.256	20.15
361.386	1.15
361.516	11.15
361.645	-21.85
361.775	13.15
361.905	-15.85
362.035	10.15
362.165	8.15
362.294	24.15
362.424	-5.85
362.554	17.15
362.684	-1.85
362.813	1.15
362.943	5.15
363.073	3.15
363.203	-3.85
363.332	-8.85
363.462	-20.85
363.592	1.15
363.721	-10.85
363.851	-14.85
363.981	14.15
364.111	2.15
364.24	2.15
364.37	10.15
364.5	19.15
364.629	19.15
364.759	-20.85
364.888	-16.85
365.018	9.15
365.148	25.15
365.277	27.15
365.407	16.15
365.537	4.15
365.666	7.15
365.796	1.15
365.925	12.15
366.055	14.15
366.184	-13.85
366.314	-3.85
366.444	10.15
366.573	-2.85
366.703	-7.85
366.832	3.15
366.962	17.15
367.091	9.15
367.221	1.15
367.35	8.15
367.48	31.15
367.609	3.15
367.739	17.15
367.868	-7.85
367.998	1.15
368.127	10.15
368.257	-2.85
368.386	20.15
368.516	27.15
368.645	1.15
368.775	4.15
368.904	7.15
369.033	-4.85
369.163	-9.85
369.292	18.15
369.422	12.15
369.551	15.15
369.68	18.15
369.81	29.15
369.939	0.15
370.069	31.15
370.198	19.15
370.327	-6.85
370.457	-2.85
370.586	17.15
370.715	-4.85
370.845	9.15
370.974	4.15
371.103	4.15
371.233	4.15
371.362	3.15
371.491	-0.85
371.621	3.15
371.75	11.15
371.879	-7.85
372.008	6.15
372.138	-4.85
372.267	13.15
372.396	1.15
372.525	12.15
372.655	15.15
372.784	-0.85
372.913	3.15
373.042	9.15
373.172	27.15
373.301	-6.85
373.43	-4.85
373.559	-16.85
373.688	11.15
373.818	0.15
373.947	21.15
374.076	6.15
374.205	7.15
374.334	17.15
374.463	-2.85
374.593	10.15
374.722	23.15
374.851	32.15
374.98	-1.85
375.109	-14.85
375.238	24.15
375.367	40.15
375.496	-0.85
375.625	8.15
375.755	25.15
375.884	34.15
376.013	33.15
376.142	-2.85
376.271	17.15
376.4	5.15
376.529	8.15
376.658	-5.85
376.787	-1.85
376.916	12.15
377.045	-4.85
377.174	6.15
377.303	-11.85
377.432	17.15
377.561	13.15
377.69	6.15
377.819	35.15
377.948	23.15
378.077	-1.85
378.206	-18.85
378.335	1.15
378.464	1.15
378.593	18.15
378.722	-11.85
378.851	1.15
378.98	33.15
379.108	-3.85
379.237	-2.85
379.366	16.15
379.495	22.15
379.624	9.15
379.753	11.15
379.882	21.15
380.011	-21.85
380.14	-12.85
380.268	3.15
380.397	-2.85
380.526	19.15
380.655	5.15
380.784	-15.85
380.913	-10.85
381.041	-18.85
381.17	-24.85
381.299	-3.85
381.428	17.15
381.557	5.15
381.685	7.15
381.814	2.15
381.943	-6.85
382.072	-1.85
382.2	-5.85
382.329	11.15
382.458	-1.85
382.587	31.15
382.715	37.15
382.844	16.15
382.973	11.15
383.102	25.15
383.23	-10.85
383.359	12.15
383.488	17.15
383.616	-8.85
383.745	4.15
383.874	13.15
384.003	4.15
384.131	-7.85
384.26	-4.85
384.389	15.15
384.517	-12.85
384.646	-7.85
384.774	-5.85
384.903	-4.85
385.032	14.15
385.16	21.15
385.289	17.15
385.418	-14.85
385.546	10.15
385.675	25.15
385.803	3.15
385.932	1.15
386.06	-5.85
386.189	3.15
386.318	5.15
386.446	1.15
386.575	2.15
386.703	8.15
386.832	5.15
386.96	-15.85
387.089	10.15
387.217	11.15
387.346	1.15
387.474	18.15
387.603	7.15
387.731	11.15
387.86	17.15
387.988	0.15
388.117	26.15
388.245	12.15
388.374	-21.85
388.502	-5.85
388.631	-6.85
388.759	1.15
388.888	11.15
389.016	3.15
389.144	15.15
389.273	10.15
389.401	4.15
389.53	-17.85
389.658	23.15
389.786	-10.85
389.915	-11.85
390.043	-5.85
390.172	4.15
390.3	26.15
390.428	33.15
390.557	18.15
390.685	19.15
390.813	18.15
390.942	20.15
391.07	12.15
391.198	8.15
391.327	3.15
391.455	-12.85
391.583	22.15
391.712	6.15
391.84	15.15
391.968	9.15
392.096	-8.85
392.225	-11.85
392.353	-0.85
392.481	-3.85
392.609	17.15
392.738	-0.85
392.866	13.15
392.994	-8.85
393.122	23.15
393.251	5.15
393.379	1.15
393.507	-3.85
393.635	-7.85
393.764	11.15
393.892	18.15
394.02	4.15
394.148	-4.85
394.276	-8.85
394.404	23.15
394.533	-7.85
394.661	19.15
394.789	20.15
394.917	33.15
395.045	13.15
395.173	-3.85
395.302	14.15
395.43	13.15
395.558	28.15
395.686	21.15
395.814	24.15
395.942	12.15
396.07	-5.85
396.198	22.15
396.326	21.15
396.454	13.15
396.582	22.15
396.711	3.15
396.839	27.15
396.967	8.15
397.095	-0.85
397.223	10.15
397.351	18.15
397.479	28.15
397.607	18.15
397.735	2.15
397.863	19.15
397.991	19.15
398.119	-9.85
398.247	2.15
398.375	5.15
398.503	7.15
398.631	17.15
398.759	0.15
398.887	11.15
399.015	3.15
399.143	-0.85
399.271	-12.85
399.399	-0.85
399.526	20.15
399.654	20.15
399.782	-14.85
399.91	25.15
400.038	28.15
400.166	10.15
400.294	1.15
400.422	-2.85
400.55	8.15
400.678	27.15
400.805	16.15
400.933	3.15
401.061	25.15
401.189	0.15
401.317	3.15
401.445	12.15
401.573	30.15
401.7	8.15
401.828	-11.85
401.956	7.15
402.084	12.15
402.212	32.15
402.34	13.15
402.467	3.15
402.595	-6.85
402.723	10.15
402.851	28.15
402.978	2.15
403.106	21.15
403.234	7.15
403.362	12.15
403.489	17.15
403.617	8.15
403.745	-2.85
403.873	4.15
404	18.15
404.128	14.15
404.256	1.15
404.384	14.15
404.511	10.15
404.639	-5.85
404.767	-1.85
404.894	-0.85
405.022	11.15
405.15	23.15
405.277	-0.85
405.405	-12.85
405.533	-6.85
405.66	11.15
405.788	-7.85
405.916	-32.85
406.043	-18.85
406.171	-19.85
406.299	17.15
406.426	21.15
406.554	18.15
406.681	17.15
406.809	16.15
406.937	5.15
407.064	1.15
407.192	23.15
407.319	5.15
407.447	-3.85
407.574	38.15
407.702	7.15
407.83	4.15
407.957	-26.85
408.085	-11.85
408.212	-13.85
408.34	21.15
408.467	6.15
408.595	19.15
408.722	13.15
408.85	3.15
408.977	1.15
409.105	1.15
409.232	17.15
409.36	1.15
409.487	19.15
409.615	22.15
409.742	17.15
409.87	32.15
409.997	56.15
410.125	50.15
410.252	49.15
410.379	55.15
410.507	21.15
410.634	16.15
410.762	13.15
410.889	4.15
411.017	-4.85
411.144	29.15
411.271	0.15
411.399	3.15
411.526	22.15
411.653	32.15
411.781	26.15
411.908	7.15
412.036	-0.85
412.163	23.15
412.29	26.15
412.418	3.15
412.545	14.15
412.672	12.15
412.8	41.15
412.927	25.15
413.054	19.15
413.182	13.15
413.309	7.15
413.436	-15.85
413.564	-6.85
413.691	8.15
413.818	26.15
413.945	-0.85
414.073	10.15
414.2	32.15
414.327	6.15
414.454	2.15
414.582	14.15
414.709	-10.85
414.836	-2.85
414.963	1.15
415.091	-2.85
415.218	3.15
415.345	11.15
415.472	10.15
415.6	-9.85
415.727	17.15
415.854	8.15
415.981	8.15
416.108	3.15
416.236	5.15
416.363	17.15
416.49	-2.85
416.617	6.15
416.744	21.15
416.871	8.15
416.998	2.15
417.126	13.15
417.253	-9.85
417.38	-3.85
417.507	1.15
417.634	6.15
417.761	15.15
417.888	17.15
418.015	16.15
418.143	18.15
418.27	22.15
418.397	0.15
418.524	3.15
418.651	7.15
418.778	14.15
418.905	25.15
419.032	21.15
419.159	10.15
419.286	30.15
419.413	23.15
419.54	19.15
419.667	-18.85
419.794	-6.85
419.921	3.15
420.048	5.15
420.175	11.15
420.302	-15.85
420.429	8.15
420.556	-3.85
420.683	-6.85
420.81	6.15
420.937	11.15
421.064	16.15
421.191	-6.85
421.318	26.15
421.445	33.15
421.572	5.15
421.699	-1.85
421.826	17.15
421.953	8.15
422.08	-6.85
422.207	-2.85
422.334	1.15
422.461	23.15
422.588	0.15
422.714	23.15
422.841	15.15
422.968	23.15
423.095	6.15
423.222	11.15
423.349	10.15
423.476	25.15
423.603	5.15
423.729	5.15
423.856	15.15
423.983	12.15
424.11	-7.85
424.237	-2.85
424.364	6.15
424.491	4.15
424.617	3.15
424.744	-7.85
424.871	15.15
424.998	7.15
425.125	11.15
425.251	-4.85
425.378	-2.85
425.505	12.15
425.632	-1.85
425.758	-8.85
425.885	18.15
426.012	35.15
426.139	30.15
426.266	6.15
426.392	3.15
426.519	23.15
426.646	27.15
426.772	19.15
426.899	14.15
427.026	18.15
427.153	-6.85
427.279	21.15
427.406	13.15
427.533	13.15
427.659	7.15
427.786	-3.85
427.913	24.15
428.039	9.15
428.166	-4.85
428.293	1.15
428.419	26.15
428.546	0.15
428.673	-13.85
428.799	4.15
428.926	-2.85
429.053	8.15
429.179	3.15
429.306	17.15
429.433	42.15
429.559	27.15
429.686	-13.85
429.812	-10.85
429.939	9.15
430.066	13.15
430.192	0.15
430.319	9.15
430.445	4.15
430.572	22.15
430.699	0.15
430.825	-2.85
430.952	22.15
431.078	-3.85
431.205	28.15
431.331	21.15
431.458	15.15
431.584	12.15
431.711	3.15
431.837	5.15
431.964	14.15
432.09	3.15
432.217	-9.85
432.343	7.15
432.47	23.15
432.596	10.15
432.723	4.15
432.849	4.15
432.976	12.15
433.102	-4.85
433.229	2.15
433.355	35.15
433.482	70.15
433.608	148.15
433.735	133.15
433.861	120.15
433.987	158.15
434.114	232.15
434.24	185.15
434.367	68.15
434.493	2.15
434.62	21.15
434.746	17.15
434.872	-2.85
434.999	-1.85
435.125	7.15
435.252	9.15
435.378	17.15
435.504	3.15
435.631	19.15
435.757	5.15
435.883	12.15
436.01	21.15
436.136	11.15
436.262	-2.85
436.389	10.15
436.515	9.15
436.641	17.15
436.768	3.15
436.894	19.15
437.02	4.15
437.147	19.15
437.273	16.15
437.399	-1.85
437.526	16.15
437.652	7.15
437.778	26.15
437.904	-3.85
438.031	4.15
438.157	19.15
438.283	5.15
438.409	-1.85
438.536	-0.85
438.662	3.15
438.788	12.15
438.914	14.15
439.041	20.15
439.167	19.15
439.293	-3.85
439.419	-2.85
439.546	27.15
439.672	7.15
439.798	29.15
439.924	31.15
440.05	15.15
440.177	9.15
440.303	-1.85
440.429	9.15
440.555	22.15
440.681	25.15
440.807	26.15
440.934	23.15
441.06	1.15
441.186	4.15
441.312	25.15
441.438	19.15
441.564	14.15
441.69	15.15
441.816	9.15
441.943	3.15
442.069	4.15
442.195	27.15
442.321	3.15
442.447	17.15
442.573	-4.85
442.699	-25.85
442.825	-9.85
442.951	23.15
443.077	35.15
443.203	19.15
443.33	3.15
443.456	-3.85
443.582	3.15
443.708	14.15
443.834	15.15
443.96	24.15
444.086	5.15
444.212	8.15
444.338	4.15
444.464	22.15
444.59	17.15
444.716	14.15
444.842	11.15
444.968	-0.85
445.094	-11.85
445.22	-3.85
445.346	-18.85
445.472	5.15
445.598	-0.85
445.724	8.15
445.85	6.15
445.976	8.15
446.102	16.15
446.228	21.15
446.354	10.15
446.48	-12.85
446.605	9.15
446.731	23.15
446.857	-5.85
446.983	-3.85
447.109	6.15
447.235	19.15
447.361	2.15
447.487	6.15
447.613	5.15
447.739	5.15
447.865	9.15
447.99	4.15
448.116	4.15
448.242	6.15
448.368	4.15
448.494	-5.85
448.62	13.15
448.746	-2.85
448.872	11.15
448.997	9.15
449.123	-8.85
449.249	12.15
449.375	9.15
449.501	-14.85
449.627	-0.85
449.752	37.15
449.878	12.15
450.004	-0.85
450.13	2.15
450.256	-0.85
450.381	16.15
450.507	17.15
450.633	3.15
450.759	6.15
450.884	4.15
451.01	15.15
451.136	14.15
451.262	25.15
451.388	19.15
451.513	10.15
451.639	-2.85
451.765	10.15
451.89	1.15
452.016	16.15
452.142	15.15
452.268	15.15
452.393	23.15
452.519	-4.85
452.645	-4.85
452.771	0.15
452.896	3.15
453.022	-1.85
453.148	32.15
453.273	6.15
453.399	15.15
453.525	-2.85
453.65	14.15
453.776	15.15
453.902	19.15
454.027	18.15
454.153	25.15
454.279	22.15
454.404	-3.85
454.53	20.15
454.656	27.15
454.781	4.15
454.907	-0.85
455.032	-7.85
455.158	16.15
455.284	16.15
455.409	10.15
455.535	17.15
455.66	35.15
455.786	18.15
455.912	19.15
456.037	2.15
456.163	10.15
456.288	9.15
456.414	1.15
456.539	8.15
456.665	18.15
456.791	16.15
456.916	6.15
457.042	14.15
457.167	4.15
457.293	24.15
457.418	-3.85
457.544	-12.85
457.669	1.15
457.795	11.15
457.92	21.15
458.046	21.15
458.171	14.15
458.297	9.15
458.422	1.15
458.548	-0.85
458.673	21.15
458.799	7.15
458.924	-0.85
459.05	23.15
459.175	7.15
459.301	2.15
459.426	12.15
459.552	3.15
459.677	-6.85
459.803	24.15
459.928	15.15
460.053	9.15
460.179	12.15
460.304	19.15
460.43	-11.85
460.555	4.15
460.681	-1.85
460.806	4.15
460.931	5.15
461.057	27.15
461.182	4.15
461.308	16.15
461.433	13.15
461.558	-3.85
461.684	30.15
461.809	16.15
461.934	10.15
462.06	23.15
462.185	-17.85
462.311	-7.85
462.436	10.15
462.561	11.15
462.687	19.15
462.812	7.15
462.937	-2.85
463.063	3.15
463.188	8.15
463.313	19.15
463.439	8.15
463.564	-6.85
463.689	10.15
463.814	5.15
463.94	-5.85
464.065	9.15
464.19	27.15
464.316	4.15
464.441	-0.85
464.566	23.15
464.692	15.15
464.817	9.15
464.942	6.15
465.067	10.15
465.193	-11.85
465.318	-4.85
465.443	0.15
465.568	0.15
465.694	-1.85
465.819	41.15
465.944	0.15
466.069	4.15
466.194	6.15
466.32	12.15
466.445	17.15
466.57	-8.85
466.695	4.15
466.82	17.15
466.946	11.15
467.071	4.15
467.196	-6.85
467.321	13.15
467.446	9.15
467.572	11.15
467.697	1.15
467.822	6.15
467.947	23.15
468.072	3.15
468.197	-7.85
468.323	10.15
468.448	17.15
468.573	12.15
468.698	4.15
468.823	20.15
468.948	24.15
469.073	26.15
469.198	23.15
469.324	19.15
469.449	0.15
469.574	6.15
469.699	23.15
469.824	36.15
469.949	23.15
470.074	6.15
470.199	23.15
470.324	32.15
470.449	20.15
470.574	-8.85
470.7	25.15
470.825	33.15
470.95	49.15
471.075	11.15
471.2	8.15
471.325	11.15
471.45	-3.85
471.575	4.15
471.7	21.15
471.825	-9.85
471.95	8.15
472.075	0.15
472.2	7.15
472.325	20.15
472.45	12.15
472.575	4.15
472.7	9.15
472.825	22.15
472.95	12.15
473.075	1.15
473.2	-2.85
473.325	6.15
473.45	6.15
473.575	-2.85
473.7	9.15
473.825	25.15
473.95	32.15
474.075	52.15
474.2	15.15
474.325	-6.85
474.45	13.15
474.574	12.15
474.699	14.15
474.824	17.15
474.949	7.15
475.074	19.15
475.199	11.15
475.324	-5.85
475.449	3.15
475.574	23.15
475.699	24.15
475.824	9.15
475.949	12.15
476.073	0.15
476.198	9.15
476.323	4.15
476.448	26.15
476.573	-8.85
476.698	27.15
476.823	7.15
476.947	4.15
477.072	7.15
477.197	18.15
477.322	-7.85
477.447	-2.85
477.572	9.15
477.697	3.15
477.821	13.15
477.946	25.15
478.071	21.15
478.196	30.15
478.321	19.15
478.445	1.15
478.57	6.15
478.695	2.15
478.82	19.15
478.945	3.15
479.069	8.15
479.194	-2.85
479.319	16.15
479.444	12.15
479.569	9.15
479.693	11.15
479.818	26.15
479.943	23.15
480.068	7.15
480.192	17.15
480.317	17.15
480.442	25.15
480.567	16.15
480.691	13.15
480.816	13.15
480.941	16.15
481.066	21.15
481.19	34.15
481.315	25.15
481.44	9.15
481.564	-2.85
481.689	33.15
481.814	21.15
481.938	23.15
482.063	-0.85
482.188	1.15
482.313	20.15
482.437	20.15
482.562	27.15
482.687	29.15
482.811	18.15
482.936	16.15
483.061	27.15
483.185	33.15
483.31	17.15
483.435	19.15
483.559	16.15
483.684	9.15
483.808	23.15
483.933	19.15
484.058	10.15
484.182	0.15
484.307	7.15
484.432	16.15
484.556	19.15
484.681	15.15
484.805	21.15
484.93	33.15
485.055	41.15
485.179	80.15
485.304	135.15
485.428	362.15
485.553	1242.15
485.678	1714.15
485.802	1580.15
485.927	1740.15
486.051	2618.15
486.176	1629.15
486.3	462.15
486.425	151.15
486.549	82.15
486.674	61.15
486.799	59.15
486.923	8.15
487.048	29.15
487.172	27.15
487.297	19.15
487.421	25.15
487.546	31.15
487.67	16.15
487.795	21.15
487.919	22.15
488.044	20.15
488.168	20.15
488.293	5.15
488.417	5.15
488.542	21.15
488.666	25.15
488.791	34.15
488.915	18.15
489.04	35.15
489.164	22.15
489.289	22.15
489.413	-3.85
489.538	13.15
489.662	11.15
489.786	4.15
489.911	30.15
490.035	18.15
490.16	9.15
490.284	25.15
490.409	-6.85
490.533	4.15
490.658	36.15
490.782	15.15
490.906	22.15
491.031	4.15
491.155	14.15
491.28	20.15
491.404	20.15
491.528	27.15
491.653	9.15
491.777	28.15
491.902	18.15
492.026	8.15
492.15	6.15
492.275	22.15
492.399	24.15
492.524	15.15
492.648	25.15
492.772	20.15
492.897	26.15
493.021	13.15
493.145	34.15
493.27	31.15
493.394	22.15
493.518	11.15
493.643	6.15
493.767	20.15
493.891	1.15
494.016	11.15
494.14	17.15
494.264	20.15
494.389	13.15
494.513	0.15
494.637	2.15
494.762	12.15
494.886	24.15
495.01	9.15
495.134	25.15
495.259	12.15
495.383	2.15
495.507	17.15
495.632	17.15
495.756	26.15
495.88	13.15
496.004	15.15
496.129	20.15
496.253	19.15
496.377	-4.85
496.501	23.15
496.626	-10.85
496.75	7.15
496.874	21.15
496.998	9.15
497.123	16.15
497.247	-4.85
497.371	22.15
497.495	20.15
497.62	12.15
497.744	14.15
497.868	-1.85
497.992	11.15
498.116	-8.85
498.241	15.15
498.365	12.15
498.489	7.15
498.613	39.15
498.737	16.15
498.862	22.15
498.986	4.15
499.11	20.15
499.234	12.15
499.358	7.15
499.482	16.15
499.607	22.15
499.731	36.15
499.855	40.15
499.979	21.15
500.103	20.15
500.227	11.15
500.351	11.15
500.476	16.15
500.6	13.15
500.724	23.15
500.848	25.15
500.972	24.15
501.096	8.15
501.22	17.15
501.344	4.15
501.469	4.15
501.593	15.15
501.717	21.15
501.841	18.15
501.965	4.15
502.089	23.15
502.213	10.15
502.337	10.15
502.461	11.15
502.585	-0.85
502.709	8.15
502.834	16.15
502.958	6.15
503.082	27.15
503.206	11.15
503.33	27.15
503.454	7.15
503.578	17.15
503.702	13.15
503.826	12.15
503.95	32.15
504.074	7.15
504.198	18.15
504.322	16.15
504.446	8.15
504.57	23.15
504.694	23.15
504.818	30.15
504.942	22.15
505.066	16.15
505.19	20.15
505.314	28.15
505.438	17.15
505.562	10.15
505.686	20.15
505.81	-3.85
505.934	7.15
506.058	6.15
506.182	12.15
506.306	10.15
506.43	9.15
506.554	27.15
506.678	16.15
506.802	19.15
506.926	10.15
507.05	13.15
507.174	5.15
507.298	25.15
507.422	2.15
507.546	20.15
507.67	26.15
507.794	1.15
507.918	6.15
508.042	27.15
508.165	3.15
508.289	1.15
508.413	9.15
508.537	16.15
508.661	9.15
508.785	3.15
508.909	9.15
509.033	5.15
509.157	19.15
509.281	5.15
509.405	5.15
509.528	33.15
509.652	21.15
509.776	9.15
509.9	27.15
510.024	17.15
510.148	23.15
510.272	7.15
510.396	20.15
510.519	2.15
510.643	24.15
510.767	17.15
510.891	10.15
511.015	5.15
511.139	17.15
511.263	32.15
511.386	21.15
511.51	5.15
511.634	22.15
511.758	5.15
511.882	7.15
512.006	20.15
512.129	26.15
512.253	33.15
512.377	9.15
512.501	10.15
512.625	6.15
512.748	11.15
512.872	17.15
512.996	-5.85
513.12	11.15
513.244	8.15
513.367	17.15
513.491	2.15
513.615	25.15
513.739	8.15
513.862	12.15
513.986	-0.85
514.11	34.15
514.234	26.15
514.358	31.15
514.481	33.15
514.605	13.15
514.729	13.15
514.853	13.15
514.976	-4.85
515.1	1.15
515.224	39.15
515.348	10.15
515.471	1.15
515.595	21.15
515.719	3.15
515.842	20.15
515.966	13.15
516.09	21.15
516.214	29.15
516.337	31.15
516.461	23.15
516.585	22.15
516.708	18.15
516.832	18.15
516.956	15.15
517.08	19.15
517.203	1.15
517.327	11.15
517.451	27.15
517.574	36.15
517.698	37.15
517.822	10.15
517.945	17.15
518.069	27.15
518.193	57.15
518.316	21.15
518.44	37.15
518.564	30.15
518.687	11.15
518.811	7.15
518.935	59.15
519.058	28.15
519.182	24.15
519.306	35.15
519.429	14.15
519.553	54.15
519.676	27.15
519.8	8.15
519.924	0.15
520.047	14.15
520.171	11.15
520.294	-0.85
520.418	17.15
520.542	14.15
520.665	32.15
520.789	15.15
520.913	-10.85
521.036	-11.85
521.16	-15.85
521.283	5.15
521.407	19.15
521.53	-8.85
521.654	-9.85
521.778	30.15
521.901	30.15
522.025	21.15
522.148	7.15
522.272	-5.85
522.395	12.15
522.519	10.15
522.643	0.15
522.766	5.15
522.89	13.15
523.013	22.15
523.137	-12.85
523.26	17.15
523.384	29.15
523.507	23.15
523.631	4.15
523.754	3.15
523.878	1.15
524.002	-2.85
524.125	15.15
524.249	6.15
524.372	33.15
524.496	28.15
524.619	23.15
524.743	2.15
524.866	2.15
524.99	34.15
525.113	4.15
525.237	19.15
525.36	4.15
525.484	8.15
525.607	16.15
525.731	-11.85
525.854	25.15
525.978	43.15
526.101	16.15
526.224	4.15
526.348	8.15
526.471	13.15
526.595	11.15
526.718	4.15
526.842	1.15
526.965	17.15
527.089	5.15
527.212	21.15
527.336	9.15
527.459	30.15
527.582	3.15
527.706	20.15
527.829	20.15
527.953	8.15
528.076	-2.85
528.2	-5.85
528.323	19.15
528.446	26.15
528.57	22.15
528.693	21.15
528.817	-10.85
528.94	25.15
529.064	42.15
529.187	14.15
529.31	5.15
529.434	3.15
529.557	8.15
529.68	5.15
529.804	16.15
529.927	15.15
530.051	4.15
530.174	3.15
530.297	20.15
530.421	16.15
530.544	17.15
530.668	24.15
530.791	-4.85
530.914	16.15
531.038	1.15
531.161	-2.85
531.284	7.15
531.408	14.15
531.531	12.15
531.654	3.15
531.778	11.15
531.901	-5.85
532.024	8.15
532.148	12.15
532.271	9.15
532.394	13.15
532.518	31.15
532.641	17.15
532.764	18.15
532.888	29.15
533.011	5.15
533.134	-10.85
533.258	43.15
533.381	8.15
533.504	11.15
533.628	17.15
533.751	23.15
533.874	17.15
533.997	19.15
534.121	-13.85
534.244	8.15
534.367	6.15
534.491	16.15
534.614	-3.85
534.737	4.15
534.86	21.15
534.984	11.15
535.107	17.15
535.23	16.15
535.354	-6.85
535.477	6.15
535.6	6.15
535.723	15.15
535.847	6.15
535.97	6.15
536.093	17.15
536.216	-5.85
536.34	13.15
536.463	8.15
536.586	10.15
536.709	10.15
536.833	10.15
536.956	5.15
537.079	2.15
537.202	7.15
537.325	1.15
537.449	-6.85
537.572	5.15
537.695	8.15
537.818	6.15
537.941	8.15
538.065	17.15
538.188	7.15
538.311	23.15
538.434	17.15
538.558	20.15
538.681	4.15
538.804	12.15
538.927	33.15
539.05	18.15
539.173	-1.85
539.297	-6.85
539.42	17.15
539.543	13.15
539.666	23.15
539.789	11.15
539.913	26.15
540.036	18.15
540.159	8.15
540.282	-12.85
540.405	-10.85
540.528	-16.85
540.651	20.15
540.775	13.15
540.898	23.15
541.021	16.15
541.144	19.15
541.267	23.15
541.39	8.15
541.513	12.15
541.637	10.15
541.76	-0.85
541.883	-5.85
542.006	13.15
542.129	21.15
542.252	9.15
542.375	11.15
542.498	-2.85
542.622	17.15
542.745	10.15
542.868	5.15
542.991	12.15
543.114	27.15
543.237	35.15
543.36	28.15
543.483	17.15
543.606	11.15
543.73	27.15
543.853	-2.85
543.976	1.15
544.099	35.15
544.222	33.15
544.345	-4.85
544.468	8.15
544.591	2.15
544.714	3.15
544.837	20.15
544.96	28.15
545.083	28.15
545.206	14.15
545.329	32.15
545.453	-4.85
545.576	19.15
545.699	8.15
545.822	14.15
545.945	22.15
546.068	1.15
546.191	33.15
546.314	13.15
546.437	5.15
546.56	19.15
546.683	18.15
546.806	31.15
546.929	10.15
547.052	-8.85
547.175	15.15
547.298	28.15
547.421	-8.85
547.544	5.15
547.667	17.15
547.79	4.15
547.913	-2.85
548.036	-14.85
548.159	9.15
548.282	-0.85
548.405	0.15
548.528	8.15
548.651	5.15
548.774	24.15
548.897	22.15
549.02	26.15
549.143	13.15
549.266	16.15
549.389	3.15
549.512	-12.85
549.635	19.15
549.758	15.15
549.881	-8.85
550.004	11.15
550.127	-0.85
550.25	-5.85
550.373	3.15
550.496	14.15
550.619	-6.85
550.742	-4.85
550.865	0.15
550.988	10.15
551.111	32.15
551.234	19.15
551.356	13.15
551.479	0.15
551.602	11.15
551.725	-0.85
551.848	27.15
551.971	23.15
552.094	15.15
552.217	14.15
552.34	17.15
552.463	0.15
552.586	5.15
552.709	1.15
552.832	6.15
552.955	26.15
553.077	19.15
553.2	26.15
553.323	-4.85
553.446	12.15
553.569	2.15
553.692	28.15
553.815	10.15
553.938	25.15
554.061	10.15
554.184	4.15
554.306	12.15
554.429	12.15
554.552	13.15
554.675	-23.85
554.798	4.15
554.921	25.15
555.044	15.15
555.167	13.15
555.29	-3.85
555.412	-5.85
555.535	13.15
555.658	-7.85
555.781	-2.85
555.904	6.15
556.027	5.15
556.15	4.15
556.272	9.15
556.395	23.15
556.518	18.15
556.641	3.15
556.764	25.15
556.887	4.15
557.01	2.15
557.132	-6.85
557.255	1.15
557.378	26.15
557.501	18.15
557.624	17.15
557.747	6.15
557.869	1.15
557.992	16.15
558.115	28.15
558.238	13.15
558.361	7.15
558.483	35.15
558.606	16.15
558.729	0.15
558.852	32.15
558.975	25.15
559.098	13.15
559.22	25.15
559.343	17.15
559.466	0.15
559.589	-10.85
559.712	11.15
559.834	10.15
559.957	4.15
560.08	20.15
560.203	20.15
560.325	26.15
560.448	29.15
560.571	23.15
560.694	13.15
560.817	49.15
560.939	17.15
561.062	0.15
561.185	13.15
561.308	6.15
561.43	-6.85
561.553	2.15
561.676	1.15
561.799	13.15
561.921	-2.85
562.044	-3.85
562.167	-7.85
562.29	24.15
562.413	29.15
562.535	14.15
562.658	1.15
562.781	1.15
562.903	13.15
563.026	22.15
563.149	52.15
563.272	11.15
563.394	29.15
563.517	3.15
563.64	6.15
563.763	-3.85
563.885	17.15
564.008	24.15
564.131	16.15
564.254	-1.85
564.376	5.15
564.499	-11.85
564.622	9.15
564.744	-7.85
564.867	9.15
564.99	10.15
565.113	12.15
565.235	0.15
565.358	3.15
565.481	-9.85
565.603	9.15
565.726	-3.85
565.849	8.15
565.971	13.15
566.094	11.15
566.217	12.15
566.34	-4.85
566.462	22.15
566.585	10.15
566.708	25.15
566.83	10.15
566.953	19.15
567.076	10.15
567.198	16.15
567.321	8.15
567.444	26.15
567.566	16.15
567.689	0.15
567.812	-5.85
567.934	11.15
568.057	-0.85
568.18	20.15
568.302	5.15
568.425	1.15
568.548	10.15
568.67	18.15
568.793	17.15
568.916	17.15
569.038	-9.85
569.161	13.15
569.283	18.15
569.406	4.15
569.529	11.15
569.651	-4.85
569.774	7.15
569.897	21.15
570.019	16.15
570.142	10.15
570.265	11.15
570.387	-4.85
570.51	22.15
570.632	15.15
570.755	13.15
570.878	15.15
571	21.15
571.123	9.15
571.246	18.15
571.368	6.15
571.491	10.15
571.613	5.15
571.736	3.15
571.859	8.15
571.981	12.15
572.104	8.15
572.226	18.15
572.349	-5.85
572.472	10.15
572.594	23.15
572.717	4.15
572.839	-4.85
572.962	5.15
573.085	8.15
573.207	24.15
573.33	25.15
573.452	21.15
573.575	25.15
573.697	14.15
573.82	6.15
573.943	-3.85
574.065	7.15
574.188	4.15
574.31	26.15
574.433	20.15
574.555	38.15
574.678	1.15
574.801	15.15
574.923	1.15
575.046	23.15
575.168	10.15
575.291	17.15
575.413	11.15
575.536	25.15
575.659	10.15
575.781	-0.85
575.904	11.15
576.026	25.15
576.149	4.15
576.271	19.15
576.394	9.15
576.516	0.15
576.639	18.15
576.761	-13.85
576.884	2.15
577.007	-6.85
577.129	15.15
577.252	4.15
577.374	28.15
577.497	-3.85
577.619	6.15
577.742	2.15
577.864	18.15
577.987	19.15
578.109	40.15
578.232	24.15
578.354	20.15
578.477	6.15
578.599	11.15
578.722	13.15
578.844	10.15
578.967	22.15
579.089	-0.85
579.212	-8.85
579.334	20.15
579.457	11.15
579.579	-0.85
579.702	-6.85
579.824	26.15
579.947	15.15
580.069	-5.85
580.192	6.15
580.314	11.15
580.437	-8.85
580.559	20.15
580.682	15.15
580.804	20.15
580.927	25.15
581.049	35.15
581.172	20.15
581.294	8.15
581.417	22.15
581.539	5.15
581.662	27.15
581.784	32.15
581.907	27.15
582.029	20.15
582.152	-3.85
582.274	23.15
582.396	3.15
582.519	20.15
582.641	-9.85
582.764	7.15
582.886	16.15
583.009	-0.85
583.131	3.15
583.254	13.15
583.376	28.15
583.499	14.15
583.621	9.15
583.743	20.15
583.866	11.15
583.988	6.15
584.111	16.15
584.233	17.15
584.356	25.15
584.478	1.15
584.601	-6.85
584.723	9.15
584.845	29.15
584.968	-7.85
585.09	-7.85
585.213	24.15
585.335	-2.85
585.458	7.15
585.58	-5.85
585.702	10.15
585.825	7.15
585.947	6.15
586.07	6.15
586.192	-3.85
586.315	19.15
586.437	11.15
586.559	4.15
586.682	4.15
586.804	-0.85
586.927	-2.85
587.049	-14.85
587.171	20.15
587.294	16.15
587.416	13.15
587.539	6.15
587.661	-0.85
587.783	-11.85
587.906	8.15
588.028	15.15
588.151	4.15
588.273	26.15
588.395	17.15
588.518	7.15
588.64	-0.85
588.763	26.15
588.885	39.15
589.007	22.15
589.13	5.15
589.252	5.15
589.375	19.15
589.497	0.15
589.619	11.15
589.742	12.15
589.864	15.15
589.986	7.15
590.109	16.15
590.231	4.15
590.354	2.15
590.476	-6.85
590.598	8.15
590.721	-1.85
590.843	8.15
590.965	14.15
591.088	14.15
591.21	3.15
591.332	-8.85
591.455	-4.85
591.577	4.15
591.7	1.15
591.822	10.15
591.944	11.15
592.067	21.15
592.189	9.15
592.311	10.15
592.434	13.15
592.556	19.15
592.678	-17.85
592.801	10.15
592.923	9.15
593.045	7.15
593.168	12.15
593.29	12.15
593.412	20.15
593.535	1.15
593.657	5.15
593.779	14.15
593.902	22.15
594.024	-0.85
594.146	17.15
594.269	19.15
594.391	4.15
594.513	-4.85
594.636	18.15
594.758	5.15
594.88	40.15
595.003	11.15
595.125	-0.85
595.247	21.15
595.37	29.15
595.492	-7.85
595.614	26.15
595.737	-2.85
595.859	5.15
595.981	18.15
596.104	2.15
596.226	0.15
596.348	3.15
596.471	8.15
596.593	8.15
596.715	9.15
596.838	3.15
596.96	11.15
597.082	11.15
597.204	7.15
597.327	17.15
597.449	10.15
597.571	6.15
597.694	14.15
597.816	33.15
597.938	13.15
598.061	7.15
598.183	14.15
598.305	7.15
598.427	8.15
598.55	17.15
598.672	24.15
598.794	27.15
598.917	-9.85
599.039	-6.85
599.161	19.15
599.283	11.15
599.406	5.15
599.528	21.15
599.65	20.15
599.773	13.15
599.895	35.15
600.017	15.15
600.139	5.15
600.262	17.15
600.384	11.15
600.506	11.15
600.628	47.15
600.751	36.15
600.873	3.15
600.995	9.15
601.118	42.15
601.24	11.15
601.362	20.15
601.484	23.15
601.607	19.15
601.729	16.15
601.851	15.15
601.973	5.15
602.096	24.15
602.218	41.15
602.34	19.15
602.462	25.15
602.585	19.15
602.707	-9.85
602.829	17.15
602.951	11.15
603.074	7.15
603.196	24.15
603.318	4.15
603.44	19.15
603.563	23.15
603.685	-0.85
603.807	12.15
603.929	18.15
604.052	26.15
604.174	21.15
604.296	12.15
604.418	24.15
604.541	27.15
604.663	5.15
604.785	21.15
604.907	5.15
605.03	-0.85
605.152	25.15
605.274	-4.85
605.396	18.15
605.519	21.15
605.641	4.15
605.763	5.15
605.885	21.15
606.008	7.15
606.13	14.15
606.252	19.15
606.374	-4.85
606.496	5.15
606.619	29.15
606.741	16.15
606.863	17.15
606.985	23.15
607.108	32.15
607.23	18.15
607.352	17.15
607.474	0.15
607.596	20.15
607.719	4.15
607.841	20.15
607.963	10.15
608.085	18.15
608.207	40.15
608.33	12.15
608.452	4.15
608.574	8.15
608.696	8.15
608.819	0.15
608.941	7.15
609.063	10.15
609.185	-6.85
609.307	3.15
609.43	12.15
609.552	1.15
609.674	-4.85
609.796	27.15
609.918	36.15
610.041	20.15
610.163	20.15
610.285	8.15
610.407	27.15
610.529	-8.85
610.652	20.15
610.774	17.15
610.896	2.15
611.018	24.15
611.14	12.15
611.263	-4.85
611.385	-1.85
611.507	26.15
611.629	-3.85
611.751	23.15
611.873	39.15
611.996	31.15
612.118	20.15
612.24	6.15
612.362	23.15
612.484	19.15
612.607	25.15
612.729	9.15
612.851	8.15
612.973	-2.85
613.095	6.15
613.218	9.15
613.34	11.15
613.462	10.15
613.584	10.15
613.706	-0.85
613.828	30.15
613.951	3.15
614.073	8.15
614.195	6.15
614.317	16.15
614.439	31.15
614.561	12.15
614.684	18.15
614.806	6.15
614.928	17.15
615.05	7.15
615.172	12.15
615.294	26.15
615.417	16.15
615.539	13.15
615.661	1.15
615.783	38.15
615.905	40.15
616.027	61.15
616.15	104.15
616.272	79.15
616.394	46.15
616.516	39.15
616.638	17.15
616.76	9.15
616.883	17.15
617.005	21.15
617.127	-5.85
617.249	12.15
617.371	6.15
617.493	16.15
617.615	21.15
617.738	-4.85
617.86	7.15
617.982	21.15
618.104	8.15
618.226	12.15
618.348	-5.85
618.471	3.15
618.593	11.15
618.715	-14.85
618.837	17.15
618.959	23.15
619.081	35.15
619.203	12.15
619.326	1.15
619.448	-4.85
619.57	-12.85
619.692	3.15
619.814	23.15
619.936	11.15
620.058	21.15
620.181	10.15
620.303	17.15
620.425	8.15
620.547	-8.85
620.669	10.15
620.791	13.15
620.913	4.15
621.036	19.15
621.158	29.15
621.28	26.15
621.402	-4.85
621.524	-3.85
621.646	10.15
621.768	5.15
621.891	-0.85
622.013	21.15
622.135	11.15
622.257	6.15
622.379	-13.85
622.501	-5.85
622.623	16.15
622.745	-6.85
622.868	9.15
622.99	8.15
623.112	13.15
623.234	3.15
623.356	7.15
623.478	1.15
623.6	11.15
623.722	4.15
623.845	10.15
623.967	9.15
624.089	25.15
624.211	3.15
624.333	4.15
624.455	13.15
624.577	25.15
624.699	33.15
624.822	26.15
624.944	0.15
625.066	7.15
625.188	8.15
625.31	12.15
625.432	18.15
625.554	4.15
625.676	27.15
625.799	1.15
625.921	14.15
626.043	14.15
626.165	3.15
626.287	-16.85
626.409	10.15
626.531	-12.85
626.653	7.15
626.775	14.15
626.898	3.15
627.02	2.15
627.142	25.15
627.264	-3.85
627.386	19.15
627.508	-6.85
627.63	8.15
627.752	22.15
627.874	8.15
627.997	9.15
628.119	20.15
628.241	4.15
628.363	16.15
628.485	24.15
628.607	11.15
628.729	16.15
628.851	2.15
628.973	16.15
629.096	16.15
629.218	4.15
629.34	26.15
629.462	-3.85
629.584	3.15
629.706	7.15
629.828	18.15
629.95	20.15
630.072	-7.85
630.195	8.15
630.317	-1.85
630.439	18.15
630.561	20.15
630.683	-3.85
630.805	13.15
630.927	28.15
631.049	-9.85
631.171	-5.85
631.293	4.15
631.416	5.15
631.538	4.15
631.66	-3.85
631.782	21.15
631.904	33.15
632.026	0.15
632.148	-2.85
632.27	-0.85
632.392	19.15
632.514	-1.85
632.637	8.15
632.759	14.15
632.881	-8.85
633.003	-4.85
633.125	-1.85
633.247	21.15
633.369	17.15
633.491	-1.85
633.613	6.15
633.735	11.15
633.858	20.15
633.98	21.15
634.102	-7.85
634.224	-4.85
634.346	-3.85
634.468	12.15
634.59	13.15
634.712	16.15
634.834	3.15
634.956	-8.85
635.078	7.15
635.201	-10.85
635.323	-3.85
635.445	11.15
635.567	7.15
635.689	15.15
635.811	7.15
635.933	-1.85
636.055	12.15
636.177	7.15
636.299	19.15
636.421	4.15
636.544	-0.85
636.666	21.15
636.788	9.15
636.91	11.15
637.032	-1.85
637.154	23.15
637.276	35.15
637.398	19.15
637.52	21.15
637.642	0.15
637.764	12.15
637.887	4.15
638.009	1.15
638.131	8.15
638.253	-0.85
638.375	24.15
638.497	7.15
638.619	2.15
638.741	2.15
638.863	-12.85
638.985	-16.85
639.107	-1.85
639.23	25.15
639.352	34.15
639.474	19.15
639.596	0.15
639.718	-2.85
639.84	4.15
639.962	25.15
640.084	17.15
640.206	16.15
640.328	7.15
640.45	7.15
640.573	9.15
640.695	-10.85
640.817	3.15
640.939	10.15
641.061	2.15
641.183	12.15
641.305	1.15
641.427	4.15
641.549	23.15
641.671	26.15
641.793	6.15
641.915	29.15
642.038	2.15
642.16	8.15
642.282	5.15
642.404	1.15
642.526	11.15
642.648	7.15
642.77	15.15
642.892	5.15
643.014	13.15
643.136	3.15
643.258	1.15
643.381	6.15
643.503	35.15
643.625	10.15
643.747	-11.85
643.869	3.15
643.991	17.15
644.113	8.15
644.235	-8.85
644.357	25.15
644.479	26.15
644.601	7.15
644.723	13.15
644.846	29.15
644.968	20.15
645.09	0.15
645.212	14.15
645.334	22.15
645.456	8.15
645.578	8.15
645.7	7.15
645.822	12.15
645.944	4.15
646.066	15.15
646.188	4.15
646.311	21.15
646.433	0.15
646.555	40.15
646.677	36.15
646.799	29.15
646.921	7.15
647.043	32.15
647.165	17.15
647.287	-4.85
647.409	9.15
647.531	14.15
647.654	-18.85
647.776	20.15
647.898	20.15
648.02	-6.85
648.142	-6.85
648.264	-19.85
648.386	-5.85
648.508	12.15
648.63	13.15
648.752	-4.85
648.874	12.15
648.997	7.15
649.119	25.15
649.241	4.15
649.363	33.15
649.485	19.15
649.607	-7.85
649.729	-31.85
649.851	-0.85
649.973	2.15
650.095	32.15
650.217	-3.85
650.34	3.15
650.462	12.15
650.584	16.15
650.706	17.15
650.828	35.15
650.95	9.15
651.072	5.15
651.194	8.15
651.316	14.15
651.438	29.15
651.56	-0.85
651.683	4.15
651.805	20.15
651.927	5.15
652.049	3.15
652.171	7.15
652.293	16.15
652.415	3.15
652.537	4.15
652.659	-0.85
652.781	12.15
652.903	5.15
653.026	22.15
653.148	18.15
653.27	16.15
653.392	24.15
653.514	5.15
653.636	-1.85
653.758	1.15
653.88	-5.85
654.002	9.15
654.124	17.15
654.247	0.15
654.369	18.15
654.491	13.15
654.613	14.15
654.735	14.15
654.857	32.15
654.979	23.15
655.101	38.15
655.223	49.15
655.345	24.15
655.468	38.15
655.59	11.15
655.712	31.15
655.834	9.15
655.956	34.15
656.078	22.15
656.2	29.15
656.322	43.15
656.444	7.15
656.566	53.15
656.689	51.15
656.811	63.15
656.933	84.15
657.055	101.15
657.177	139.15
657.299	261.15
657.421	507.15
657.543	1853.15
657.665	12494.15
657.787	15158.15
657.91	15232.15
658.032	15662.15
658.154	4579.15
658.276	3199.15
658.398	1087.15
658.52	998.15
658.642	486.15
658.764	573.15
658.886	275.15
659.009	409.15
659.131	215.15
659.253	307.15
659.375	163.15
659.497	246.15
659.619	125.15
659.741	195.15
659.863	110.15
659.985	170.15
660.108	85.15
660.23	133.15
660.352	84.15
660.474	153.15
660.596	80.15
660.718	120.15
660.84	57.15
660.962	110.15
661.084	54.15
661.207	77.15
661.329	54.15
661.451	89.15
661.573	36.15
661.695	90.15
661.817	49.15
661.939	104.15
662.061	62.15
662.184	83.15
662.306	40.15
662.428	77.15
662.55	64.15
662.672	71.15
662.794	28.15
662.916	52.15
663.038	31.15
663.161	74.15
663.283	48.15
663.405	79.15
663.527	27.15
663.649	51.15
663.771	32.15
663.893	52.15
664.015	39.15
664.138	49.15
664.26	18.15
664.382	41.15
664.504	30.15
664.626	38.15
664.748	9.15
664.87	38.15
664.992	42.15
665.115	53.15
665.237	23.15
665.359	27.15
665.481	30.15
665.603	39.15
665.725	13.15
665.847	16.15
665.97	8.15
666.092	43.15
666.214	26.15
666.336	36.15
666.458	27.15
666.58	41.15
666.702	6.15
666.825	26.15
666.947	13.15
667.069	28.15
667.191	11.15
667.313	38.15
667.435	4.15
667.557	24.15
667.68	9.15
667.802	5.15
667.924	11.15
668.046	47.15
668.168	37.15
668.29	52.15
668.412	26.15
668.535	35.15
668.657	13.15
668.779	18.15
668.901	20.15
669.023	39.15
669.145	-4.85
669.267	33.15
669.39	19.15
669.512	22.15
669.634	8.15
669.756	1.15
669.878	29.15
670	27.15
670.123	9.15
670.245	37.15
670.367	15.15
670.489	38.15
670.611	5.15
670.733	12.15
670.856	11.15
670.978	22.15
671.1	16.15
671.222	14.15
671.344	3.15
671.466	3.15
671.589	-5.85
671.711	18.15
671.833	13.15
671.955	11.15
672.077	1.15
672.199	36.15
672.322	32.15
672.444	17.15
672.566	28.15
672.688	11.15
672.81	11.15
672.932	41.15
673.055	14.15
673.177	10.15
673.299	25.15
673.421	-9.85
673.543	-0.85
673.665	12.15
673.788	21.15
673.91	7.15
674.032	0.15
674.154	15.15
674.276	16.15
674.399	18.15
674.521	7.15
674.643	20.15
674.765	-4.85
674.887	23.15
675.009	15.15
675.132	13.15
675.254	3.15
675.376	22.15
675.498	10.15
675.62	31.15
675.743	27.15
675.865	23.15
675.987	8.15
676.109	19.15
676.231	11.15
676.354	31.15
676.476	2.15
676.598	23.15
676.72	18.15
676.842	35.15
676.965	24.15
677.087	25.15
677.209	28.15
677.331	23.15
677.453	12.15
677.576	15.15
677.698	9.15
677.82	6.15
677.942	-5.85
678.064	12.15
678.187	4.15
678.309	17.15
678.431	0.15
678.553	14.15
678.675	33.15
678.798	15.15
678.92	-3.85
679.042	12.15
679.164	3.15
679.286	20.15
679.409	-2.85
679.531	-6.85
679.653	1.15
679.775	1.15
679.898	2.15
680.02	13.15
680.142	-21.85
680.264	29.15
680.386	-14.85
680.509	23.15
680.631	15.15
680.753	21.15
680.875	-0.85
680.998	17.15
681.12	6.15
681.242	12.15
681.364	4.15
681.486	8.15
681.609	-3.85
681.731	-5.85
681.853	-12.85
681.975	4.15
682.098	24.15
682.22	26.15
682.342	20.15
682.464	32.15
682.587	4.15
682.709	7.15
682.831	-9.85
682.953	-4.85
683.076	1.15
683.198	14.15
683.32	13.15
683.442	25.15
683.565	18.15
683.687	7.15
683.809	-6.85
683.931	-3.85
684.054	31.15
684.176	18.15
684.298	12.15
684.42	22.15
684.543	-9.85
684.665	10.15
684.787	-12.85
684.909	1.15
685.032	16.15
685.154	7.15
685.276	2.15
685.398	-0.85
685.521	3.15
685.643	19.15
685.765	34.15
685.887	18.15
686.01	22.15
686.132	23.15
686.254	25.15
686.377	11.15
686.499	18.15
686.621	19.15
686.743	9.15
686.866	10.15
686.988	31.15
687.11	19.15
687.232	22.15
687.355	2.15
687.477	11.15
687.599	27.15
687.722	-4.85
687.844	-0.85
687.966	21.15
688.088	15.15
688.211	32.15
688.333	12.15
688.455	16.15
688.578	8.15
688.7	26.15
688.822	7.15
688.944	-3.85
689.067	43.15
689.189	23.15
689.311	-9.85
689.434	-11.85
689.556	7.15
689.678	9.15
689.801	13.15
689.923	19.15
690.045	34.15
690.167	36.15
690.29	38.15
690.412	15.15
690.534	15.15
690.657	-7.85
690.779	11.15
690.901	23.15
691.024	15.15
691.146	3.15
691.268	6.15
691.391	20.15
691.513	27.15
691.635	18.15
691.758	30.15
691.88	32.15
692.002	13.15
692.125	17.15
692.247	-12.85
692.369	-11.85
692.492	10.15
692.614	8.15
692.736	-6.85
692.859	-10.85
692.981	2.15
693.103	-2.85
693.226	8.15
693.348	34.15
693.47	6.15
693.593	20.15
693.715	-15.85
693.837	1.15
693.96	0.15
694.082	-9.85
694.204	17.15
694.327	-4.85
694.449	-6.85
694.571	28.15
694.694	28.15
694.816	9.15
694.938	1.15
695.061	7.15
695.183	1.15
695.305	13.15
695.428	16.15
695.55	3.15
695.672	0.15
695.795	19.15
695.917	32.15
696.04	1.15
696.162	0.15
696.284	1.15
696.407	-6.85
696.529	11.15
696.651	31.15
696.774	-5.85
696.896	12.15
697.019	3.15
697.141	17.15
697.263	0.15
697.386	-3.85
697.508	8.15
697.63	9.15
697.753	19.15
697.875	-0.85
697.998	11.15
698.12	20.15
698.242	5.15
698.365	12.15
698.487	12.15
698.61	22.15
698.732	13.15
698.854	30.15
698.977	-2.85
699.099	23.15
699.221	3.15
699.344	7.15
699.466	14.15
699.589	25.15
699.711	-0.85
699.834	22.15
699.956	11.15
700.078	15.15
700.201	-7.85
700.323	39.15
700.446	15.15
700.568	14.15
700.69	4.15
700.813	11.15
700.935	10.15
701.058	14.15
701.18	12.15
701.302	6.15
701.425	6.15
701.547	26.15
701.67	21.15
701.792	6.15
701.915	7.15
702.037	3.15
702.159	0.15
702.282	-0.85
702.404	8.15
702.527	22.15
702.649	25.15
702.772	28.15
702.894	2.15
703.017	5.15
703.139	18.15
703.261	26.15
703.384	18.15
703.506	3.15
703.629	2.15
703.751	5.15
703.874	-0.85
703.996	4.15
704.119	3.15
704.241	14.15
704.364	-2.85
704.486	25.15
704.608	7.15
704.731	15.15
704.853	34.15
704.976	2.15
705.098	-7.85
705.221	-4.85
705.343	-3.85
705.466	15.15
705.588	35.15
705.711	8.15
705.833	11.15
705.956	4.15
706.078	6.15
706.201	2.15
706.323	0.15
706.446	9.15
