Data from LowRes_H2_15_26_11_07_2024_HR4C61881__36__15-28-17-237.txt Node

Date: Thu Nov 07 15:28:17 EST 2024
User: crc00042
Spectrometer: HR4C6188
Trigger mode: 4
Integration Time (sec): 1.000000E-1
Scans to average: 1
Electric dark correction enabled: true
Nonlinearity correction enabled: false
Boxcar width: 0
XAxis mode: Wavelengths
Number of Pixels in Spectrum: 3648
>>>>>Begin Spectral Data<<<<<
245.66	-99.69
245.797	-99.69
245.934	-99.69
246.071	-94.69
246.208	2.31
246.344	-4.69
246.481	-25.69
246.618	-3.69
246.755	23.31
246.892	-10.69
247.029	-2.69
247.165	-5.69
247.302	7.31
247.439	8.31
247.576	-3.69
247.713	-16.69
247.849	34.31
247.986	0.31
248.123	-17.69
248.26	-6.69
248.396	-6.69
248.533	6.31
248.67	-8.69
248.806	8.31
248.943	-16.69
249.08	12.31
249.216	23.31
249.353	-2.69
249.49	-1.69
249.626	12.31
249.763	8.31
249.9	-7.69
250.036	15.31
250.173	2.31
250.309	2.31
250.446	-0.69
250.582	2.31
250.719	-3.69
250.856	-5.69
250.992	-22.69
251.129	-6.69
251.265	-10.69
251.402	5.31
251.538	11.31
251.675	-7.69
251.811	22.31
251.948	17.31
252.084	2.31
252.221	-8.69
252.357	-17.69
252.493	25.31
252.63	24.31
252.766	25.31
252.903	12.31
253.039	-11.69
253.175	-6.69
253.312	5.31
253.448	-12.69
253.585	-25.69
253.721	-10.69
253.857	3.31
253.994	23.31
254.13	12.31
254.266	-6.69
254.403	-3.69
254.539	5.31
254.675	-2.69
254.811	2.31
254.948	-0.69
255.084	-2.69
255.22	-1.69
255.356	-2.69
255.493	15.31
255.629	-12.69
255.765	-17.69
255.901	11.31
256.037	8.31
256.174	5.31
256.31	-12.69
256.446	7.31
256.582	10.31
256.718	-2.69
256.854	36.31
256.991	1.31
257.127	12.31
257.263	2.31
257.399	4.31
257.535	-3.69
257.671	7.31
257.807	-5.69
257.943	-7.69
258.079	-3.69
258.215	-1.69
258.351	25.31
258.487	6.31
258.623	11.31
258.759	-1.69
258.895	5.31
259.031	-7.69
259.167	-5.69
259.303	13.31
259.439	1.31
259.575	-3.69
259.711	0.31
259.847	-1.69
259.983	9.31
260.119	-2.69
260.255	-6.69
260.391	16.31
260.527	22.31
260.663	21.31
260.799	5.31
260.934	-0.69
261.07	1.31
261.206	-17.69
261.342	-15.69
261.478	16.31
261.614	9.31
261.749	2.31
261.885	-13.69
262.021	1.31
262.157	24.31
262.293	8.31
262.428	1.31
262.564	-1.69
262.7	0.31
262.836	-0.69
262.971	14.31
263.107	6.31
263.243	29.31
263.378	10.31
263.514	-9.69
263.65	3.31
263.785	2.31
263.921	-7.69
264.057	17.31
264.192	18.31
264.328	35.31
264.464	12.31
264.599	21.31
264.735	9.31
264.871	-20.69
265.006	-11.69
265.142	3.31
265.277	14.31
265.413	17.31
265.548	32.31
265.684	28.31
265.819	-1.69
265.955	4.31
266.091	-5.69
266.226	-26.69
266.362	-2.69
266.497	14.31
266.633	-10.69
266.768	-8.69
266.903	15.31
267.039	13.31
267.174	10.31
267.31	1.31
267.445	-4.69
267.581	-0.69
267.716	15.31
267.851	11.31
267.987	13.31
268.122	23.31
268.258	-10.69
268.393	-3.69
268.528	6.31
268.664	-24.69
268.799	-30.69
268.934	4.31
269.07	-0.69
269.205	2.31
269.34	29.31
269.476	13.31
269.611	-18.69
269.746	0.31
269.881	12.31
270.017	10.31
270.152	1.31
270.287	15.31
270.422	19.31
270.558	-0.69
270.693	6.31
270.828	-21.69
270.963	-18.69
271.098	-13.69
271.234	-2.69
271.369	10.31
271.504	-4.69
271.639	-16.69
271.774	0.31
271.909	-11.69
272.045	-31.69
272.18	18.31
272.315	-10.69
272.45	21.31
272.585	-6.69
272.72	-1.69
272.855	1.31
272.99	-2.69
273.125	-17.69
273.26	-6.69
273.395	-1.69
273.53	-8.69
273.665	23.31
273.8	-8.69
273.935	4.31
274.07	13.31
274.205	10.31
274.34	-0.69
274.475	-1.69
274.61	21.31
274.745	11.31
274.88	37.31
275.015	-1.69
275.15	15.31
275.285	13.31
275.42	3.31
275.555	9.31
275.69	14.31
275.825	0.31
275.959	15.31
276.094	-7.69
276.229	2.31
276.364	-9.69
276.499	11.31
276.634	1.31
276.768	-4.69
276.903	-11.69
277.038	6.31
277.173	-5.69
277.308	0.31
277.442	-20.69
277.577	-3.69
277.712	20.31
277.847	0.31
277.981	6.31
278.116	-17.69
278.251	6.31
278.386	4.31
278.52	12.31
278.655	-10.69
278.79	3.31
278.924	1.31
279.059	13.31
279.194	-28.69
279.328	22.31
279.463	8.31
279.598	9.31
279.732	-1.69
279.867	13.31
280.001	27.31
280.136	-4.69
280.271	19.31
280.405	3.31
280.54	-19.69
280.674	-6.69
280.809	24.31
280.943	0.31
281.078	4.31
281.213	-2.69
281.347	18.31
281.482	-0.69
281.616	13.31
281.751	-6.69
281.885	-18.69
282.02	6.31
282.154	21.31
282.288	-26.69
282.423	-11.69
282.557	-10.69
282.692	12.31
282.826	5.31
282.961	9.31
283.095	14.31
283.229	7.31
283.364	-14.69
283.498	1.31
283.633	20.31
283.767	7.31
283.901	2.31
284.036	3.31
284.17	-2.69
284.304	9.31
284.439	18.31
284.573	19.31
284.707	17.31
284.842	-1.69
284.976	-2.69
285.11	-10.69
285.244	9.31
285.379	36.31
285.513	-10.69
285.647	6.31
285.781	9.31
285.916	9.31
286.05	7.31
286.184	22.31
286.318	11.31
286.453	13.31
286.587	-11.69
286.721	-12.69
286.855	-3.69
286.989	13.31
287.123	-2.69
287.258	-9.69
287.392	8.31
287.526	8.31
287.66	-0.69
287.794	11.31
287.928	-20.69
288.062	0.31
288.196	16.31
288.33	18.31
288.464	25.31
288.598	20.31
288.733	-9.69
288.867	12.31
289.001	14.31
289.135	11.31
289.269	-17.69
289.403	-9.69
289.537	0.31
289.671	8.31
289.805	-11.69
289.939	2.31
290.073	8.31
290.207	5.31
290.34	-17.69
290.474	23.31
290.608	6.31
290.742	-7.69
290.876	-4.69
291.01	-14.69
291.144	20.31
291.278	18.31
291.412	4.31
291.546	-4.69
291.679	1.31
291.813	0.31
291.947	-7.69
292.081	5.31
292.215	-6.69
292.349	16.31
292.482	16.31
292.616	-5.69
292.75	9.31
292.884	17.31
293.018	-5.69
293.151	-14.69
293.285	5.31
293.419	0.31
293.553	-8.69
293.686	-15.69
293.82	4.31
293.954	33.31
294.088	19.31
294.221	-9.69
294.355	2.31
294.489	6.31
294.622	-10.69
294.756	-5.69
294.89	6.31
295.023	4.31
295.157	13.31
295.291	20.31
295.424	25.31
295.558	0.31
295.691	9.31
295.825	-9.69
295.959	-0.69
296.092	-3.69
296.226	1.31
296.359	1.31
296.493	15.31
296.627	11.31
296.76	4.31
296.894	20.31
297.027	12.31
297.161	10.31
297.294	-3.69
297.428	1.31
297.561	19.31
297.695	-8.69
297.828	9.31
297.962	-15.69
298.095	-10.69
298.229	22.31
298.362	-27.69
298.495	-6.69
298.629	-17.69
298.762	20.31
298.896	29.31
299.029	7.31
299.162	3.31
299.296	6.31
299.429	-15.69
299.563	11.31
299.696	13.31
299.829	4.31
299.963	17.31
300.096	24.31
300.229	7.31
300.363	14.31
300.496	7.31
300.629	-12.69
300.763	-5.69
300.896	-5.69
301.029	6.31
301.162	-2.69
301.296	-23.69
301.429	5.31
301.562	-13.69
301.695	6.31
301.829	7.31
301.962	5.31
302.095	-6.69
302.228	-4.69
302.362	14.31
302.495	-12.69
302.628	17.31
302.761	-2.69
302.894	5.31
303.027	14.31
303.161	-18.69
303.294	0.31
303.427	10.31
303.56	3.31
303.693	-5.69
303.826	-8.69
303.959	-0.69
304.092	-2.69
304.225	2.31
304.359	12.31
304.492	15.31
304.625	-2.69
304.758	17.31
304.891	-1.69
305.024	23.31
305.157	14.31
305.29	-11.69
305.423	-8.69
305.556	0.31
305.689	7.31
305.822	-2.69
305.955	-14.69
306.088	-6.69
306.221	5.31
306.354	5.31
306.487	-13.69
306.62	-10.69
306.752	-8.69
306.885	-3.69
307.018	7.31
307.151	12.31
307.284	8.31
307.417	-9.69
307.55	14.31
307.683	7.31
307.816	1.31
307.948	-8.69
308.081	9.31
308.214	4.31
308.347	15.31
308.48	-12.69
308.613	-3.69
308.745	6.31
308.878	-9.69
309.011	-7.69
309.144	13.31
309.277	-7.69
309.409	5.31
309.542	2.31
309.675	17.31
309.808	0.31
309.94	17.31
310.073	-15.69
310.206	1.31
310.339	-7.69
310.471	-31.69
310.604	25.31
310.737	-4.69
310.869	0.31
311.002	-8.69
311.135	-9.69
311.267	-35.69
311.4	-21.69
311.533	19.31
311.665	1.31
311.798	-6.69
311.93	-1.69
312.063	30.31
312.196	-9.69
312.328	-3.69
312.461	-9.69
312.593	2.31
312.726	24.31
312.859	4.31
312.991	-4.69
313.124	-27.69
313.256	3.31
313.389	7.31
313.521	-9.69
313.654	-0.69
313.786	-13.69
313.919	-2.69
314.051	-2.69
314.184	12.31
314.316	10.31
314.449	-9.69
314.581	-13.69
314.714	-4.69
314.846	8.31
314.978	-8.69
315.111	-5.69
315.243	-5.69
315.376	-3.69
315.508	7.31
315.641	11.31
315.773	22.31
315.905	-1.69
316.038	-23.69
316.17	-4.69
316.302	7.31
316.435	2.31
316.567	-13.69
316.699	25.31
316.832	-2.69
316.964	-14.69
317.096	-2.69
317.229	-8.69
317.361	-12.69
317.493	-8.69
317.625	-0.69
317.758	4.31
317.89	0.31
318.022	24.31
318.155	7.31
318.287	-0.69
318.419	8.31
318.551	2.31
318.683	2.31
318.816	-6.69
318.948	-24.69
319.08	-3.69
319.212	7.31
319.344	5.31
319.477	-2.69
319.609	4.31
319.741	26.31
319.873	-5.69
320.005	1.31
320.137	5.31
320.269	-2.69
320.401	13.31
320.534	12.31
320.666	-25.69
320.798	-6.69
320.93	-14.69
321.062	-1.69
321.194	5.31
321.326	10.31
321.458	-6.69
321.59	-0.69
321.722	-8.69
321.854	15.31
321.986	4.31
322.118	12.31
322.25	-7.69
322.382	3.31
322.514	0.31
322.646	-7.69
322.778	11.31
322.91	-15.69
323.042	-3.69
323.174	-10.69
323.306	-8.69
323.438	-11.69
323.57	-22.69
323.702	-7.69
323.834	-21.69
323.966	-26.69
324.097	10.31
324.229	13.31
324.361	12.31
324.493	-1.69
324.625	-20.69
324.757	18.31
324.889	5.31
325.021	10.31
325.152	7.31
325.284	14.31
325.416	-9.69
325.548	4.31
325.68	-22.69
325.811	3.31
325.943	21.31
326.075	-3.69
326.207	4.31
326.339	19.31
326.47	16.31
326.602	25.31
326.734	15.31
326.866	21.31
326.997	-1.69
327.129	-7.69
327.261	-9.69
327.392	19.31
327.524	15.31
327.656	21.31
327.787	19.31
327.919	2.31
328.051	14.31
328.182	15.31
328.314	30.31
328.446	-16.69
328.577	7.31
328.709	5.31
328.841	0.31
328.972	-19.69
329.104	8.31
329.235	2.31
329.367	-3.69
329.499	21.31
329.63	5.31
329.762	16.31
329.893	25.31
330.025	14.31
330.156	-10.69
330.288	17.31
330.419	9.31
330.551	21.31
330.683	15.31
330.814	6.31
330.946	13.31
331.077	-3.69
331.208	-2.69
331.34	-13.69
331.471	-11.69
331.603	-3.69
331.734	-11.69
331.866	5.31
331.997	2.31
332.129	-0.69
332.26	10.31
332.392	21.31
332.523	-3.69
332.654	-10.69
332.786	9.31
332.917	-21.69
333.048	19.31
333.18	7.31
333.311	-15.69
333.443	5.31
333.574	-3.69
333.705	17.31
333.837	3.31
333.968	-0.69
334.099	20.31
334.231	34.31
334.362	-2.69
334.493	11.31
334.624	17.31
334.756	-5.69
334.887	21.31
335.018	4.31
335.15	5.31
335.281	10.31
335.412	13.31
335.543	9.31
335.675	7.31
335.806	-7.69
335.937	6.31
336.068	20.31
336.199	23.31
336.331	-5.69
336.462	12.31
336.593	14.31
336.724	-4.69
336.855	25.31
336.986	30.31
337.118	13.31
337.249	19.31
337.38	13.31
337.511	-2.69
337.642	2.31
337.773	-8.69
337.904	21.31
338.035	14.31
338.166	5.31
338.298	6.31
338.429	1.31
338.56	10.31
338.691	1.31
338.822	25.31
338.953	14.31
339.084	23.31
339.215	19.31
339.346	6.31
339.477	7.31
339.608	14.31
339.739	8.31
339.87	-22.69
340.001	-21.69
340.132	18.31
340.263	9.31
340.394	20.31
340.525	14.31
340.656	5.31
340.787	-21.69
340.918	28.31
341.049	9.31
341.179	-2.69
341.31	-8.69
341.441	27.31
341.572	15.31
341.703	-7.69
341.834	-3.69
341.965	10.31
342.096	-19.69
342.227	3.31
342.357	0.31
342.488	1.31
342.619	3.31
342.75	1.31
342.881	-10.69
343.012	26.31
343.142	12.31
343.273	-9.69
343.404	-2.69
343.535	32.31
343.666	11.31
343.796	4.31
343.927	-2.69
344.058	26.31
344.189	11.31
344.319	2.31
344.45	0.31
344.581	2.31
344.712	-13.69
344.842	-5.69
344.973	-2.69
345.104	7.31
345.234	4.31
345.365	-1.69
345.496	-1.69
345.626	11.31
345.757	9.31
345.888	-22.69
346.018	10.31
346.149	-2.69
346.28	19.31
346.41	-1.69
346.541	10.31
346.672	5.31
346.802	24.31
346.933	8.31
347.063	5.31
347.194	-4.69
347.325	6.31
347.455	19.31
347.586	-4.69
347.716	-26.69
347.847	7.31
347.977	11.31
348.108	7.31
348.238	11.31
348.369	8.31
348.499	9.31
348.63	9.31
348.76	2.31
348.891	2.31
349.021	17.31
349.152	9.31
349.282	3.31
349.413	-5.69
349.543	11.31
349.674	2.31
349.804	8.31
349.935	-17.69
350.065	-13.69
350.196	-14.69
350.326	0.31
350.456	-2.69
350.587	30.31
350.717	-6.69
350.848	4.31
350.978	8.31
351.108	-2.69
351.239	18.31
351.369	0.31
351.499	5.31
351.63	-6.69
351.76	-6.69
351.89	8.31
352.021	16.31
352.151	-23.69
352.281	16.31
352.412	28.31
352.542	6.31
352.672	2.31
352.803	10.31
352.933	2.31
353.063	12.31
353.193	-0.69
353.324	2.31
353.454	-2.69
353.584	15.31
353.714	-2.69
353.845	11.31
353.975	-7.69
354.105	5.31
354.235	21.31
354.365	-1.69
354.496	0.31
354.626	20.31
354.756	-1.69
354.886	4.31
355.016	9.31
355.146	-1.69
355.277	6.31
355.407	-7.69
355.537	8.31
355.667	10.31
355.797	-10.69
355.927	2.31
356.057	18.31
356.187	5.31
356.318	-11.69
356.448	3.31
356.578	19.31
356.708	20.31
356.838	2.31
356.968	6.31
357.098	19.31
357.228	14.31
357.358	8.31
357.488	-5.69
357.618	28.31
357.748	9.31
357.878	-0.69
358.008	-6.69
358.138	-2.69
358.268	-4.69
358.398	19.31
358.528	-16.69
358.658	2.31
358.788	11.31
358.918	12.31
359.048	-1.69
359.178	20.31
359.308	10.31
359.438	34.31
359.568	19.31
359.698	-8.69
359.827	-12.69
359.957	0.31
360.087	19.31
360.217	1.31
360.347	6.31
360.477	8.31
360.607	-22.69
360.737	5.31
360.866	-2.69
360.996	-17.69
361.126	2.31
361.256	18.31
361.386	16.31
361.516	13.31
361.645	-0.69
361.775	7.31
361.905	-21.69
362.035	-0.69
362.165	3.31
362.294	10.31
362.424	25.31
362.554	7.31
362.684	-7.69
362.813	-3.69
362.943	15.31
363.073	3.31
363.203	0.31
363.332	11.31
363.462	-11.69
363.592	3.31
363.721	11.31
363.851	16.31
363.981	25.31
364.111	4.31
364.24	-6.69
364.37	-4.69
364.5	25.31
364.629	19.31
364.759	-11.69
364.888	-6.69
365.018	4.31
365.148	5.31
365.277	15.31
365.407	17.31
365.537	15.31
365.666	17.31
365.796	9.31
365.925	13.31
366.055	11.31
366.184	-14.69
366.314	7.31
366.444	18.31
366.573	5.31
366.703	5.31
366.832	36.31
366.962	11.31
367.091	12.31
367.221	11.31
367.35	14.31
367.48	49.31
367.609	10.31
367.739	5.31
367.868	-3.69
367.998	10.31
368.127	15.31
368.257	3.31
368.386	29.31
368.516	21.31
368.645	-6.69
368.775	11.31
368.904	0.31
369.033	-9.69
369.163	-12.69
369.292	16.31
369.422	3.31
369.551	19.31
369.68	34.31
369.81	10.31
369.939	0.31
370.069	23.31
370.198	18.31
370.327	-3.69
370.457	-0.69
370.586	19.31
370.715	2.31
370.845	0.31
370.974	18.31
371.103	7.31
371.233	11.31
371.362	12.31
371.491	2.31
371.621	15.31
371.75	6.31
371.879	-21.69
372.008	-5.69
372.138	20.31
372.267	39.31
372.396	8.31
372.525	12.31
372.655	-1.69
372.784	4.31
372.913	11.31
373.042	16.31
373.172	19.31
373.301	-11.69
373.43	-4.69
373.559	14.31
373.688	1.31
373.818	19.31
373.947	2.31
374.076	-0.69
374.205	14.31
374.334	-8.69
374.463	-1.69
374.593	5.31
374.722	22.31
374.851	27.31
374.98	2.31
375.109	14.31
375.238	27.31
375.367	38.31
375.496	-17.69
375.625	-4.69
375.755	6.31
375.884	20.31
376.013	13.31
376.142	0.31
376.271	6.31
376.4	-7.69
376.529	8.31
376.658	15.31
376.787	8.31
376.916	12.31
377.045	-2.69
377.174	-8.69
377.303	5.31
377.432	28.31
377.561	16.31
377.69	-0.69
377.819	7.31
377.948	-11.69
378.077	7.31
378.206	-2.69
378.335	0.31
378.464	13.31
378.593	29.31
378.722	0.31
378.851	-7.69
378.98	13.31
379.108	-13.69
379.237	13.31
379.366	-4.69
379.495	16.31
379.624	18.31
379.753	17.31
379.882	7.31
380.011	-2.69
380.14	-1.69
380.268	-4.69
380.397	0.31
380.526	33.31
380.655	2.31
380.784	-27.69
380.913	0.31
381.041	-5.69
381.17	-3.69
381.299	-11.69
381.428	23.31
381.557	8.31
381.685	-3.69
381.814	20.31
381.943	19.31
382.072	-2.69
382.2	-7.69
382.329	6.31
382.458	6.31
382.587	21.31
382.715	27.31
382.844	14.31
382.973	17.31
383.102	18.31
383.23	10.31
383.359	-18.69
383.488	-1.69
383.616	5.31
383.745	-6.69
383.874	-2.69
384.003	1.31
384.131	-6.69
384.26	-9.69
384.389	20.31
384.517	-1.69
384.646	-6.69
384.774	9.31
384.903	14.31
385.032	11.31
385.16	12.31
385.289	7.31
385.418	2.31
385.546	4.31
385.675	14.31
385.803	22.31
385.932	9.31
386.06	-16.69
386.189	-18.69
386.318	6.31
386.446	-13.69
386.575	-7.69
386.703	1.31
386.832	-7.69
386.96	-5.69
387.089	24.31
387.217	4.31
387.346	-15.69
387.474	-3.69
387.603	6.31
387.731	3.31
387.86	1.31
387.988	3.31
388.117	8.31
388.245	-0.69
388.374	-5.69
388.502	6.31
388.631	-7.69
388.759	11.31
388.888	2.31
389.016	4.31
389.144	7.31
389.273	18.31
389.401	10.31
389.53	-12.69
389.658	15.31
389.786	-2.69
389.915	-4.69
390.043	-22.69
390.172	16.31
390.3	16.31
390.428	12.31
390.557	2.31
390.685	9.31
390.813	17.31
390.942	30.31
391.07	14.31
391.198	8.31
391.327	-0.69
391.455	4.31
391.583	30.31
391.712	19.31
391.84	8.31
391.968	-1.69
392.096	2.31
392.225	10.31
392.353	12.31
392.481	1.31
392.609	10.31
392.738	-0.69
392.866	9.31
392.994	-2.69
393.122	43.31
393.251	-1.69
393.379	-11.69
393.507	-0.69
393.635	5.31
393.764	21.31
393.892	22.31
394.02	20.31
394.148	8.31
394.276	-12.69
394.404	22.31
394.533	-4.69
394.661	0.31
394.789	-2.69
394.917	23.31
395.045	1.31
395.173	6.31
395.302	2.31
395.43	8.31
395.558	-13.69
395.686	16.31
395.814	16.31
395.942	-5.69
396.07	-10.69
396.198	-2.69
396.326	22.31
396.454	11.31
396.582	13.31
396.711	3.31
396.839	-3.69
396.967	25.31
397.095	9.31
397.223	17.31
397.351	24.31
397.479	17.31
397.607	3.31
397.735	20.31
397.863	5.31
397.991	16.31
398.119	1.31
398.247	16.31
398.375	6.31
398.503	5.31
398.631	13.31
398.759	19.31
398.887	2.31
399.015	2.31
399.143	5.31
399.271	0.31
399.399	28.31
399.526	11.31
399.654	19.31
399.782	-2.69
399.91	24.31
400.038	36.31
400.166	5.31
400.294	0.31
400.422	-6.69
400.55	22.31
400.678	6.31
400.805	18.31
400.933	14.31
401.061	24.31
401.189	5.31
401.317	27.31
401.445	23.31
401.573	16.31
401.7	2.31
401.828	-18.69
401.956	12.31
402.084	20.31
402.212	17.31
402.34	16.31
402.467	30.31
402.595	19.31
402.723	9.31
402.851	26.31
402.978	-20.69
403.106	7.31
403.234	17.31
403.362	21.31
403.489	9.31
403.617	11.31
403.745	13.31
403.873	7.31
404	24.31
404.128	22.31
404.256	16.31
404.384	19.31
404.511	5.31
404.639	-3.69
404.767	4.31
404.894	4.31
405.022	1.31
405.15	5.31
405.277	6.31
405.405	5.31
405.533	9.31
405.66	-9.69
405.788	-22.69
405.916	-14.69
406.043	6.31
406.171	-0.69
406.299	17.31
406.426	0.31
406.554	16.31
406.681	30.31
406.809	14.31
406.937	17.31
407.064	-5.69
407.192	26.31
407.319	12.31
407.447	0.31
407.574	34.31
407.702	23.31
407.83	3.31
407.957	-5.69
408.085	14.31
408.212	8.31
408.34	-2.69
408.467	6.31
408.595	6.31
408.722	16.31
408.85	17.31
408.977	14.31
409.105	15.31
409.232	14.31
409.36	-7.69
409.487	-4.69
409.615	8.31
409.742	23.31
409.87	34.31
409.997	34.31
410.125	22.31
410.252	57.31
410.379	50.31
410.507	30.31
410.634	9.31
410.762	6.31
410.889	11.31
411.017	9.31
411.144	5.31
411.271	8.31
411.399	10.31
411.526	17.31
411.653	3.31
411.781	31.31
411.908	10.31
412.036	2.31
412.163	39.31
412.29	35.31
412.418	-5.69
412.545	25.31
412.672	10.31
412.8	27.31
412.927	19.31
413.054	35.31
413.182	9.31
413.309	2.31
413.436	4.31
413.564	-8.69
413.691	-6.69
413.818	23.31
413.945	-7.69
414.073	-6.69
414.2	7.31
414.327	4.31
414.454	24.31
414.582	7.31
414.709	-8.69
414.836	4.31
414.963	16.31
415.091	18.31
415.218	-11.69
415.345	11.31
415.472	2.31
415.6	5.31
415.727	4.31
415.854	11.31
415.981	20.31
416.108	-5.69
416.236	9.31
416.363	20.31
416.49	20.31
416.617	5.31
416.744	2.31
416.871	21.31
416.998	11.31
417.126	13.31
417.253	13.31
417.38	7.31
417.507	-5.69
417.634	10.31
417.761	20.31
417.888	25.31
418.015	11.31
418.143	12.31
418.27	39.31
418.397	14.31
418.524	5.31
418.651	11.31
418.778	24.31
418.905	36.31
419.032	5.31
419.159	14.31
419.286	42.31
419.413	26.31
419.54	35.31
419.667	10.31
419.794	0.31
419.921	6.31
420.048	20.31
420.175	12.31
420.302	14.31
420.429	4.31
420.556	10.31
420.683	-14.69
420.81	-6.69
420.937	11.31
421.064	19.31
421.191	13.31
421.318	22.31
421.445	27.31
421.572	-4.69
421.699	10.31
421.826	10.31
421.953	14.31
422.08	12.31
422.207	2.31
422.334	5.31
422.461	30.31
422.588	9.31
422.714	25.31
422.841	24.31
422.968	28.31
423.095	27.31
423.222	6.31
423.349	17.31
423.476	24.31
423.603	6.31
423.729	2.31
423.856	5.31
423.983	28.31
424.11	16.31
424.237	18.31
424.364	14.31
424.491	1.31
424.617	-5.69
424.744	-15.69
424.871	17.31
424.998	-0.69
425.125	4.31
425.251	26.31
425.378	6.31
425.505	1.31
425.632	2.31
425.758	-11.69
425.885	6.31
426.012	12.31
426.139	16.31
426.266	9.31
426.392	32.31
426.519	14.31
426.646	5.31
426.772	9.31
426.899	-8.69
427.026	11.31
427.153	14.31
427.279	30.31
427.406	9.31
427.533	-6.69
427.659	8.31
427.786	-0.69
427.913	9.31
428.039	9.31
428.166	-1.69
428.293	2.31
428.419	14.31
428.546	5.31
428.673	3.31
428.799	-9.69
428.926	10.31
429.053	23.31
429.179	21.31
429.306	32.31
429.433	32.31
429.559	29.31
429.686	-6.69
429.812	-6.69
429.939	7.31
430.066	9.31
430.192	13.31
430.319	26.31
430.445	-6.69
430.572	-3.69
430.699	-2.69
430.825	-5.69
430.952	10.31
431.078	6.31
431.205	15.31
431.331	3.31
431.458	14.31
431.584	5.31
431.711	9.31
431.837	21.31
431.964	20.31
432.09	18.31
432.217	-11.69
432.343	5.31
432.47	18.31
432.596	8.31
432.723	12.31
432.849	-0.69
432.976	12.31
433.102	17.31
433.229	4.31
433.355	41.31
433.482	70.31
433.608	149.31
433.735	139.31
433.861	127.31
433.987	155.31
434.114	219.31
434.24	201.31
434.367	62.31
434.493	15.31
434.62	21.31
434.746	18.31
434.872	8.31
434.999	23.31
435.125	11.31
435.252	21.31
435.378	26.31
435.504	11.31
435.631	20.31
435.757	19.31
435.883	12.31
436.01	-15.69
436.136	2.31
436.262	6.31
436.389	-0.69
436.515	17.31
436.641	4.31
436.768	7.31
436.894	16.31
437.02	8.31
437.147	32.31
437.273	17.31
437.399	24.31
437.526	20.31
437.652	11.31
437.778	25.31
437.904	-8.69
438.031	9.31
438.157	16.31
438.283	18.31
438.409	-2.69
438.536	-6.69
438.662	31.31
438.788	17.31
438.914	29.31
439.041	17.31
439.167	21.31
439.293	11.31
439.419	5.31
439.546	12.31
439.672	-4.69
439.798	2.31
439.924	10.31
440.05	18.31
440.177	12.31
440.303	15.31
440.429	5.31
440.555	4.31
440.681	18.31
440.807	17.31
440.934	2.31
441.06	0.31
441.186	-7.69
441.312	-4.69
441.438	22.31
441.564	19.31
441.69	26.31
441.816	12.31
441.943	12.31
442.069	3.31
442.195	19.31
442.321	14.31
442.447	-5.69
442.573	6.31
442.699	6.31
442.825	18.31
442.951	21.31
443.077	28.31
443.203	17.31
443.33	5.31
443.456	7.31
443.582	18.31
443.708	19.31
443.834	26.31
443.96	15.31
444.086	3.31
444.212	35.31
444.338	19.31
444.464	16.31
444.59	34.31
444.716	11.31
444.842	18.31
444.968	-0.69
445.094	13.31
445.22	4.31
445.346	-1.69
445.472	11.31
445.598	16.31
445.724	7.31
445.85	-2.69
445.976	21.31
446.102	16.31
446.228	35.31
446.354	18.31
446.48	3.31
446.605	20.31
446.731	6.31
446.857	10.31
446.983	20.31
447.109	15.31
447.235	12.31
447.361	16.31
447.487	12.31
447.613	1.31
447.739	-8.69
447.865	-8.69
447.99	16.31
448.116	0.31
448.242	10.31
448.368	12.31
448.494	6.31
448.62	18.31
448.746	14.31
448.872	11.31
448.997	-14.69
449.123	7.31
449.249	30.31
449.375	27.31
449.501	5.31
449.627	7.31
449.752	25.31
449.878	-5.69
450.004	1.31
450.13	10.31
450.256	0.31
450.381	3.31
450.507	14.31
450.633	-11.69
450.759	12.31
450.884	6.31
451.01	21.31
451.136	6.31
451.262	13.31
451.388	12.31
451.513	3.31
451.639	8.31
451.765	0.31
451.89	26.31
452.016	0.31
452.142	1.31
452.268	-2.69
452.393	16.31
452.519	9.31
452.645	2.31
452.771	5.31
452.896	-18.69
453.022	0.31
453.148	18.31
453.273	5.31
453.399	4.31
453.525	-14.69
453.65	16.31
453.776	11.31
453.902	6.31
454.027	14.31
454.153	17.31
454.279	16.31
454.404	-1.69
454.53	39.31
454.656	43.31
454.781	4.31
454.907	12.31
455.032	5.31
455.158	26.31
455.284	11.31
455.409	27.31
455.535	34.31
455.66	20.31
455.786	31.31
455.912	18.31
456.037	-3.69
456.163	21.31
456.288	14.31
456.414	-15.69
456.539	-12.69
456.665	11.31
456.791	3.31
456.916	12.31
457.042	18.31
457.167	-1.69
457.293	7.31
457.418	15.31
457.544	11.31
457.669	10.31
457.795	14.31
457.92	18.31
458.046	13.31
458.171	36.31
458.297	6.31
458.422	2.31
458.548	-7.69
458.673	11.31
458.799	-9.69
458.924	-8.69
459.05	15.31
459.175	-4.69
459.301	-2.69
459.426	3.31
459.552	5.31
459.677	-1.69
459.803	26.31
459.928	9.31
460.053	14.31
460.179	-2.69
460.304	19.31
460.43	2.31
460.555	27.31
460.681	8.31
460.806	7.31
460.931	-6.69
461.057	12.31
461.182	32.31
461.308	13.31
461.433	7.31
461.558	-4.69
461.684	29.31
461.809	13.31
461.934	18.31
462.06	22.31
462.185	-3.69
462.311	5.31
462.436	20.31
462.561	2.31
462.687	14.31
462.812	23.31
462.937	2.31
463.063	-8.69
463.188	-9.69
463.313	12.31
463.439	12.31
463.564	-16.69
463.689	18.31
463.814	17.31
463.94	-2.69
464.065	25.31
464.19	23.31
464.316	7.31
464.441	2.31
464.566	-1.69
464.692	10.31
464.817	6.31
464.942	1.31
465.067	-2.69
465.193	-11.69
465.318	6.31
465.443	25.31
465.568	12.31
465.694	3.31
465.819	6.31
465.944	10.31
466.069	0.31
466.194	18.31
466.32	-3.69
466.445	6.31
466.57	4.31
466.695	-5.69
466.82	9.31
466.946	-4.69
467.071	-2.69
467.196	-1.69
467.321	-6.69
467.446	7.31
467.572	23.31
467.697	0.31
467.822	15.31
467.947	14.31
468.072	-5.69
468.197	-16.69
468.323	0.31
468.448	9.31
468.573	-11.69
468.698	5.31
468.823	17.31
468.948	23.31
469.073	22.31
469.198	30.31
469.324	23.31
469.449	5.31
469.574	11.31
469.699	22.31
469.824	35.31
469.949	26.31
470.074	24.31
470.199	38.31
470.324	13.31
470.449	33.31
470.574	2.31
470.7	13.31
470.825	25.31
470.95	44.31
471.075	-0.69
471.2	10.31
471.325	17.31
471.45	11.31
471.575	13.31
471.7	24.31
471.825	-7.69
471.95	2.31
472.075	0.31
472.2	1.31
472.325	-1.69
472.45	9.31
472.575	20.31
472.7	24.31
472.825	15.31
472.95	26.31
473.075	-0.69
473.2	-7.69
473.325	13.31
473.45	5.31
473.575	1.31
473.7	14.31
473.825	6.31
473.95	12.31
474.075	33.31
474.2	9.31
474.325	-4.69
474.45	16.31
474.574	10.31
474.699	24.31
474.824	32.31
474.949	14.31
475.074	5.31
475.199	20.31
475.324	12.31
475.449	-17.69
475.574	27.31
475.699	21.31
475.824	7.31
475.949	29.31
476.073	0.31
476.198	19.31
476.323	30.31
476.448	9.31
476.573	10.31
476.698	0.31
476.823	22.31
476.947	16.31
477.072	1.31
477.197	4.31
477.322	-1.69
477.447	8.31
477.572	2.31
477.697	7.31
477.821	2.31
477.946	4.31
478.071	25.31
478.196	36.31
478.321	9.31
478.445	7.31
478.57	-12.69
478.695	4.31
478.82	24.31
478.945	6.31
479.069	14.31
479.194	-1.69
479.319	18.31
479.444	3.31
479.569	8.31
479.693	21.31
479.818	12.31
479.943	20.31
480.068	25.31
480.192	20.31
480.317	10.31
480.442	12.31
480.567	4.31
480.691	1.31
480.816	18.31
480.941	7.31
481.066	27.31
481.19	20.31
481.315	28.31
481.44	10.31
481.564	-7.69
481.689	29.31
481.814	20.31
481.938	21.31
482.063	-3.69
482.188	11.31
482.313	40.31
482.437	18.31
482.562	14.31
482.687	27.31
482.811	27.31
482.936	28.31
483.061	16.31
483.185	7.31
483.31	27.31
483.435	9.31
483.559	2.31
483.684	9.31
483.808	19.31
483.933	15.31
484.058	-3.69
484.182	10.31
484.307	-0.69
484.432	16.31
484.556	22.31
484.681	24.31
484.805	25.31
484.93	27.31
485.055	51.31
485.179	90.31
485.304	128.31
485.428	364.31
485.553	1251.31
485.678	1731.31
485.802	1634.31
485.927	1786.31
486.051	2627.31
486.176	1629.31
486.3	439.31
486.425	159.31
486.549	84.31
486.674	62.31
486.799	32.31
486.923	15.31
487.048	31.31
487.172	26.31
487.297	24.31
487.421	28.31
487.546	20.31
487.67	38.31
487.795	22.31
487.919	34.31
488.044	37.31
488.168	39.31
488.293	-2.69
488.417	19.31
488.542	13.31
488.666	13.31
488.791	15.31
488.915	23.31
489.04	21.31
489.164	30.31
489.289	37.31
489.413	10.31
489.538	17.31
489.662	24.31
489.786	-3.69
489.911	32.31
490.035	2.31
490.16	5.31
490.284	-13.69
490.409	-6.69
490.533	13.31
490.658	20.31
490.782	29.31
490.906	23.31
491.031	28.31
491.155	21.31
491.28	11.31
491.404	17.31
491.528	33.31
491.653	16.31
491.777	3.31
491.902	-12.69
492.026	1.31
492.15	34.31
492.275	35.31
492.399	16.31
492.524	-2.69
492.648	41.31
492.772	38.31
492.897	29.31
493.021	4.31
493.145	31.31
493.27	18.31
493.394	11.31
493.518	-5.69
493.643	5.31
493.767	36.31
493.891	15.31
494.016	14.31
494.14	7.31
494.264	15.31
494.389	20.31
494.513	0.31
494.637	9.31
494.762	26.31
494.886	34.31
495.01	6.31
495.134	11.31
495.259	24.31
495.383	15.31
495.507	24.31
495.632	31.31
495.756	55.31
495.88	29.31
496.004	14.31
496.129	5.31
496.253	18.31
496.377	20.31
496.501	48.31
496.626	-5.69
496.75	14.31
496.874	14.31
496.998	4.31
497.123	41.31
497.247	13.31
497.371	27.31
497.495	15.31
497.62	15.31
497.744	-2.69
497.868	13.31
497.992	13.31
498.116	17.31
498.241	10.31
498.365	15.31
498.489	11.31
498.613	29.31
498.737	7.31
498.862	15.31
498.986	-3.69
499.11	4.31
499.234	-13.69
499.358	-10.69
499.482	4.31
499.607	21.31
499.731	4.31
499.855	24.31
499.979	5.31
500.103	2.31
500.227	24.31
500.351	12.31
500.476	13.31
500.6	12.31
500.724	7.31
500.848	10.31
500.972	35.31
501.096	37.31
501.22	18.31
501.344	15.31
501.469	5.31
501.593	30.31
501.717	26.31
501.841	17.31
501.965	19.31
502.089	3.31
502.213	11.31
502.337	2.31
502.461	9.31
502.585	20.31
502.709	25.31
502.834	9.31
502.958	2.31
503.082	18.31
503.206	12.31
503.33	19.31
503.454	17.31
503.578	27.31
503.702	23.31
503.826	25.31
503.95	32.31
504.074	6.31
504.198	11.31
504.322	10.31
504.446	10.31
504.57	14.31
504.694	2.31
504.818	9.31
504.942	24.31
505.066	12.31
505.19	15.31
505.314	21.31
505.438	19.31
505.562	11.31
505.686	23.31
505.81	25.31
505.934	22.31
506.058	18.31
506.182	9.31
506.306	28.31
506.43	6.31
506.554	24.31
506.678	20.31
506.802	27.31
506.926	24.31
507.05	18.31
507.174	24.31
507.298	21.31
507.422	15.31
507.546	15.31
507.67	35.31
507.794	1.31
507.918	26.31
508.042	7.31
508.165	6.31
508.289	6.31
508.413	13.31
508.537	-7.69
508.661	33.31
508.785	-5.69
508.909	20.31
509.033	-7.69
509.157	7.31
509.281	10.31
509.405	6.31
509.528	4.31
509.652	14.31
509.776	20.31
509.9	36.31
510.024	27.31
510.148	16.31
510.272	24.31
510.396	8.31
510.519	2.31
510.643	37.31
510.767	18.31
510.891	-2.69
511.015	8.31
511.139	28.31
511.263	34.31
511.386	27.31
511.51	21.31
511.634	3.31
511.758	18.31
511.882	5.31
512.006	10.31
512.129	10.31
512.253	48.31
512.377	13.31
512.501	28.31
512.625	31.31
512.748	10.31
512.872	-1.69
512.996	12.31
513.12	23.31
513.244	11.31
513.367	22.31
513.491	22.31
513.615	1.31
513.739	6.31
513.862	8.31
513.986	1.31
514.11	19.31
514.234	9.31
514.358	29.31
514.481	42.31
514.605	16.31
514.729	20.31
514.853	5.31
514.976	11.31
515.1	13.31
515.224	35.31
515.348	20.31
515.471	13.31
515.595	19.31
515.719	11.31
515.842	25.31
515.966	25.31
516.09	21.31
516.214	20.31
516.337	48.31
516.461	16.31
516.585	8.31
516.708	10.31
516.832	18.31
516.956	6.31
517.08	25.31
517.203	5.31
517.327	7.31
517.451	34.31
517.574	51.31
517.698	14.31
517.822	15.31
517.945	32.31
518.069	26.31
518.193	39.31
518.316	34.31
518.44	27.31
518.564	28.31
518.687	40.31
518.811	37.31
518.935	63.31
519.058	18.31
519.182	29.31
519.306	22.31
519.429	12.31
519.553	51.31
519.676	46.31
519.8	20.31
519.924	9.31
520.047	4.31
520.171	11.31
520.294	5.31
520.418	27.31
520.542	7.31
520.665	26.31
520.789	26.31
520.913	0.31
521.036	-23.69
521.16	-3.69
521.283	10.31
521.407	5.31
521.53	2.31
521.654	-6.69
521.778	30.31
521.901	3.31
522.025	18.31
522.148	-16.69
522.272	10.31
522.395	17.31
522.519	33.31
522.643	9.31
522.766	19.31
522.89	12.31
523.013	22.31
523.137	-3.69
523.26	4.31
523.384	22.31
523.507	4.31
523.631	9.31
523.754	8.31
523.878	15.31
524.002	30.31
524.125	1.31
524.249	-8.69
524.372	12.31
524.496	17.31
524.619	7.31
524.743	5.31
524.866	1.31
524.99	22.31
525.113	11.31
525.237	20.31
525.36	19.31
525.484	24.31
525.607	22.31
525.731	-7.69
525.854	5.31
525.978	24.31
526.101	30.31
526.224	3.31
526.348	10.31
526.471	18.31
526.595	16.31
526.718	-0.69
526.842	0.31
526.965	5.31
527.089	7.31
527.212	14.31
527.336	8.31
527.459	25.31
527.582	26.31
527.706	8.31
527.829	21.31
527.953	36.31
528.076	6.31
528.2	19.31
528.323	9.31
528.446	15.31
528.57	14.31
528.693	28.31
528.817	0.31
528.94	5.31
529.064	34.31
529.187	12.31
529.31	20.31
529.434	17.31
529.557	28.31
529.68	25.31
529.804	16.31
529.927	8.31
530.051	-5.69
530.174	14.31
530.297	7.31
530.421	19.31
530.544	14.31
530.668	20.31
530.791	-7.69
530.914	18.31
531.038	15.31
531.161	10.31
531.284	-6.69
531.408	10.31
531.531	15.31
531.654	12.31
531.778	5.31
531.901	-3.69
532.024	4.31
532.148	-9.69
532.271	-5.69
532.394	32.31
532.518	30.31
532.641	38.31
532.764	48.31
532.888	26.31
533.011	20.31
533.134	9.31
533.258	33.31
533.381	13.31
533.504	7.31
533.628	2.31
533.751	26.31
533.874	-0.69
533.997	25.31
534.121	-3.69
534.244	12.31
534.367	10.31
534.491	30.31
534.614	9.31
534.737	18.31
534.86	20.31
534.984	18.31
535.107	2.31
535.23	19.31
535.354	8.31
535.477	6.31
535.6	-1.69
535.723	24.31
535.847	4.31
535.97	-6.69
536.093	17.31
536.216	0.31
536.34	11.31
536.463	-9.69
536.586	1.31
536.709	3.31
536.833	22.31
536.956	19.31
537.079	2.31
537.202	16.31
537.325	-0.69
537.449	2.31
537.572	30.31
537.695	2.31
537.818	1.31
537.941	7.31
538.065	12.31
538.188	13.31
538.311	30.31
538.434	32.31
538.558	12.31
538.681	26.31
538.804	25.31
538.927	19.31
539.05	21.31
539.173	28.31
539.297	23.31
539.42	22.31
539.543	9.31
539.666	18.31
539.789	19.31
539.913	21.31
540.036	-1.69
540.159	4.31
540.282	2.31
540.405	-7.69
540.528	14.31
540.651	6.31
540.775	2.31
540.898	22.31
541.021	27.31
541.144	10.31
541.267	16.31
541.39	10.31
541.513	36.31
541.637	7.31
541.76	13.31
541.883	15.31
542.006	5.31
542.129	42.31
542.252	3.31
542.375	12.31
542.498	11.31
542.622	25.31
542.745	23.31
542.868	14.31
542.991	23.31
543.114	16.31
543.237	21.31
543.36	17.31
543.483	28.31
543.606	20.31
543.73	14.31
543.853	12.31
543.976	34.31
544.099	18.31
544.222	7.31
544.345	-1.69
544.468	13.31
544.591	8.31
544.714	18.31
544.837	21.31
544.96	-6.69
545.083	17.31
545.206	17.31
545.329	17.31
545.453	12.31
545.576	25.31
545.699	2.31
545.822	5.31
545.945	16.31
546.068	1.31
546.191	20.31
546.314	6.31
546.437	21.31
546.56	16.31
546.683	2.31
546.806	22.31
546.929	-10.69
547.052	-9.69
547.175	9.31
547.298	18.31
547.421	-1.69
547.544	4.31
547.667	0.31
547.79	1.31
547.913	-6.69
548.036	-17.69
548.159	13.31
548.282	-8.69
548.405	4.31
548.528	17.31
548.651	5.31
548.774	17.31
548.897	12.31
549.02	31.31
549.143	27.31
549.266	10.31
549.389	9.31
549.512	5.31
549.635	29.31
549.758	36.31
549.881	-2.69
550.004	4.31
550.127	4.31
550.25	19.31
550.373	5.31
550.496	9.31
550.619	11.31
550.742	5.31
550.865	-5.69
550.988	9.31
551.111	24.31
551.234	24.31
551.356	6.31
551.479	0.31
551.602	3.31
551.725	30.31
551.848	13.31
551.971	13.31
552.094	-0.69
552.217	1.31
552.34	3.31
552.463	-21.69
552.586	11.31
552.709	7.31
552.832	22.31
552.955	10.31
553.077	25.31
553.2	32.31
553.323	-6.69
553.446	25.31
553.569	7.31
553.692	4.31
553.815	-3.69
553.938	20.31
554.061	13.31
554.184	6.31
554.306	18.31
554.429	6.31
554.552	14.31
554.675	-5.69
554.798	13.31
554.921	34.31
555.044	13.31
555.167	-4.69
555.29	-1.69
555.412	1.31
555.535	13.31
555.658	13.31
555.781	12.31
555.904	19.31
556.027	16.31
556.15	18.31
556.272	3.31
556.395	12.31
556.518	-1.69
556.641	6.31
556.764	27.31
556.887	30.31
557.01	8.31
557.132	10.31
557.255	2.31
557.378	6.31
557.501	1.31
557.624	8.31
557.747	3.31
557.869	13.31
557.992	14.31
558.115	19.31
558.238	9.31
558.361	10.31
558.483	10.31
558.606	-7.69
558.729	-1.69
558.852	42.31
558.975	21.31
559.098	29.31
559.22	36.31
559.343	-1.69
559.466	23.31
559.589	8.31
559.712	14.31
559.834	16.31
559.957	-1.69
560.08	1.31
560.203	21.31
560.325	35.31
560.448	33.31
560.571	10.31
560.694	11.31
560.817	12.31
560.939	-5.69
561.062	1.31
561.185	7.31
561.308	-7.69
561.43	-7.69
561.553	-1.69
561.676	5.31
561.799	14.31
561.921	12.31
562.044	-2.69
562.167	-10.69
562.29	17.31
562.413	29.31
562.535	14.31
562.658	-11.69
562.781	7.31
562.903	18.31
563.026	6.31
563.149	37.31
563.272	15.31
563.394	6.31
563.517	14.31
563.64	-10.69
563.763	12.31
563.885	16.31
564.008	28.31
564.131	19.31
564.254	5.31
564.376	14.31
564.499	1.31
564.622	-4.69
564.744	10.31
564.867	13.31
564.99	4.31
565.113	-4.69
565.235	5.31
565.358	0.31
565.481	-5.69
565.603	5.31
565.726	4.31
565.849	16.31
565.971	15.31
566.094	0.31
566.217	8.31
566.34	18.31
566.462	7.31
566.585	25.31
566.708	19.31
566.83	1.31
566.953	29.31
567.076	8.31
567.198	-2.69
567.321	12.31
567.444	5.31
567.566	1.31
567.689	-3.69
567.812	10.31
567.934	21.31
568.057	9.31
568.18	25.31
568.302	8.31
568.425	-6.69
568.548	20.31
568.67	23.31
568.793	5.31
568.916	18.31
569.038	9.31
569.161	7.31
569.283	11.31
569.406	15.31
569.529	6.31
569.651	-6.69
569.774	5.31
569.897	13.31
570.019	29.31
570.142	13.31
570.265	18.31
570.387	-2.69
570.51	18.31
570.632	26.31
570.755	4.31
570.878	3.31
571	14.31
571.123	2.31
571.246	26.31
571.368	5.31
571.491	9.31
571.613	13.31
571.736	-6.69
571.859	17.31
571.981	2.31
572.104	9.31
572.226	11.31
572.349	14.31
572.472	7.31
572.594	10.31
572.717	9.31
572.839	5.31
572.962	15.31
573.085	21.31
573.207	11.31
573.33	11.31
573.452	11.31
573.575	15.31
573.697	4.31
573.82	4.31
573.943	3.31
574.065	10.31
574.188	-8.69
574.31	19.31
574.433	4.31
574.555	36.31
574.678	11.31
574.801	21.31
574.923	7.31
575.046	12.31
575.168	14.31
575.291	-2.69
575.413	10.31
575.536	-1.69
575.659	14.31
575.781	6.31
575.904	17.31
576.026	9.31
576.149	-2.69
576.271	11.31
576.394	13.31
576.516	15.31
576.639	9.31
576.761	1.31
576.884	-12.69
577.007	8.31
577.129	2.31
577.252	21.31
577.374	22.31
577.497	26.31
577.619	23.31
577.742	11.31
577.864	16.31
577.987	13.31
578.109	16.31
578.232	14.31
578.354	27.31
578.477	17.31
578.599	10.31
578.722	-8.69
578.844	-1.69
578.967	12.31
579.089	9.31
579.212	2.31
579.334	24.31
579.457	0.31
579.579	21.31
579.702	8.31
579.824	5.31
579.947	-5.69
580.069	-2.69
580.192	3.31
580.314	5.31
580.437	4.31
580.559	29.31
580.682	10.31
580.804	25.31
580.927	18.31
581.049	36.31
581.172	30.31
581.294	22.31
581.417	14.31
581.539	14.31
581.662	32.31
581.784	27.31
581.907	24.31
582.029	28.31
582.152	1.31
582.274	14.31
582.396	14.31
582.519	12.31
582.641	-11.69
582.764	-20.69
582.886	18.31
583.009	16.31
583.131	-5.69
583.254	10.31
583.376	25.31
583.499	18.31
583.621	9.31
583.743	24.31
583.866	18.31
583.988	16.31
584.111	15.31
584.233	18.31
584.356	16.31
584.478	20.31
584.601	-7.69
584.723	6.31
584.845	20.31
584.968	1.31
585.09	-0.69
585.213	20.31
585.335	0.31
585.458	1.31
585.58	-6.69
585.702	-1.69
585.825	22.31
585.947	21.31
586.07	-7.69
586.192	2.31
586.315	26.31
586.437	7.31
586.559	1.31
586.682	4.31
586.804	21.31
586.927	15.31
587.049	36.31
587.171	31.31
587.294	19.31
587.416	35.31
587.539	17.31
587.661	3.31
587.783	12.31
587.906	-11.69
588.028	23.31
588.151	21.31
588.273	25.31
588.395	11.31
588.518	14.31
588.64	8.31
588.763	24.31
588.885	10.31
589.007	14.31
589.13	2.31
589.252	-1.69
589.375	16.31
589.497	2.31
589.619	8.31
589.742	5.31
589.864	32.31
589.986	18.31
590.109	-6.69
590.231	-17.69
590.354	9.31
590.476	-4.69
590.598	-10.69
590.721	-10.69
590.843	17.31
590.965	0.31
591.088	-4.69
591.21	8.31
591.332	20.31
591.455	-9.69
591.577	3.31
591.7	2.31
591.822	11.31
591.944	1.31
592.067	6.31
592.189	14.31
592.311	15.31
592.434	20.31
592.556	18.31
592.678	11.31
592.801	17.31
592.923	3.31
593.045	-12.69
593.168	16.31
593.29	13.31
593.412	23.31
593.535	-7.69
593.657	10.31
593.779	18.31
593.902	30.31
594.024	13.31
594.146	24.31
594.269	14.31
594.391	0.31
594.513	12.31
594.636	18.31
594.758	-10.69
594.88	17.31
595.003	16.31
595.125	0.31
595.247	7.31
595.37	15.31
595.492	-3.69
595.614	23.31
595.737	-10.69
595.859	0.31
595.981	-4.69
596.104	10.31
596.226	-1.69
596.348	16.31
596.471	-0.69
596.593	24.31
596.715	8.31
596.838	1.31
596.96	-3.69
597.082	17.31
597.204	30.31
597.327	20.31
597.449	10.31
597.571	5.31
597.694	31.31
597.816	30.31
597.938	26.31
598.061	3.31
598.183	9.31
598.305	15.31
598.427	21.31
598.55	22.31
598.672	15.31
598.794	17.31
598.917	-4.69
599.039	13.31
599.161	11.31
599.283	10.31
599.406	13.31
599.528	17.31
599.65	31.31
599.773	20.31
599.895	32.31
600.017	18.31
600.139	12.31
600.262	0.31
600.384	2.31
600.506	14.31
600.628	4.31
600.751	24.31
600.873	25.31
600.995	7.31
601.118	24.31
601.24	15.31
601.362	25.31
601.484	24.31
601.607	23.31
601.729	3.31
601.851	-5.69
601.973	2.31
602.096	17.31
602.218	17.31
602.34	8.31
602.462	28.31
602.585	-7.69
602.707	7.31
602.829	18.31
602.951	8.31
603.074	-8.69
603.196	32.31
603.318	10.31
603.44	34.31
603.563	21.31
603.685	0.31
603.807	5.31
603.929	35.31
604.052	4.31
604.174	20.31
604.296	20.31
604.418	22.31
604.541	16.31
604.663	-2.69
604.785	16.31
604.907	6.31
605.03	1.31
605.152	36.31
605.274	9.31
605.396	0.31
605.519	-2.69
605.641	-1.69
605.763	6.31
605.885	11.31
606.008	12.31
606.13	20.31
606.252	21.31
606.374	-15.69
606.496	9.31
606.619	9.31
606.741	5.31
606.863	17.31
606.985	26.31
607.108	20.31
607.23	9.31
607.352	12.31
607.474	3.31
607.596	15.31
607.719	17.31
607.841	39.31
607.963	0.31
608.085	-0.69
608.207	32.31
608.33	17.31
608.452	12.31
608.574	-5.69
608.696	14.31
608.819	3.31
608.941	2.31
609.063	9.31
609.185	7.31
609.307	9.31
609.43	28.31
609.552	28.31
609.674	-22.69
609.796	16.31
609.918	28.31
610.041	13.31
610.163	9.31
610.285	12.31
610.407	17.31
610.529	-1.69
610.652	24.31
610.774	21.31
610.896	4.31
611.018	15.31
611.14	4.31
611.263	13.31
611.385	-2.69
611.507	10.31
611.629	3.31
611.751	20.31
611.873	44.31
611.996	3.31
612.118	24.31
612.24	10.31
612.362	9.31
612.484	18.31
612.607	8.31
612.729	17.31
612.851	7.31
612.973	-4.69
613.095	1.31
613.218	24.31
613.34	26.31
613.462	23.31
613.584	4.31
613.706	21.31
613.828	27.31
613.951	16.31
614.073	14.31
614.195	-19.69
614.317	35.31
614.439	28.31
614.561	18.31
614.684	15.31
614.806	10.31
614.928	12.31
615.05	23.31
615.172	13.31
615.294	23.31
615.417	10.31
615.539	4.31
615.661	25.31
615.783	34.31
615.905	22.31
616.027	61.31
616.15	101.31
616.272	64.31
616.394	65.31
616.516	45.31
616.638	18.31
616.76	11.31
616.883	16.31
617.005	7.31
617.127	10.31
617.249	-1.69
617.371	18.31
617.493	-1.69
617.615	16.31
617.738	6.31
617.86	22.31
617.982	17.31
618.104	10.31
618.226	8.31
618.348	7.31
618.471	24.31
618.593	21.31
618.715	15.31
618.837	12.31
618.959	21.31
619.081	12.31
619.203	18.31
619.326	7.31
619.448	32.31
619.57	4.31
619.692	7.31
619.814	2.31
619.936	18.31
620.058	14.31
620.181	16.31
620.303	25.31
620.425	22.31
620.547	12.31
620.669	2.31
620.791	18.31
620.913	-4.69
621.036	8.31
621.158	15.31
621.28	6.31
621.402	-2.69
621.524	26.31
621.646	20.31
621.768	-2.69
621.891	-7.69
622.013	-5.69
622.135	2.31
622.257	-9.69
622.379	3.31
622.501	3.31
622.623	11.31
622.745	17.31
622.868	22.31
622.99	12.31
623.112	10.31
623.234	10.31
623.356	13.31
623.478	8.31
623.6	11.31
623.722	10.31
623.845	15.31
623.967	-14.69
624.089	6.31
624.211	6.31
624.333	22.31
624.455	7.31
624.577	15.31
624.699	14.31
624.822	12.31
624.944	4.31
625.066	6.31
625.188	7.31
625.31	7.31
625.432	18.31
625.554	1.31
625.676	34.31
625.799	2.31
625.921	2.31
626.043	7.31
626.165	23.31
626.287	-13.69
626.409	18.31
626.531	1.31
626.653	12.31
626.775	11.31
626.898	7.31
627.02	13.31
627.142	11.31
627.264	12.31
627.386	1.31
627.508	-3.69
627.63	-14.69
627.752	9.31
627.874	0.31
627.997	24.31
628.119	20.31
628.241	23.31
628.363	15.31
628.485	9.31
628.607	14.31
628.729	0.31
628.851	-9.69
628.973	-7.69
629.096	-2.69
629.218	0.31
629.34	24.31
629.462	-5.69
629.584	15.31
629.706	31.31
629.828	37.31
629.95	4.31
630.072	0.31
630.195	17.31
630.317	14.31
630.439	10.31
630.561	12.31
630.683	10.31
630.805	17.31
630.927	21.31
631.049	14.31
631.171	10.31
631.293	22.31
631.416	11.31
631.538	-7.69
631.66	9.31
631.782	19.31
631.904	25.31
632.026	20.31
632.148	23.31
632.27	3.31
632.392	18.31
632.514	16.31
632.637	19.31
632.759	9.31
632.881	12.31
633.003	4.31
633.125	-6.69
633.247	13.31
633.369	8.31
633.491	-7.69
633.613	20.31
633.735	8.31
633.858	5.31
633.98	16.31
634.102	3.31
634.224	6.31
634.346	0.31
634.468	19.31
634.59	28.31
634.712	16.31
634.834	17.31
634.956	16.31
635.078	-12.69
635.201	-3.69
635.323	5.31
635.445	6.31
635.567	-14.69
635.689	12.31
635.811	6.31
635.933	9.31
636.055	7.31
636.177	8.31
636.299	28.31
636.421	11.31
636.544	-12.69
636.666	9.31
636.788	8.31
636.91	7.31
637.032	5.31
637.154	22.31
637.276	37.31
637.398	29.31
637.52	17.31
637.642	11.31
637.764	14.31
637.887	12.31
638.009	11.31
638.131	8.31
638.253	-3.69
638.375	30.31
638.497	9.31
638.619	-1.69
638.741	0.31
638.863	-9.69
638.985	-26.69
639.107	14.31
639.23	15.31
639.352	0.31
639.474	-6.69
639.596	11.31
639.718	12.31
639.84	5.31
639.962	-0.69
640.084	16.31
640.206	7.31
640.328	1.31
640.45	7.31
640.573	6.31
640.695	-6.69
640.817	9.31
640.939	13.31
641.061	29.31
641.183	1.31
641.305	7.31
641.427	-4.69
641.549	13.31
641.671	8.31
641.793	14.31
641.915	26.31
642.038	-1.69
642.16	5.31
642.282	6.31
642.404	13.31
642.526	15.31
642.648	1.31
642.77	-1.69
642.892	-2.69
643.014	18.31
643.136	13.31
643.258	1.31
643.381	26.31
643.503	24.31
643.625	13.31
643.747	5.31
643.869	3.31
643.991	25.31
644.113	26.31
644.235	-2.69
644.357	16.31
644.479	19.31
644.601	-10.69
644.723	3.31
644.846	21.31
644.968	8.31
645.09	0.31
645.212	12.31
645.334	14.31
645.456	28.31
645.578	42.31
645.7	29.31
645.822	23.31
645.944	32.31
646.066	16.31
646.188	0.31
646.311	21.31
646.433	16.31
646.555	42.31
646.677	46.31
646.799	45.31
646.921	26.31
647.043	39.31
647.165	4.31
647.287	12.31
647.409	9.31
647.531	17.31
647.654	4.31
647.776	21.31
647.898	20.31
648.02	-0.69
648.142	2.31
648.264	-6.69
648.386	2.31
648.508	-3.69
648.63	12.31
648.752	24.31
648.874	10.31
648.997	6.31
649.119	22.31
649.241	15.31
649.363	21.31
649.485	31.31
649.607	14.31
649.729	-8.69
649.851	7.31
649.973	-3.69
650.095	23.31
650.217	-6.69
650.34	-3.69
650.462	10.31
650.584	22.31
650.706	27.31
650.828	25.31
650.95	-2.69
651.072	14.31
651.194	-2.69
651.316	2.31
651.438	3.31
651.56	-2.69
651.683	3.31
651.805	1.31
651.927	0.31
652.049	0.31
652.171	17.31
652.293	-3.69
652.415	-6.69
652.537	10.31
652.659	-19.69
652.781	12.31
652.903	16.31
653.026	20.31
653.148	3.31
653.27	3.31
653.392	1.31
653.514	10.31
653.636	-10.69
653.758	-5.69
653.88	3.31
654.002	8.31
654.124	8.31
654.247	10.31
654.369	31.31
654.491	12.31
654.613	9.31
654.735	-3.69
654.857	32.31
654.979	14.31
655.101	7.31
655.223	44.31
655.345	27.31
655.468	29.31
655.59	12.31
655.712	40.31
655.834	28.31
655.956	40.31
656.078	28.31
656.2	34.31
656.322	30.31
656.444	24.31
656.566	45.31
656.689	50.31
656.811	60.31
656.933	102.31
657.055	85.31
657.177	148.31
657.299	248.31
657.421	497.31
657.543	1849.31
657.665	12524.31
657.787	15174.31
657.91	15256.31
658.032	15663.31
658.154	4551.31
658.276	3500.31
658.398	1171.31
658.52	1014.31
658.642	488.31
658.764	586.31
658.886	279.31
659.009	400.31
659.131	201.31
659.253	325.31
659.375	152.31
659.497	241.31
659.619	134.31
659.741	226.31
659.863	104.31
659.985	162.31
660.108	90.31
660.23	138.31
660.352	91.31
660.474	166.31
660.596	66.31
660.718	149.31
660.84	55.31
660.962	120.31
661.084	58.31
661.207	93.31
661.329	62.31
661.451	87.31
661.573	45.31
661.695	104.31
661.817	62.31
661.939	110.31
662.061	74.31
662.184	70.31
662.306	40.31
662.428	76.31
662.55	49.31
662.672	57.31
662.794	42.31
662.916	71.31
663.038	36.31
663.161	93.31
663.283	46.31
663.405	54.31
663.527	29.31
663.649	82.31
663.771	29.31
663.893	54.31
664.015	26.31
664.138	63.31
664.26	34.31
664.382	48.31
664.504	9.31
664.626	18.31
664.748	14.31
664.87	31.31
664.992	39.31
665.115	42.31
665.237	14.31
665.359	28.31
665.481	38.31
665.603	41.31
665.725	8.31
665.847	33.31
665.97	12.31
666.092	50.31
666.214	18.31
666.336	25.31
666.458	25.31
666.58	48.31
666.702	6.31
666.825	20.31
666.947	9.31
667.069	42.31
667.191	24.31
667.313	30.31
667.435	10.31
667.557	20.31
667.68	-6.69
667.802	29.31
667.924	21.31
668.046	40.31
668.168	49.31
668.29	62.31
668.412	14.31
668.535	29.31
668.657	2.31
668.779	18.31
668.901	7.31
669.023	38.31
669.145	16.31
669.267	46.31
669.39	18.31
669.512	36.31
669.634	27.31
669.756	25.31
669.878	6.31
670	23.31
670.123	13.31
670.245	26.31
670.367	15.31
670.489	26.31
670.611	-3.69
670.733	28.31
670.856	17.31
670.978	27.31
671.1	25.31
671.222	16.31
671.344	18.31
671.466	25.31
671.589	9.31
671.711	17.31
671.833	21.31
671.955	26.31
672.077	13.31
672.199	32.31
672.322	41.31
672.444	40.31
672.566	30.31
672.688	29.31
672.81	6.31
672.932	22.31
673.055	8.31
673.177	19.31
673.299	14.31
673.421	13.31
673.543	20.31
673.665	42.31
673.788	16.31
673.91	17.31
674.032	-23.69
674.154	22.31
674.276	24.31
674.399	15.31
674.521	15.31
674.643	23.31
674.765	0.31
674.887	12.31
675.009	16.31
675.132	16.31
675.254	11.31
675.376	14.31
675.498	11.31
675.62	32.31
675.743	14.31
675.865	33.31
675.987	18.31
676.109	15.31
676.231	14.31
676.354	38.31
676.476	-3.69
676.598	25.31
676.72	15.31
676.842	33.31
676.965	10.31
677.087	9.31
677.209	17.31
677.331	10.31
677.453	0.31
677.576	24.31
677.698	6.31
677.82	21.31
677.942	-4.69
678.064	8.31
678.187	7.31
678.309	9.31
678.431	7.31
678.553	18.31
678.675	44.31
678.798	32.31
678.92	5.31
679.042	16.31
679.164	9.31
679.286	12.31
679.409	11.31
679.531	-7.69
679.653	10.31
679.775	15.31
679.898	0.31
680.02	-5.69
680.142	-2.69
680.264	12.31
680.386	-3.69
680.509	21.31
680.631	10.31
680.753	13.31
680.875	5.31
680.998	11.31
681.12	2.31
681.242	19.31
681.364	5.31
681.486	23.31
681.609	4.31
681.731	2.31
681.853	4.31
681.975	2.31
682.098	14.31
682.22	18.31
682.342	5.31
682.464	24.31
682.587	8.31
682.709	24.31
682.831	0.31
682.953	18.31
683.076	9.31
683.198	21.31
683.32	-3.69
683.442	23.31
683.565	14.31
683.687	6.31
683.809	11.31
683.931	6.31
684.054	18.31
684.176	28.31
684.298	24.31
684.42	11.31
684.543	0.31
684.665	2.31
684.787	-6.69
684.909	0.31
685.032	17.31
685.154	5.31
685.276	0.31
685.398	17.31
685.521	-5.69
685.643	6.31
685.765	11.31
685.887	17.31
686.01	2.31
686.132	10.31
686.254	12.31
686.377	22.31
686.499	2.31
686.621	10.31
686.743	22.31
686.866	17.31
686.988	20.31
687.11	23.31
687.232	7.31
687.355	-2.69
687.477	9.31
687.599	-1.69
687.722	-4.69
687.844	12.31
687.966	3.31
688.088	16.31
688.211	26.31
688.333	14.31
688.455	14.31
688.578	12.31
688.7	14.31
688.822	23.31
688.944	-5.69
689.067	34.31
689.189	12.31
689.311	-1.69
689.434	3.31
689.556	-5.69
689.678	11.31
689.801	8.31
689.923	30.31
690.045	25.31
690.167	12.31
690.29	21.31
690.412	-2.69
690.534	20.31
690.657	2.31
690.779	3.31
690.901	21.31
691.024	21.31
691.146	15.31
691.268	5.31
691.391	16.31
691.513	27.31
691.635	24.31
691.758	37.31
691.88	32.31
692.002	19.31
692.125	6.31
692.247	6.31
692.369	4.31
692.492	10.31
692.614	-0.69
692.736	12.31
692.859	6.31
692.981	0.31
693.103	14.31
693.226	5.31
693.348	28.31
693.47	8.31
693.593	20.31
693.715	-9.69
693.837	-8.69
693.96	-2.69
694.082	6.31
694.204	11.31
694.327	2.31
694.449	5.31
694.571	11.31
694.694	23.31
694.816	23.31
694.938	-6.69
695.061	0.31
695.183	11.31
695.305	6.31
695.428	6.31
695.55	-4.69
695.672	-19.69
695.795	4.31
695.917	28.31
696.04	22.31
696.162	5.31
696.284	2.31
696.407	19.31
696.529	2.31
696.651	25.31
696.774	13.31
696.896	32.31
697.019	7.31
697.141	12.31
697.263	0.31
697.386	5.31
697.508	-9.69
697.63	15.31
697.753	16.31
697.875	19.31
697.998	-2.69
698.12	22.31
698.242	19.31
698.365	17.31
698.487	-3.69
698.61	16.31
698.732	12.31
698.854	38.31
698.977	2.31
699.099	18.31
699.221	-7.69
699.344	6.31
699.466	2.31
699.589	15.31
699.711	8.31
699.834	1.31
699.956	0.31
700.078	9.31
700.201	-2.69
700.323	7.31
700.446	-6.69
700.568	-3.69
700.69	-5.69
700.813	12.31
700.935	1.31
701.058	4.31
701.18	8.31
701.302	14.31
701.425	7.31
701.547	12.31
701.67	1.31
701.792	11.31
701.915	-2.69
702.037	-7.69
702.159	5.31
702.282	2.31
702.404	4.31
702.527	13.31
702.649	20.31
702.772	19.31
702.894	5.31
703.017	14.31
703.139	3.31
703.261	28.31
703.384	6.31
703.506	-15.69
703.629	9.31
703.751	10.31
703.874	11.31
703.996	3.31
704.119	-10.69
704.241	9.31
704.364	-5.69
704.486	16.31
704.608	16.31
704.731	12.31
704.853	11.31
704.976	19.31
705.098	9.31
705.221	15.31
705.343	9.31
705.466	27.31
705.588	26.31
705.711	24.31
705.833	29.31
705.956	3.31
706.078	13.31
706.201	10.31
706.323	12.31
706.446	-3.69
