Data from LowRes_H2_15_26_11_07_2024_HR4C61881__53__15-28-18-937.txt Node

Date: Thu Nov 07 15:28:18 EST 2024
User: crc00042
Spectrometer: HR4C6188
Trigger mode: 4
Integration Time (sec): 1.000000E-1
Scans to average: 1
Electric dark correction enabled: true
Nonlinearity correction enabled: false
Boxcar width: 0
XAxis mode: Wavelengths
Number of Pixels in Spectrum: 3648
>>>>>Begin Spectral Data<<<<<
245.66	-112.15
245.797	-112.15
245.934	-112.15
246.071	-74.15
246.208	-10.15
246.344	8.85
246.481	-17.15
246.618	-10.15
246.755	-0.15
246.892	6.85
247.029	-4.15
247.165	-14.15
247.302	14.85
247.439	-2.15
247.576	-2.15
247.713	-21.15
247.849	21.85
247.986	18.85
248.123	13.85
248.26	11.85
248.396	0.85
248.533	-10.15
248.67	-15.15
248.806	6.85
248.943	-13.15
249.08	10.85
249.216	13.85
249.353	-14.15
249.49	-22.15
249.626	-6.15
249.763	6.85
249.9	-1.15
250.036	-2.15
250.173	2.85
250.309	-3.15
250.446	4.85
250.582	1.85
250.719	-21.15
250.856	-9.15
250.992	-16.15
251.129	-12.15
251.265	-11.15
251.402	-4.15
251.538	5.85
251.675	-19.15
251.811	17.85
251.948	18.85
252.084	10.85
252.221	-22.15
252.357	-11.15
252.493	28.85
252.63	-6.15
252.766	3.85
252.903	-14.15
253.039	-13.15
253.175	-1.15
253.312	4.85
253.448	2.85
253.585	-6.15
253.721	-9.15
253.857	-11.15
253.994	17.85
254.13	-5.15
254.266	6.85
254.403	-18.15
254.539	-16.15
254.675	-2.15
254.811	7.85
254.948	0.85
255.084	-3.15
255.22	-4.15
255.356	-14.15
255.493	-6.15
255.629	5.85
255.765	12.85
255.901	17.85
256.037	-5.15
256.174	-10.15
256.31	-11.15
256.446	1.85
256.582	-1.15
256.718	9.85
256.854	-1.15
256.991	6.85
257.127	16.85
257.263	-16.15
257.399	-13.15
257.535	-13.15
257.671	-2.15
257.807	-13.15
257.943	-15.15
258.079	-16.15
258.215	-3.15
258.351	3.85
258.487	0.85
258.623	10.85
258.759	-6.15
258.895	-11.15
259.031	-15.15
259.167	-16.15
259.303	9.85
259.439	-19.15
259.575	-13.15
259.711	-0.15
259.847	-9.15
259.983	-4.15
260.119	-1.15
260.255	0.85
260.391	-0.15
260.527	18.85
260.663	9.85
260.799	-5.15
260.934	-13.15
261.07	-7.15
261.206	-12.15
261.342	-15.15
261.478	4.85
261.614	15.85
261.749	-9.15
261.885	-6.15
262.021	9.85
262.157	16.85
262.293	-14.15
262.428	-8.15
262.564	-3.15
262.7	15.85
262.836	-2.15
262.971	20.85
263.107	6.85
263.243	10.85
263.378	5.85
263.514	-35.15
263.65	-1.15
263.785	-12.15
263.921	-7.15
264.057	-9.15
264.192	5.85
264.328	11.85
264.464	-11.15
264.599	9.85
264.735	20.85
264.871	-9.15
265.006	1.85
265.142	-10.15
265.277	-15.15
265.413	10.85
265.548	15.85
265.684	27.85
265.819	19.85
265.955	-26.15
266.091	-20.15
266.226	-11.15
266.362	-11.15
266.497	-6.15
266.633	3.85
266.768	-6.15
266.903	25.85
267.039	14.85
267.174	19.85
267.31	3.85
267.445	-5.15
267.581	-8.15
267.716	16.85
267.851	19.85
267.987	-1.15
268.122	19.85
268.258	0.85
268.393	-11.15
268.528	20.85
268.664	-18.15
268.799	-8.15
268.934	3.85
269.07	-7.15
269.205	-10.15
269.34	15.85
269.476	7.85
269.611	-10.15
269.746	19.85
269.881	0.85
270.017	15.85
270.152	9.85
270.287	16.85
270.422	-6.15
270.558	-20.15
270.693	11.85
270.828	2.85
270.963	-11.15
271.098	-11.15
271.234	-26.15
271.369	5.85
271.504	11.85
271.639	-13.15
271.774	-9.15
271.909	2.85
272.045	-28.15
272.18	-7.15
272.315	-7.15
272.45	17.85
272.585	-15.15
272.72	-3.15
272.855	-3.15
272.99	11.85
273.125	-7.15
273.26	-24.15
273.395	-6.15
273.53	-10.15
273.665	22.85
273.8	-7.15
273.935	5.85
274.07	-0.15
274.205	-6.15
274.34	-7.15
274.475	6.85
274.61	16.85
274.745	-14.15
274.88	14.85
275.015	-5.15
275.15	20.85
275.285	6.85
275.42	-0.15
275.555	6.85
275.69	4.85
275.825	-9.15
275.959	6.85
276.094	11.85
276.229	-1.15
276.364	-22.15
276.499	-3.15
276.634	0.85
276.768	2.85
276.903	-4.15
277.038	11.85
277.173	2.85
277.308	-13.15
277.442	-3.15
277.577	0.85
277.712	-2.15
277.847	10.85
277.981	19.85
278.116	-24.15
278.251	-2.15
278.386	17.85
278.52	0.85
278.655	11.85
278.79	9.85
278.924	3.85
279.059	-1.15
279.194	-11.15
279.328	41.85
279.463	-3.15
279.598	18.85
279.732	5.85
279.867	11.85
280.001	2.85
280.136	-6.15
280.271	13.85
280.405	8.85
280.54	4.85
280.674	-10.15
280.809	39.85
280.943	-7.15
281.078	-3.15
281.213	10.85
281.347	13.85
281.482	9.85
281.616	9.85
281.751	-8.15
281.885	-5.15
282.02	5.85
282.154	11.85
282.288	-5.15
282.423	-16.15
282.557	-15.15
282.692	10.85
282.826	15.85
282.961	-2.15
283.095	16.85
283.229	11.85
283.364	4.85
283.498	9.85
283.633	7.85
283.767	7.85
283.901	14.85
284.036	1.85
284.17	-14.15
284.304	-17.15
284.439	-15.15
284.573	-2.15
284.707	17.85
284.842	6.85
284.976	-1.15
285.11	-23.15
285.244	10.85
285.379	55.85
285.513	-1.15
285.647	1.85
285.781	-11.15
285.916	18.85
286.05	-5.15
286.184	28.85
286.318	16.85
286.453	-16.15
286.587	-17.15
286.721	-17.15
286.855	10.85
286.989	19.85
287.123	2.85
287.258	-21.15
287.392	-6.15
287.526	-5.15
287.66	3.85
287.794	-4.15
287.928	10.85
288.062	-2.15
288.196	-12.15
288.33	13.85
288.464	14.85
288.598	5.85
288.733	4.85
288.867	12.85
289.001	4.85
289.135	6.85
289.269	-5.15
289.403	2.85
289.537	5.85
289.671	0.85
289.805	-13.15
289.939	7.85
290.073	-8.15
290.207	20.85
290.34	1.85
290.474	27.85
290.608	6.85
290.742	-8.15
290.876	-9.15
291.01	-15.15
291.144	11.85
291.278	24.85
291.412	11.85
291.546	14.85
291.679	13.85
291.813	-4.15
291.947	13.85
292.081	6.85
292.215	-1.15
292.349	2.85
292.482	3.85
292.616	-9.15
292.75	-6.15
292.884	0.85
293.018	-6.15
293.151	-21.15
293.285	-5.15
293.419	-10.15
293.553	-16.15
293.686	-16.15
293.82	9.85
293.954	4.85
294.088	0.85
294.221	3.85
294.355	-8.15
294.489	-5.15
294.622	2.85
294.756	11.85
294.89	16.85
295.023	0.85
295.157	11.85
295.291	2.85
295.424	12.85
295.558	-1.15
295.691	-14.15
295.825	-20.15
295.959	13.85
296.092	-14.15
296.226	-7.15
296.359	-2.15
296.493	14.85
296.627	-21.15
296.76	0.85
296.894	9.85
297.027	-14.15
297.161	2.85
297.294	-33.15
297.428	4.85
297.561	12.85
297.695	-1.15
297.828	5.85
297.962	-8.15
298.095	10.85
298.229	5.85
298.362	-4.15
298.495	-3.15
298.629	-14.15
298.762	-13.15
298.896	17.85
299.029	-14.15
299.162	3.85
299.296	-13.15
299.429	-3.15
299.563	11.85
299.696	4.85
299.829	1.85
299.963	14.85
300.096	19.85
300.229	5.85
300.363	-4.15
300.496	7.85
300.629	-32.15
300.763	-8.15
300.896	0.85
301.029	-9.15
301.162	-7.15
301.296	-6.15
301.429	-12.15
301.562	-21.15
301.695	4.85
301.829	-6.15
301.962	-6.15
302.095	-0.15
302.228	-8.15
302.362	6.85
302.495	-4.15
302.628	8.85
302.761	10.85
302.894	-11.15
303.027	6.85
303.161	-2.15
303.294	-4.15
303.427	11.85
303.56	7.85
303.693	9.85
303.826	1.85
303.959	-2.15
304.092	2.85
304.225	-5.15
304.359	2.85
304.492	6.85
304.625	-4.15
304.758	19.85
304.891	-16.15
305.024	-4.15
305.157	-11.15
305.29	-9.15
305.423	1.85
305.556	10.85
305.689	5.85
305.822	-1.15
305.955	-3.15
306.088	-4.15
306.221	-20.15
306.354	8.85
306.487	2.85
306.62	-14.15
306.752	-4.15
306.885	-6.15
307.018	-9.15
307.151	0.85
307.284	10.85
307.417	-6.15
307.55	27.85
307.683	0.85
307.816	2.85
307.948	12.85
308.081	1.85
308.214	5.85
308.347	20.85
308.48	-10.15
308.613	-28.15
308.745	4.85
308.878	-13.15
309.011	-6.15
309.144	3.85
309.277	-1.15
309.409	3.85
309.542	1.85
309.675	34.85
309.808	11.85
309.94	16.85
310.073	-14.15
310.206	-11.15
310.339	20.85
310.471	-4.15
310.604	14.85
310.737	-13.15
310.869	-0.15
311.002	-12.15
311.135	-7.15
311.267	-25.15
311.4	2.85
311.533	4.85
311.665	0.85
311.798	-16.15
311.93	-1.15
312.063	3.85
312.196	0.85
312.328	15.85
312.461	2.85
312.593	0.85
312.726	-3.15
312.859	7.85
312.991	23.85
313.124	-13.15
313.256	-3.15
313.389	8.85
313.521	2.85
313.654	-6.15
313.786	-15.15
313.919	7.85
314.051	-11.15
314.184	-8.15
314.316	-9.15
314.449	-16.15
314.581	-8.15
314.714	7.85
314.846	17.85
314.978	-14.15
315.111	8.85
315.243	15.85
315.376	-2.15
315.508	12.85
315.641	15.85
315.773	23.85
315.905	20.85
316.038	-14.15
316.17	6.85
316.302	16.85
316.435	-13.15
316.567	3.85
316.699	21.85
316.832	-21.15
316.964	-5.15
317.096	-0.15
317.229	-10.15
317.361	-24.15
317.493	14.85
317.625	-8.15
317.758	12.85
317.89	9.85
318.022	5.85
318.155	-17.15
318.287	20.85
318.419	8.85
318.551	7.85
318.683	17.85
318.816	5.85
318.948	-6.15
319.08	-5.15
319.212	-5.15
319.344	-0.15
319.477	-6.15
319.609	12.85
319.741	31.85
319.873	-1.15
320.005	-5.15
320.137	1.85
320.269	0.85
320.401	3.85
320.534	-6.15
320.666	-0.15
320.798	-2.15
320.93	-19.15
321.062	-10.15
321.194	-16.15
321.326	3.85
321.458	-7.15
321.59	-5.15
321.722	-21.15
321.854	0.85
321.986	6.85
322.118	8.85
322.25	-3.15
322.382	-19.15
322.514	-8.15
322.646	-11.15
322.778	7.85
322.91	3.85
323.042	-7.15
323.174	4.85
323.306	-7.15
323.438	-26.15
323.57	14.85
323.702	-9.15
323.834	-3.15
323.966	-13.15
324.097	-5.15
324.229	4.85
324.361	10.85
324.493	-3.15
324.625	-7.15
324.757	-4.15
324.889	-12.15
325.021	4.85
325.152	7.85
325.284	18.85
325.416	7.85
325.548	16.85
325.68	7.85
325.811	18.85
325.943	8.85
326.075	-3.15
326.207	-4.15
326.339	-2.15
326.47	-6.15
326.602	0.85
326.734	-15.15
326.866	1.85
326.997	-14.15
327.129	-8.15
327.261	-20.15
327.392	4.85
327.524	15.85
327.656	-7.15
327.787	10.85
327.919	-0.15
328.051	-5.15
328.182	14.85
328.314	27.85
328.446	0.85
328.577	23.85
328.709	3.85
328.841	-11.15
328.972	-10.15
329.104	-0.15
329.235	5.85
329.367	-20.15
329.499	-8.15
329.63	2.85
329.762	-4.15
329.893	8.85
330.025	1.85
330.156	-10.15
330.288	23.85
330.419	14.85
330.551	-4.15
330.683	10.85
330.814	15.85
330.946	20.85
331.077	-10.15
331.208	11.85
331.34	-1.15
331.471	-13.15
331.603	6.85
331.734	-11.15
331.866	14.85
331.997	12.85
332.129	-1.15
332.26	0.85
332.392	8.85
332.523	-10.15
332.654	-19.15
332.786	-8.15
332.917	-5.15
333.048	11.85
333.18	22.85
333.311	-5.15
333.443	-14.15
333.574	0.85
333.705	28.85
333.837	16.85
333.968	-2.15
334.099	16.85
334.231	15.85
334.362	-13.15
334.493	9.85
334.624	13.85
334.756	-3.15
334.887	-0.15
335.018	16.85
335.15	26.85
335.281	18.85
335.412	5.85
335.543	9.85
335.675	1.85
335.806	-14.15
335.937	-15.15
336.068	5.85
336.199	23.85
336.331	-0.15
336.462	-0.15
336.593	20.85
336.724	-1.15
336.855	-14.15
336.986	-11.15
337.118	6.85
337.249	8.85
337.38	-24.15
337.511	7.85
337.642	10.85
337.773	1.85
337.904	10.85
338.035	1.85
338.166	8.85
338.298	20.85
338.429	1.85
338.56	4.85
338.691	14.85
338.822	7.85
338.953	4.85
339.084	16.85
339.215	20.85
339.346	-0.15
339.477	1.85
339.608	4.85
339.739	-8.15
339.87	-22.15
340.001	-7.15
340.132	5.85
340.263	5.85
340.394	22.85
340.525	15.85
340.656	-15.15
340.787	-19.15
340.918	17.85
341.049	8.85
341.179	7.85
341.31	-8.15
341.441	-2.15
341.572	4.85
341.703	17.85
341.834	-7.15
341.965	9.85
342.096	-18.15
342.227	6.85
342.357	6.85
342.488	-3.15
342.619	5.85
342.75	8.85
342.881	-1.15
343.012	11.85
343.142	28.85
343.273	-11.15
343.404	16.85
343.535	43.85
343.666	26.85
343.796	8.85
343.927	7.85
344.058	31.85
344.189	-0.15
344.319	18.85
344.45	6.85
344.581	7.85
344.712	0.85
344.842	0.85
344.973	4.85
345.104	9.85
345.234	-3.15
345.365	-10.15
345.496	22.85
345.626	9.85
345.757	14.85
345.888	-6.15
346.018	7.85
346.149	6.85
346.28	13.85
346.41	-20.15
346.541	7.85
346.672	-1.15
346.802	-7.15
346.933	8.85
347.063	8.85
347.194	7.85
347.325	22.85
347.455	18.85
347.586	-0.15
347.716	0.85
347.847	-9.15
347.977	-6.15
348.108	-5.15
348.238	-14.15
348.369	12.85
348.499	-0.15
348.63	4.85
348.76	-10.15
348.891	15.85
349.021	-4.15
349.152	-0.15
349.282	17.85
349.413	6.85
349.543	21.85
349.674	13.85
349.804	16.85
349.935	3.85
350.065	-1.15
350.196	-17.15
350.326	-6.15
350.456	-13.15
350.587	5.85
350.717	-9.15
350.848	9.85
350.978	-5.15
351.108	-18.15
351.239	4.85
351.369	2.85
351.499	-2.15
351.63	14.85
351.76	14.85
351.89	-6.15
352.021	18.85
352.151	-11.15
352.281	10.85
352.412	9.85
352.542	2.85
352.672	8.85
352.803	-6.15
352.933	21.85
353.063	18.85
353.193	6.85
353.324	1.85
353.454	10.85
353.584	0.85
353.714	-14.15
353.845	7.85
353.975	-9.15
354.105	2.85
354.235	3.85
354.365	1.85
354.496	-4.15
354.626	14.85
354.756	15.85
354.886	0.85
355.016	2.85
355.146	0.85
355.277	12.85
355.407	-9.15
355.537	5.85
355.667	9.85
355.797	1.85
355.927	-7.15
356.057	6.85
356.187	-6.15
356.318	6.85
356.448	1.85
356.578	13.85
356.708	13.85
356.838	0.85
356.968	18.85
357.098	7.85
357.228	18.85
357.358	-15.15
357.488	-12.15
357.618	29.85
357.748	1.85
357.878	12.85
358.008	-4.15
358.138	-1.15
358.268	4.85
358.398	21.85
358.528	-20.15
358.658	1.85
358.788	-4.15
358.918	11.85
359.048	18.85
359.178	19.85
359.308	-1.15
359.438	11.85
359.568	17.85
359.698	9.85
359.827	-3.15
359.957	-3.15
360.087	2.85
360.217	-10.15
360.347	11.85
360.477	-2.15
360.607	-4.15
360.737	-1.15
360.866	0.85
360.996	-20.15
361.126	-15.15
361.256	32.85
361.386	25.85
361.516	17.85
361.645	-0.15
361.775	22.85
361.905	-4.15
362.035	16.85
362.165	4.85
362.294	22.85
362.424	12.85
362.554	19.85
362.684	-15.15
362.813	-7.15
362.943	12.85
363.073	10.85
363.203	2.85
363.332	9.85
363.462	3.85
363.592	-13.15
363.721	-15.15
363.851	14.85
363.981	19.85
364.111	7.85
364.24	4.85
364.37	8.85
364.5	15.85
364.629	19.85
364.759	-8.15
364.888	-13.15
365.018	12.85
365.148	-6.15
365.277	-0.15
365.407	0.85
365.537	11.85
365.666	-4.15
365.796	-23.15
365.925	6.85
366.055	13.85
366.184	3.85
366.314	7.85
366.444	16.85
366.573	3.85
366.703	8.85
366.832	15.85
366.962	-2.15
367.091	9.85
367.221	13.85
367.35	9.85
367.48	25.85
367.609	6.85
367.739	4.85
367.868	9.85
367.998	8.85
368.127	11.85
368.257	10.85
368.386	23.85
368.516	16.85
368.645	5.85
368.775	17.85
368.904	6.85
369.033	4.85
369.163	-12.15
369.292	15.85
369.422	17.85
369.551	-0.15
369.68	20.85
369.81	12.85
369.939	2.85
370.069	21.85
370.198	9.85
370.327	-9.15
370.457	-7.15
370.586	6.85
370.715	5.85
370.845	-3.15
370.974	-14.15
371.103	11.85
371.233	4.85
371.362	-0.15
371.491	-9.15
371.621	6.85
371.75	1.85
371.879	-13.15
372.008	-3.15
372.138	24.85
372.267	28.85
372.396	8.85
372.525	-1.15
372.655	-3.15
372.784	18.85
372.913	12.85
373.042	16.85
373.172	3.85
373.301	-2.15
373.43	-15.15
373.559	-7.15
373.688	19.85
373.818	11.85
373.947	9.85
374.076	-3.15
374.205	24.85
374.334	4.85
374.463	-14.15
374.593	7.85
374.722	-6.15
374.851	4.85
374.98	-3.15
375.109	8.85
375.238	2.85
375.367	21.85
375.496	-22.15
375.625	-1.15
375.755	22.85
375.884	33.85
376.013	30.85
376.142	-11.15
376.271	-16.15
376.4	6.85
376.529	-3.15
376.658	19.85
376.787	20.85
376.916	7.85
377.045	-10.15
377.174	2.85
377.303	17.85
377.432	9.85
377.561	14.85
377.69	-1.15
377.819	-2.15
377.948	10.85
378.077	-6.15
378.206	-11.15
378.335	3.85
378.464	2.85
378.593	24.85
378.722	-18.15
378.851	-6.15
378.98	31.85
379.108	2.85
379.237	-6.15
379.366	12.85
379.495	-4.15
379.624	9.85
379.753	12.85
379.882	-5.15
380.011	-8.15
380.14	-6.15
380.268	2.85
380.397	23.85
380.526	26.85
380.655	-25.15
380.784	-11.15
380.913	-10.15
381.041	-4.15
381.17	-16.15
381.299	-1.15
381.428	-8.15
381.557	-2.15
381.685	-10.15
381.814	15.85
381.943	6.85
382.072	-17.15
382.2	-11.15
382.329	-10.15
382.458	-18.15
382.587	10.85
382.715	25.85
382.844	33.85
382.973	-3.15
383.102	0.85
383.23	0.85
383.359	2.85
383.488	-1.15
383.616	0.85
383.745	-0.15
383.874	5.85
384.003	-3.15
384.131	4.85
384.26	1.85
384.389	4.85
384.517	6.85
384.646	9.85
384.774	2.85
384.903	24.85
385.032	16.85
385.16	12.85
385.289	-6.15
385.418	5.85
385.546	7.85
385.675	23.85
385.803	9.85
385.932	5.85
386.06	-22.15
386.189	3.85
386.318	12.85
386.446	-11.15
386.575	13.85
386.703	13.85
386.832	-0.15
386.96	-11.15
387.089	9.85
387.217	8.85
387.346	-11.15
387.474	-10.15
387.603	-8.15
387.731	-4.15
387.86	9.85
387.988	9.85
388.117	15.85
388.245	14.85
388.374	0.85
388.502	4.85
388.631	4.85
388.759	-0.15
388.888	15.85
389.016	-5.15
389.144	-10.15
389.273	-11.15
389.401	-30.15
389.53	-18.15
389.658	0.85
389.786	-10.15
389.915	-16.15
390.043	-15.15
390.172	9.85
390.3	11.85
390.428	14.85
390.557	4.85
390.685	-1.15
390.813	9.85
390.942	15.85
391.07	15.85
391.198	15.85
391.327	10.85
391.455	-2.15
391.583	34.85
391.712	3.85
391.84	13.85
391.968	-12.15
392.096	-3.15
392.225	-7.15
392.353	19.85
392.481	-1.15
392.609	14.85
392.738	22.85
392.866	7.85
392.994	6.85
393.122	20.85
393.251	-11.15
393.379	-7.15
393.507	-11.15
393.635	-1.15
393.764	-7.15
393.892	17.85
394.02	0.85
394.148	-2.15
394.276	1.85
394.404	30.85
394.533	1.85
394.661	6.85
394.789	23.85
394.917	35.85
395.045	-9.15
395.173	-10.15
395.302	-6.15
395.43	-0.15
395.558	14.85
395.686	8.85
395.814	-0.15
395.942	-10.15
396.07	2.85
396.198	3.85
396.326	9.85
396.454	33.85
396.582	16.85
396.711	14.85
396.839	33.85
396.967	18.85
397.095	15.85
397.223	16.85
397.351	36.85
397.479	21.85
397.607	-13.15
397.735	5.85
397.863	14.85
397.991	6.85
398.119	-19.15
398.247	7.85
398.375	11.85
398.503	-1.15
398.631	-4.15
398.759	12.85
398.887	27.85
399.015	-7.15
399.143	2.85
399.271	0.85
399.399	10.85
399.526	19.85
399.654	19.85
399.782	-9.15
399.91	22.85
400.038	19.85
400.166	16.85
400.294	-3.15
400.422	-6.15
400.55	13.85
400.678	13.85
400.805	7.85
400.933	1.85
401.061	8.85
401.189	-6.15
401.317	16.85
401.445	4.85
401.573	27.85
401.7	-16.15
401.828	-11.15
401.956	-5.15
402.084	19.85
402.212	20.85
402.34	11.85
402.467	15.85
402.595	17.85
402.723	-0.15
402.851	16.85
402.978	13.85
403.106	18.85
403.234	2.85
403.362	28.85
403.489	22.85
403.617	0.85
403.745	-2.15
403.873	-10.15
404	5.85
404.128	-0.15
404.256	20.85
404.384	24.85
404.511	12.85
404.639	-17.15
404.767	-5.15
404.894	-0.15
405.022	14.85
405.15	15.85
405.277	-20.15
405.405	-0.15
405.533	-1.15
405.66	5.85
405.788	-13.15
405.916	-7.15
406.043	-10.15
406.171	-7.15
406.299	21.85
406.426	25.85
406.554	-1.15
406.681	19.85
406.809	16.85
406.937	3.85
407.064	16.85
407.192	29.85
407.319	2.85
407.447	3.85
407.574	15.85
407.702	4.85
407.83	-8.15
407.957	-8.15
408.085	11.85
408.212	4.85
408.34	-6.15
408.467	-7.15
408.595	11.85
408.722	12.85
408.85	6.85
408.977	-8.15
409.105	-4.15
409.232	0.85
409.36	-3.15
409.487	4.85
409.615	13.85
409.742	31.85
409.87	31.85
409.997	43.85
410.125	51.85
410.252	53.85
410.379	55.85
410.507	33.85
410.634	18.85
410.762	8.85
410.889	21.85
411.017	-1.15
411.144	12.85
411.271	12.85
411.399	2.85
411.526	10.85
411.653	-0.15
411.781	27.85
411.908	14.85
412.036	7.85
412.163	8.85
412.29	17.85
412.418	4.85
412.545	9.85
412.672	-19.15
412.8	16.85
412.927	-2.15
413.054	20.85
413.182	24.85
413.309	1.85
413.436	-2.15
413.564	-1.15
413.691	5.85
413.818	14.85
413.945	-9.15
414.073	6.85
414.2	22.85
414.327	28.85
414.454	23.85
414.582	10.85
414.709	-11.15
414.836	-10.15
414.963	7.85
415.091	7.85
415.218	-8.15
415.345	-13.15
415.472	7.85
415.6	6.85
415.727	14.85
415.854	12.85
415.981	12.85
416.108	-8.15
416.236	19.85
416.363	20.85
416.49	-3.15
416.617	7.85
416.744	7.85
416.871	10.85
416.998	-8.15
417.126	6.85
417.253	5.85
417.38	14.85
417.507	-1.15
417.634	-3.15
417.761	13.85
417.888	17.85
418.015	-3.15
418.143	2.85
418.27	26.85
418.397	9.85
418.524	14.85
418.651	-16.15
418.778	14.85
418.905	20.85
419.032	11.85
419.159	4.85
419.286	23.85
419.413	20.85
419.54	26.85
419.667	-2.15
419.794	-1.15
419.921	-3.15
420.048	14.85
420.175	1.85
420.302	-8.15
420.429	-4.15
420.556	1.85
420.683	-13.15
420.81	-7.15
420.937	8.85
421.064	15.85
421.191	-5.15
421.318	12.85
421.445	40.85
421.572	1.85
421.699	25.85
421.826	4.85
421.953	-13.15
422.08	-8.15
422.207	-10.15
422.334	-1.15
422.461	22.85
422.588	-5.15
422.714	29.85
422.841	10.85
422.968	28.85
423.095	12.85
423.222	-8.15
423.349	17.85
423.476	8.85
423.603	4.85
423.729	3.85
423.856	6.85
423.983	16.85
424.11	-9.15
424.237	3.85
424.364	8.85
424.491	10.85
424.617	-14.15
424.744	10.85
424.871	15.85
424.998	-3.15
425.125	-1.15
425.251	7.85
425.378	-12.15
425.505	-9.15
425.632	10.85
425.758	-11.15
425.885	16.85
426.012	4.85
426.139	23.85
426.266	10.85
426.392	9.85
426.519	40.85
426.646	17.85
426.772	32.85
426.899	10.85
427.026	5.85
427.153	18.85
427.279	25.85
427.406	11.85
427.533	12.85
427.659	15.85
427.786	18.85
427.913	47.85
428.039	23.85
428.166	-14.15
428.293	-8.15
428.419	3.85
428.546	1.85
428.673	-6.15
428.799	-2.15
428.926	13.85
429.053	35.85
429.179	6.85
429.306	-11.15
429.433	17.85
429.559	12.85
429.686	-1.15
429.812	-2.15
429.939	-4.15
430.066	7.85
430.192	-2.15
430.319	26.85
430.445	-3.15
430.572	19.85
430.699	-5.15
430.825	-12.15
430.952	0.85
431.078	9.85
431.205	12.85
431.331	-0.15
431.458	8.85
431.584	3.85
431.711	-11.15
431.837	1.85
431.964	15.85
432.09	-5.15
432.217	-17.15
432.343	-11.15
432.47	14.85
432.596	12.85
432.723	-1.15
432.849	0.85
432.976	17.85
433.102	-0.15
433.229	-0.15
433.355	29.85
433.482	71.85
433.608	151.85
433.735	149.85
433.861	122.85
433.987	138.85
434.114	218.85
434.24	170.85
434.367	51.85
434.493	15.85
434.62	24.85
434.746	19.85
434.872	6.85
434.999	9.85
435.125	4.85
435.252	0.85
435.378	14.85
435.504	-10.15
435.631	19.85
435.757	-1.15
435.883	5.85
436.01	22.85
436.136	2.85
436.262	17.85
436.389	-8.15
436.515	17.85
436.641	-0.15
436.768	20.85
436.894	9.85
437.02	-3.15
437.147	6.85
437.273	14.85
437.399	11.85
437.526	11.85
437.652	13.85
437.778	10.85
437.904	-13.15
438.031	-13.15
438.157	8.85
438.283	25.85
438.409	14.85
438.536	3.85
438.662	11.85
438.788	8.85
438.914	15.85
439.041	11.85
439.167	33.85
439.293	-1.15
439.419	2.85
439.546	18.85
439.672	-0.15
439.798	15.85
439.924	25.85
440.05	16.85
440.177	10.85
440.303	-3.15
440.429	-0.15
440.555	11.85
440.681	21.85
440.807	19.85
440.934	19.85
441.06	14.85
441.186	9.85
441.312	-1.15
441.438	19.85
441.564	9.85
441.69	18.85
441.816	12.85
441.943	5.85
442.069	26.85
442.195	7.85
442.321	24.85
442.447	-9.15
442.573	3.85
442.699	-7.15
442.825	-7.15
442.951	14.85
443.077	20.85
443.203	12.85
443.33	-0.15
443.456	-32.15
443.582	2.85
443.708	-8.15
443.834	18.85
443.96	35.85
444.086	13.85
444.212	8.85
444.338	27.85
444.464	21.85
444.59	32.85
444.716	18.85
444.842	1.85
444.968	0.85
445.094	-8.15
445.22	-1.15
445.346	7.85
445.472	5.85
445.598	3.85
445.724	-7.15
445.85	3.85
445.976	6.85
446.102	29.85
446.228	22.85
446.354	15.85
446.48	-6.15
446.605	6.85
446.731	14.85
446.857	-2.15
446.983	11.85
447.109	3.85
447.235	8.85
447.361	0.85
447.487	2.85
447.613	-8.15
447.739	4.85
447.865	-11.15
447.99	5.85
448.116	2.85
448.242	3.85
448.368	5.85
448.494	0.85
448.62	16.85
448.746	14.85
448.872	9.85
448.997	-10.15
449.123	1.85
449.249	-1.15
449.375	-0.15
449.501	14.85
449.627	-7.15
449.752	21.85
449.878	11.85
450.004	-5.15
450.13	34.85
450.256	18.85
450.381	16.85
450.507	7.85
450.633	-3.15
450.759	26.85
450.884	13.85
451.01	31.85
451.136	20.85
451.262	30.85
451.388	22.85
451.513	-12.15
451.639	29.85
451.765	10.85
451.89	33.85
452.016	19.85
452.142	9.85
452.268	12.85
452.393	10.85
452.519	0.85
452.645	15.85
452.771	12.85
452.896	-1.15
453.022	0.85
453.148	30.85
453.273	10.85
453.399	1.85
453.525	-9.15
453.65	8.85
453.776	8.85
453.902	23.85
454.027	1.85
454.153	7.85
454.279	24.85
454.404	5.85
454.53	22.85
454.656	35.85
454.781	6.85
454.907	0.85
455.032	17.85
455.158	34.85
455.284	26.85
455.409	12.85
455.535	-3.15
455.66	22.85
455.786	8.85
455.912	28.85
456.037	2.85
456.163	19.85
456.288	32.85
456.414	-4.15
456.539	4.85
456.665	23.85
456.791	10.85
456.916	15.85
457.042	11.85
457.167	3.85
457.293	14.85
457.418	-3.15
457.544	7.85
457.669	7.85
457.795	15.85
457.92	14.85
458.046	24.85
458.171	26.85
458.297	9.85
458.422	16.85
458.548	7.85
458.673	8.85
458.799	-1.15
458.924	-2.15
459.05	5.85
459.175	2.85
459.301	-4.15
459.426	26.85
459.552	20.85
459.677	2.85
459.803	28.85
459.928	19.85
460.053	4.85
460.179	19.85
460.304	19.85
460.43	-9.15
460.555	5.85
460.681	13.85
460.806	10.85
460.931	-0.15
461.057	8.85
461.182	5.85
461.308	35.85
461.433	3.85
461.558	6.85
461.684	16.85
461.809	25.85
461.934	-7.15
462.06	18.85
462.185	-4.15
462.311	7.85
462.436	20.85
462.561	3.85
462.687	8.85
462.812	14.85
462.937	-3.15
463.063	12.85
463.188	5.85
463.313	21.85
463.439	13.85
463.564	-2.15
463.689	14.85
463.814	0.85
463.94	24.85
464.065	21.85
464.19	20.85
464.316	3.85
464.441	6.85
464.566	2.85
464.692	5.85
464.817	8.85
464.942	0.85
465.067	7.85
465.193	-5.15
465.318	15.85
465.443	21.85
465.568	-0.15
465.694	3.85
465.819	18.85
465.944	5.85
466.069	3.85
466.194	14.85
466.32	11.85
466.445	5.85
466.57	-4.15
466.695	-15.15
466.82	-1.15
466.946	28.85
467.071	10.85
467.196	-6.15
467.321	4.85
467.446	-5.15
467.572	11.85
467.697	-9.15
467.822	-4.15
467.947	14.85
468.072	-7.15
468.197	-0.15
468.323	-7.15
468.448	2.85
468.573	1.85
468.698	5.85
468.823	6.85
468.948	32.85
469.073	30.85
469.198	22.85
469.324	31.85
469.449	4.85
469.574	16.85
469.699	16.85
469.824	15.85
469.949	11.85
470.074	18.85
470.199	49.85
470.324	22.85
470.449	35.85
470.574	-11.15
470.7	14.85
470.825	9.85
470.95	34.85
471.075	-10.15
471.2	1.85
471.325	15.85
471.45	10.85
471.575	-9.15
471.7	7.85
471.825	5.85
471.95	18.85
472.075	9.85
472.2	-3.15
472.325	4.85
472.45	1.85
472.575	21.85
472.7	3.85
472.825	21.85
472.95	28.85
473.075	-3.15
473.2	7.85
473.325	16.85
473.45	-7.15
473.575	-18.15
473.7	12.85
473.825	12.85
473.95	19.85
474.075	18.85
474.2	-8.15
474.325	2.85
474.45	22.85
474.574	9.85
474.699	28.85
474.824	21.85
474.949	9.85
475.074	-10.15
475.199	21.85
475.324	17.85
475.449	-3.15
475.574	16.85
475.699	19.85
475.824	4.85
475.949	14.85
476.073	2.85
476.198	6.85
476.323	5.85
476.448	7.85
476.573	-4.15
476.698	6.85
476.823	6.85
476.947	16.85
477.072	8.85
477.197	9.85
477.322	3.85
477.447	-7.15
477.572	20.85
477.697	13.85
477.821	-4.15
477.946	13.85
478.071	8.85
478.196	14.85
478.321	18.85
478.445	20.85
478.57	12.85
478.695	11.85
478.82	17.85
478.945	3.85
479.069	8.85
479.194	13.85
479.319	12.85
479.444	7.85
479.569	-7.15
479.693	20.85
479.818	-6.15
479.943	2.85
480.068	21.85
480.192	33.85
480.317	5.85
480.442	11.85
480.567	-1.15
480.691	10.85
480.816	22.85
480.941	7.85
481.066	18.85
481.19	24.85
481.315	20.85
481.44	14.85
481.564	-1.15
481.689	16.85
481.814	29.85
481.938	30.85
482.063	2.85
482.188	14.85
482.313	24.85
482.437	15.85
482.562	18.85
482.687	3.85
482.811	25.85
482.936	14.85
483.061	25.85
483.185	20.85
483.31	21.85
483.435	28.85
483.559	12.85
483.684	10.85
483.808	30.85
483.933	15.85
484.058	7.85
484.182	10.85
484.307	27.85
484.432	14.85
484.556	13.85
484.681	10.85
484.805	18.85
484.93	23.85
485.055	29.85
485.179	79.85
485.304	112.85
485.428	360.85
485.553	1236.85
485.678	1739.85
485.802	1611.85
485.927	1771.85
486.051	2641.85
486.176	1627.85
486.3	452.85
486.425	129.85
486.549	78.85
486.674	65.85
486.799	40.85
486.923	19.85
487.048	37.85
487.172	13.85
487.297	24.85
487.421	32.85
487.546	15.85
487.67	30.85
487.795	20.85
487.919	21.85
488.044	27.85
488.168	18.85
488.293	6.85
488.417	13.85
488.542	12.85
488.666	17.85
488.791	8.85
488.915	20.85
489.04	30.85
489.164	20.85
489.289	20.85
489.413	1.85
489.538	18.85
489.662	39.85
489.786	11.85
489.911	18.85
490.035	23.85
490.16	-3.15
490.284	11.85
490.409	-1.15
490.533	12.85
490.658	35.85
490.782	10.85
490.906	7.85
491.031	3.85
491.155	5.85
491.28	22.85
491.404	30.85
491.528	26.85
491.653	12.85
491.777	28.85
491.902	-1.15
492.026	9.85
492.15	31.85
492.275	25.85
492.399	12.85
492.524	10.85
492.648	24.85
492.772	5.85
492.897	32.85
493.021	-1.15
493.145	5.85
493.27	26.85
493.394	19.85
493.518	7.85
493.643	-4.15
493.767	7.85
493.891	12.85
494.016	15.85
494.14	4.85
494.264	10.85
494.389	12.85
494.513	8.85
494.637	5.85
494.762	26.85
494.886	19.85
495.01	22.85
495.134	6.85
495.259	20.85
495.383	15.85
495.507	3.85
495.632	44.85
495.756	47.85
495.88	26.85
496.004	20.85
496.129	7.85
496.253	3.85
496.377	24.85
496.501	28.85
496.626	-3.15
496.75	-4.15
496.874	14.85
496.998	10.85
497.123	25.85
497.247	14.85
497.371	21.85
497.495	15.85
497.62	10.85
497.744	10.85
497.868	7.85
497.992	12.85
498.116	3.85
498.241	5.85
498.365	6.85
498.489	10.85
498.613	30.85
498.737	16.85
498.862	5.85
498.986	-4.15
499.11	5.85
499.234	0.85
499.358	8.85
499.482	6.85
499.607	10.85
499.731	38.85
499.855	16.85
499.979	-0.15
500.103	15.85
500.227	6.85
500.351	26.85
500.476	12.85
500.6	-0.15
500.724	7.85
500.848	16.85
500.972	23.85
501.096	6.85
501.22	19.85
501.344	14.85
501.469	12.85
501.593	12.85
501.717	21.85
501.841	13.85
501.965	11.85
502.089	5.85
502.213	1.85
502.337	-5.15
502.461	6.85
502.585	-0.15
502.709	8.85
502.834	6.85
502.958	21.85
503.082	26.85
503.206	10.85
503.33	21.85
503.454	14.85
503.578	20.85
503.702	17.85
503.826	23.85
503.95	43.85
504.074	15.85
504.198	3.85
504.322	6.85
504.446	-2.15
504.57	0.85
504.694	21.85
504.818	7.85
504.942	33.85
505.066	23.85
505.19	-0.15
505.314	21.85
505.438	3.85
505.562	22.85
505.686	22.85
505.81	27.85
505.934	17.85
506.058	14.85
506.182	11.85
506.306	24.85
506.43	4.85
506.554	14.85
506.678	3.85
506.802	4.85
506.926	13.85
507.05	19.85
507.174	56.85
507.298	21.85
507.422	-0.15
507.546	27.85
507.67	27.85
507.794	-0.15
507.918	8.85
508.042	6.85
508.165	-3.15
508.289	8.85
508.413	10.85
508.537	7.85
508.661	9.85
508.785	18.85
508.909	-1.15
509.033	16.85
509.157	12.85
509.281	15.85
509.405	8.85
509.528	30.85
509.652	21.85
509.776	7.85
509.9	36.85
510.024	11.85
510.148	22.85
510.272	-9.15
510.396	20.85
510.519	-1.15
510.643	27.85
510.767	10.85
510.891	22.85
511.015	10.85
511.139	9.85
511.263	23.85
511.386	1.85
511.51	8.85
511.634	17.85
511.758	7.85
511.882	-19.15
512.006	18.85
512.129	10.85
512.253	37.85
512.377	3.85
512.501	4.85
512.625	-11.15
512.748	-5.15
512.872	7.85
512.996	20.85
513.12	24.85
513.244	19.85
513.367	27.85
513.491	32.85
513.615	14.85
513.739	-10.15
513.862	-13.15
513.986	16.85
514.11	20.85
514.234	2.85
514.358	20.85
514.481	29.85
514.605	4.85
514.729	-1.15
514.853	25.85
514.976	6.85
515.1	4.85
515.224	13.85
515.348	-1.15
515.471	2.85
515.595	13.85
515.719	-8.15
515.842	20.85
515.966	6.85
516.09	11.85
516.214	8.85
516.337	38.85
516.461	-4.15
516.585	17.85
516.708	23.85
516.832	20.85
516.956	25.85
517.08	0.85
517.203	-6.15
517.327	11.85
517.451	18.85
517.574	29.85
517.698	6.85
517.822	24.85
517.945	33.85
518.069	21.85
518.193	58.85
518.316	36.85
518.44	50.85
518.564	9.85
518.687	9.85
518.811	36.85
518.935	47.85
519.058	2.85
519.182	14.85
519.306	37.85
519.429	15.85
519.553	58.85
519.676	36.85
519.8	31.85
519.924	-5.15
520.047	7.85
520.171	4.85
520.294	5.85
520.418	11.85
520.542	-9.15
520.665	26.85
520.789	18.85
520.913	-7.15
521.036	-12.15
521.16	-0.15
521.283	-8.15
521.407	9.85
521.53	14.85
521.654	-13.15
521.778	14.85
521.901	16.85
522.025	1.85
522.148	8.85
522.272	1.85
522.395	0.85
522.519	22.85
522.643	8.85
522.766	31.85
522.89	15.85
523.013	11.85
523.137	-10.15
523.26	7.85
523.384	6.85
523.507	14.85
523.631	16.85
523.754	15.85
523.878	19.85
524.002	18.85
524.125	12.85
524.249	16.85
524.372	21.85
524.496	10.85
524.619	28.85
524.743	6.85
524.866	2.85
524.99	1.85
525.113	1.85
525.237	42.85
525.36	0.85
525.484	24.85
525.607	8.85
525.731	-11.15
525.854	31.85
525.978	17.85
526.101	-6.15
526.224	-10.15
526.348	2.85
526.471	-4.15
526.595	0.85
526.718	-1.15
526.842	13.85
526.965	26.85
527.089	2.85
527.212	12.85
527.336	2.85
527.459	15.85
527.582	5.85
527.706	22.85
527.829	19.85
527.953	7.85
528.076	2.85
528.2	8.85
528.323	22.85
528.446	12.85
528.57	14.85
528.693	18.85
528.817	3.85
528.94	11.85
529.064	41.85
529.187	7.85
529.31	8.85
529.434	-0.15
529.557	1.85
529.68	12.85
529.804	13.85
529.927	4.85
530.051	17.85
530.174	-6.15
530.297	2.85
530.421	11.85
530.544	9.85
530.668	13.85
530.791	-3.15
530.914	27.85
531.038	24.85
531.161	12.85
531.284	14.85
531.408	14.85
531.531	1.85
531.654	-19.15
531.778	-9.15
531.901	-17.15
532.024	17.85
532.148	7.85
532.271	5.85
532.394	24.85
532.518	20.85
532.641	13.85
532.764	22.85
532.888	26.85
533.011	0.85
533.134	3.85
533.258	24.85
533.381	-4.15
533.504	18.85
533.628	10.85
533.751	15.85
533.874	14.85
533.997	8.85
534.121	-4.15
534.244	12.85
534.367	-4.15
534.491	7.85
534.614	-2.15
534.737	6.85
534.86	2.85
534.984	8.85
535.107	11.85
535.23	22.85
535.354	11.85
535.477	-13.15
535.6	13.85
535.723	19.85
535.847	24.85
535.97	8.85
536.093	3.85
536.216	12.85
536.34	7.85
536.463	-2.15
536.586	23.85
536.709	29.85
536.833	20.85
536.956	14.85
537.079	7.85
537.202	23.85
537.325	0.85
537.449	-0.15
537.572	32.85
537.695	17.85
537.818	7.85
537.941	-2.15
538.065	1.85
538.188	4.85
538.311	20.85
538.434	9.85
538.558	14.85
538.681	3.85
538.804	11.85
538.927	20.85
539.05	15.85
539.173	2.85
539.297	10.85
539.42	14.85
539.543	16.85
539.666	24.85
539.789	10.85
539.913	6.85
540.036	-8.15
540.159	3.85
540.282	7.85
540.405	-9.15
540.528	-0.15
540.651	12.85
540.775	-6.15
540.898	6.85
541.021	13.85
541.144	-3.15
541.267	3.85
541.39	12.85
541.513	14.85
541.637	4.85
541.76	16.85
541.883	1.85
542.006	3.85
542.129	11.85
542.252	-1.15
542.375	10.85
542.498	4.85
542.622	17.85
542.745	2.85
542.868	14.85
542.991	12.85
543.114	22.85
543.237	17.85
543.36	31.85
543.483	4.85
543.606	32.85
543.73	39.85
543.853	1.85
543.976	2.85
544.099	19.85
544.222	12.85
544.345	10.85
544.468	3.85
544.591	15.85
544.714	10.85
544.837	26.85
544.96	11.85
545.083	26.85
545.206	20.85
545.329	24.85
545.453	-0.15
545.576	8.85
545.699	-9.15
545.822	-7.15
545.945	-0.15
546.068	3.85
546.191	7.85
546.314	15.85
546.437	20.85
546.56	9.85
546.683	12.85
546.806	30.85
546.929	13.85
547.052	5.85
547.175	18.85
547.298	7.85
547.421	-1.15
547.544	-1.15
547.667	0.85
547.79	-2.15
547.913	-3.15
548.036	8.85
548.159	10.85
548.282	3.85
548.405	1.85
548.528	8.85
548.651	-4.15
548.774	15.85
548.897	18.85
549.02	49.85
549.143	24.85
549.266	11.85
549.389	13.85
549.512	5.85
549.635	27.85
549.758	22.85
549.881	-5.15
550.004	10.85
550.127	-7.15
550.25	-0.15
550.373	14.85
550.496	6.85
550.619	4.85
550.742	-3.15
550.865	-8.15
550.988	14.85
551.111	28.85
551.234	7.85
551.356	-8.15
551.479	-10.15
551.602	4.85
551.725	5.85
551.848	19.85
551.971	23.85
552.094	8.85
552.217	-9.15
552.34	4.85
552.463	0.85
552.586	0.85
552.709	0.85
552.832	0.85
552.955	15.85
553.077	28.85
553.2	13.85
553.323	-7.15
553.446	16.85
553.569	6.85
553.692	14.85
553.815	15.85
553.938	28.85
554.061	11.85
554.184	-5.15
554.306	-1.15
554.429	3.85
554.552	2.85
554.675	13.85
554.798	0.85
554.921	4.85
555.044	-3.15
555.167	8.85
555.29	4.85
555.412	-0.15
555.535	22.85
555.658	9.85
555.781	6.85
555.904	40.85
556.027	24.85
556.15	2.85
556.272	16.85
556.395	40.85
556.518	10.85
556.641	15.85
556.764	12.85
556.887	22.85
557.01	1.85
557.132	-3.15
557.255	8.85
557.378	17.85
557.501	7.85
557.624	17.85
557.747	5.85
557.869	8.85
557.992	10.85
558.115	31.85
558.238	4.85
558.361	36.85
558.483	15.85
558.606	13.85
558.729	8.85
558.852	38.85
558.975	13.85
559.098	2.85
559.22	14.85
559.343	13.85
559.466	-0.15
559.589	-1.15
559.712	24.85
559.834	12.85
559.957	-1.15
560.08	12.85
560.203	30.85
560.325	25.85
560.448	22.85
560.571	21.85
560.694	4.85
560.817	8.85
560.939	6.85
561.062	7.85
561.185	5.85
561.308	19.85
561.43	15.85
561.553	16.85
561.676	11.85
561.799	10.85
561.921	5.85
562.044	2.85
562.167	-3.15
562.29	35.85
562.413	31.85
562.535	25.85
562.658	-0.15
562.781	2.85
562.903	9.85
563.026	7.85
563.149	32.85
563.272	8.85
563.394	7.85
563.517	8.85
563.64	3.85
563.763	6.85
563.885	35.85
564.008	21.85
564.131	6.85
564.254	-1.15
564.376	17.85
564.499	-7.15
564.622	-9.15
564.744	15.85
564.867	9.85
564.99	1.85
565.113	25.85
565.235	21.85
565.358	12.85
565.481	-16.15
565.603	-3.15
565.726	5.85
565.849	20.85
565.971	16.85
566.094	-16.15
566.217	10.85
566.34	17.85
566.462	4.85
566.585	17.85
566.708	27.85
566.83	12.85
566.953	20.85
567.076	-12.15
567.198	4.85
567.321	2.85
567.444	5.85
567.566	-1.15
567.689	-4.15
567.812	-1.15
567.934	12.85
568.057	28.85
568.18	18.85
568.302	7.85
568.425	-3.15
568.548	12.85
568.67	8.85
568.793	6.85
568.916	2.85
569.038	11.85
569.161	24.85
569.283	12.85
569.406	20.85
569.529	11.85
569.651	0.85
569.774	1.85
569.897	-0.15
570.019	10.85
570.142	37.85
570.265	5.85
570.387	-10.15
570.51	0.85
570.632	20.85
570.755	14.85
570.878	4.85
571	3.85
571.123	1.85
571.246	12.85
571.368	6.85
571.491	18.85
571.613	-0.15
571.736	-1.15
571.859	4.85
571.981	5.85
572.104	-0.15
572.226	19.85
572.349	-3.15
572.472	8.85
572.594	15.85
572.717	0.85
572.839	2.85
572.962	39.85
573.085	25.85
573.207	24.85
573.33	11.85
573.452	28.85
573.575	16.85
573.697	27.85
573.82	3.85
573.943	0.85
574.065	14.85
574.188	-1.15
574.31	12.85
574.433	29.85
574.555	24.85
574.678	12.85
574.801	11.85
574.923	7.85
575.046	26.85
575.168	-1.15
575.291	-4.15
575.413	12.85
575.536	3.85
575.659	10.85
575.781	11.85
575.904	19.85
576.026	8.85
576.149	4.85
576.271	16.85
576.394	6.85
576.516	7.85
576.639	9.85
576.761	9.85
576.884	-6.15
577.007	23.85
577.129	18.85
577.252	13.85
577.374	17.85
577.497	6.85
577.619	7.85
577.742	8.85
577.864	28.85
577.987	25.85
578.109	23.85
578.232	26.85
578.354	33.85
578.477	7.85
578.599	7.85
578.722	8.85
578.844	0.85
578.967	4.85
579.089	-4.15
579.212	-4.15
579.334	22.85
579.457	28.85
579.579	26.85
579.702	13.85
579.824	0.85
579.947	-0.15
580.069	10.85
580.192	2.85
580.314	17.85
580.437	15.85
580.559	44.85
580.682	6.85
580.804	10.85
580.927	27.85
581.049	44.85
581.172	23.85
581.294	7.85
581.417	7.85
581.539	11.85
581.662	14.85
581.784	18.85
581.907	22.85
582.029	17.85
582.152	-5.15
582.274	22.85
582.396	3.85
582.519	4.85
582.641	0.85
582.764	17.85
582.886	19.85
583.009	10.85
583.131	13.85
583.254	1.85
583.376	15.85
583.499	17.85
583.621	1.85
583.743	17.85
583.866	23.85
583.988	9.85
584.111	20.85
584.233	6.85
584.356	8.85
584.478	3.85
584.601	2.85
584.723	18.85
584.845	26.85
584.968	-1.15
585.09	-8.15
585.213	13.85
585.335	11.85
585.458	9.85
585.58	23.85
585.702	18.85
585.825	28.85
585.947	-7.15
586.07	-13.15
586.192	-6.15
586.315	23.85
586.437	6.85
586.559	2.85
586.682	-1.15
586.804	23.85
586.927	-5.15
587.049	15.85
587.171	32.85
587.294	9.85
587.416	31.85
587.539	12.85
587.661	-6.15
587.783	-2.15
587.906	-2.15
588.028	14.85
588.151	-1.15
588.273	21.85
588.395	11.85
588.518	-15.15
588.64	-2.15
588.763	38.85
588.885	13.85
589.007	26.85
589.13	2.85
589.252	-4.15
589.375	2.85
589.497	-8.15
589.619	-14.15
589.742	8.85
589.864	16.85
589.986	14.85
590.109	5.85
590.231	9.85
590.354	10.85
590.476	5.85
590.598	1.85
590.721	-3.15
590.843	1.85
590.965	14.85
591.088	11.85
591.21	4.85
591.332	18.85
591.455	0.85
591.577	-12.15
591.7	7.85
591.822	2.85
591.944	10.85
592.067	-3.15
592.189	-13.15
592.311	23.85
592.434	-0.15
592.556	4.85
592.678	31.85
592.801	12.85
592.923	10.85
593.045	-4.15
593.168	8.85
593.29	8.85
593.412	14.85
593.535	-4.15
593.657	5.85
593.779	-0.15
593.902	6.85
594.024	10.85
594.146	14.85
594.269	21.85
594.391	8.85
594.513	29.85
594.636	25.85
594.758	1.85
594.88	44.85
595.003	33.85
595.125	4.85
595.247	10.85
595.37	11.85
595.492	2.85
595.614	13.85
595.737	8.85
595.859	-7.15
595.981	29.85
596.104	9.85
596.226	3.85
596.348	8.85
596.471	2.85
596.593	13.85
596.715	-1.15
596.838	-0.15
596.96	0.85
597.082	18.85
597.204	22.85
597.327	11.85
597.449	10.85
597.571	6.85
597.694	19.85
597.816	6.85
597.938	22.85
598.061	6.85
598.183	6.85
598.305	11.85
598.427	1.85
598.55	5.85
598.672	14.85
598.794	20.85
598.917	13.85
599.039	15.85
599.161	13.85
599.283	31.85
599.406	14.85
599.528	26.85
599.65	36.85
599.773	9.85
599.895	19.85
600.017	7.85
600.139	12.85
600.262	3.85
600.384	8.85
600.506	5.85
600.628	22.85
600.751	31.85
600.873	18.85
600.995	5.85
601.118	22.85
601.24	6.85
601.362	21.85
601.484	29.85
601.607	19.85
601.729	10.85
601.851	7.85
601.973	4.85
602.096	15.85
602.218	26.85
602.34	20.85
602.462	8.85
602.585	16.85
602.707	-4.15
602.829	4.85
602.951	-0.15
603.074	1.85
603.196	8.85
603.318	3.85
603.44	10.85
603.563	-7.15
603.685	8.85
603.807	4.85
603.929	18.85
604.052	30.85
604.174	14.85
604.296	20.85
604.418	14.85
604.541	19.85
604.663	18.85
604.785	13.85
604.907	23.85
605.03	2.85
605.152	44.85
605.274	17.85
605.396	15.85
605.519	17.85
605.641	3.85
605.763	8.85
605.885	7.85
606.008	0.85
606.13	8.85
606.252	18.85
606.374	-13.15
606.496	-9.15
606.619	2.85
606.741	5.85
606.863	32.85
606.985	33.85
607.108	1.85
607.23	-9.15
607.352	-9.15
607.474	10.85
607.596	-1.15
607.719	1.85
607.841	15.85
607.963	19.85
608.085	-5.15
608.207	24.85
608.33	16.85
608.452	2.85
608.574	-7.15
608.696	6.85
608.819	13.85
608.941	8.85
609.063	4.85
609.185	5.85
609.307	18.85
609.43	36.85
609.552	24.85
609.674	-4.15
609.796	26.85
609.918	11.85
610.041	10.85
610.163	26.85
610.285	7.85
610.407	15.85
610.529	-11.15
610.652	-4.15
610.774	18.85
610.896	3.85
611.018	16.85
611.14	25.85
611.263	-11.15
611.385	-8.15
611.507	8.85
611.629	3.85
611.751	12.85
611.873	32.85
611.996	-2.15
612.118	13.85
612.24	11.85
612.362	12.85
612.484	23.85
612.607	9.85
612.729	16.85
612.851	1.85
612.973	5.85
613.095	-5.15
613.218	23.85
613.34	22.85
613.462	28.85
613.584	22.85
613.706	17.85
613.828	24.85
613.951	21.85
614.073	14.85
614.195	-12.15
614.317	27.85
614.439	5.85
614.561	12.85
614.684	9.85
614.806	16.85
614.928	10.85
615.05	14.85
615.172	26.85
615.294	16.85
615.417	18.85
615.539	2.85
615.661	12.85
615.783	36.85
615.905	29.85
616.027	59.85
616.15	104.85
616.272	71.85
616.394	46.85
616.516	34.85
616.638	38.85
616.76	14.85
616.883	10.85
617.005	9.85
617.127	3.85
617.249	13.85
617.371	24.85
617.493	16.85
617.615	17.85
617.738	10.85
617.86	4.85
617.982	22.85
618.104	8.85
618.226	-7.15
618.348	-8.15
618.471	6.85
618.593	24.85
618.715	1.85
618.837	24.85
618.959	11.85
619.081	25.85
619.203	9.85
619.326	14.85
619.448	13.85
619.57	11.85
619.692	21.85
619.814	20.85
619.936	27.85
620.058	22.85
620.181	-4.15
620.303	12.85
620.425	8.85
620.547	14.85
620.669	7.85
620.791	14.85
620.913	8.85
621.036	-7.15
621.158	5.85
621.28	23.85
621.402	2.85
621.524	-12.15
621.646	7.85
621.768	-11.15
621.891	-5.15
622.013	7.85
622.135	-5.15
622.257	-0.15
622.379	-2.15
622.501	13.85
622.623	2.85
622.745	10.85
622.868	15.85
622.99	15.85
623.112	15.85
623.234	0.85
623.356	19.85
623.478	-5.15
623.6	22.85
623.722	12.85
623.845	14.85
623.967	5.85
624.089	-3.15
624.211	-6.15
624.333	15.85
624.455	19.85
624.577	19.85
624.699	25.85
624.822	18.85
624.944	-9.15
625.066	11.85
625.188	9.85
625.31	23.85
625.432	25.85
625.554	-3.15
625.676	24.85
625.799	10.85
625.921	-8.15
626.043	-2.15
626.165	15.85
626.287	-11.15
626.409	20.85
626.531	-12.15
626.653	9.85
626.775	19.85
626.898	-12.15
627.02	8.85
627.142	20.85
627.264	19.85
627.386	-5.15
627.508	8.85
627.63	3.85
627.752	3.85
627.874	14.85
627.997	21.85
628.119	18.85
628.241	24.85
628.363	17.85
628.485	-11.15
628.607	13.85
628.729	4.85
628.851	-1.15
628.973	17.85
629.096	-3.15
629.218	6.85
629.34	10.85
629.462	10.85
629.584	0.85
629.706	8.85
629.828	8.85
629.95	26.85
630.072	-1.15
630.195	2.85
630.317	10.85
630.439	10.85
630.561	11.85
630.683	18.85
630.805	23.85
630.927	15.85
631.049	17.85
631.171	9.85
631.293	15.85
631.416	22.85
631.538	5.85
631.66	8.85
631.782	22.85
631.904	25.85
632.026	-4.15
632.148	20.85
632.27	10.85
632.392	17.85
632.514	11.85
632.637	12.85
632.759	-5.15
632.881	5.85
633.003	1.85
633.125	-6.15
633.247	11.85
633.369	4.85
633.491	22.85
633.613	19.85
633.735	-1.15
633.858	24.85
633.98	24.85
634.102	8.85
634.224	3.85
634.346	3.85
634.468	6.85
634.59	7.85
634.712	16.85
634.834	15.85
634.956	-6.15
635.078	-3.15
635.201	19.85
635.323	15.85
635.445	-1.15
635.567	-9.15
635.689	28.85
635.811	-0.15
635.933	2.85
636.055	12.85
636.177	14.85
636.299	15.85
636.421	2.85
636.544	-5.15
636.666	-1.15
636.788	16.85
636.91	6.85
637.032	-7.15
637.154	14.85
637.276	33.85
637.398	16.85
637.52	26.85
637.642	13.85
637.764	10.85
637.887	7.85
638.009	-0.15
638.131	7.85
638.253	22.85
638.375	1.85
638.497	28.85
638.619	-13.15
638.741	-3.15
638.863	-6.15
638.985	-13.15
639.107	18.85
639.23	0.85
639.352	21.85
639.474	8.85
639.596	-1.15
639.718	6.85
639.84	0.85
639.962	20.85
640.084	17.85
640.206	26.85
640.328	2.85
640.45	26.85
640.573	14.85
640.695	-3.15
640.817	26.85
640.939	17.85
641.061	7.85
641.183	3.85
641.305	11.85
641.427	-1.15
641.549	13.85
641.671	-4.15
641.793	-5.15
641.915	14.85
642.038	-1.15
642.16	-1.15
642.282	9.85
642.404	-3.15
642.526	11.85
642.648	-1.15
642.77	1.85
642.892	6.85
643.014	19.85
643.136	18.85
643.258	20.85
643.381	38.85
643.503	26.85
643.625	-5.15
643.747	-11.15
643.869	7.85
643.991	14.85
644.113	16.85
644.235	13.85
644.357	4.85
644.479	18.85
644.601	4.85
644.723	-15.15
644.846	4.85
644.968	4.85
645.09	-12.15
645.212	-4.15
645.334	13.85
645.456	15.85
645.578	7.85
645.7	9.85
645.822	17.85
645.944	4.85
646.066	4.85
646.188	17.85
646.311	33.85
646.433	16.85
646.555	35.85
646.677	43.85
646.799	38.85
646.921	10.85
647.043	28.85
647.165	3.85
647.287	15.85
647.409	12.85
647.531	6.85
647.654	-0.15
647.776	18.85
647.898	10.85
648.02	13.85
648.142	1.85
648.264	12.85
648.386	0.85
648.508	6.85
648.63	11.85
648.752	33.85
648.874	10.85
648.997	17.85
649.119	20.85
649.241	4.85
649.363	16.85
649.485	19.85
649.607	7.85
649.729	-5.15
649.851	5.85
649.973	-3.15
650.095	3.85
650.217	-23.15
650.34	-5.15
650.462	10.85
650.584	-3.15
650.706	5.85
650.828	4.85
650.95	-4.15
651.072	17.85
651.194	-11.15
651.316	1.85
651.438	3.85
651.56	-11.15
651.683	-16.15
651.805	0.85
651.927	-7.15
652.049	2.85
652.171	-0.15
652.293	10.85
652.415	-9.15
652.537	-12.15
652.659	0.85
652.781	-1.15
652.903	7.85
653.026	28.85
653.148	7.85
653.27	10.85
653.392	28.85
653.514	14.85
653.636	3.85
653.758	12.85
653.88	-2.15
654.002	0.85
654.124	3.85
654.247	6.85
654.369	18.85
654.491	3.85
654.613	19.85
654.735	3.85
654.857	32.85
654.979	24.85
655.101	23.85
655.223	42.85
655.345	20.85
655.468	19.85
655.59	21.85
655.712	15.85
655.834	20.85
655.956	18.85
656.078	35.85
656.2	56.85
656.322	35.85
656.444	34.85
656.566	46.85
656.689	44.85
656.811	65.85
656.933	100.85
657.055	101.85
657.177	151.85
657.299	239.85
657.421	523.85
657.543	1869.85
657.665	12571.85
657.787	15178.85
657.91	15284.85
658.032	15661.85
658.154	4646.85
658.276	3516.85
658.398	1172.85
658.52	1036.85
658.642	470.85
658.764	595.85
658.886	261.85
659.009	404.85
659.131	196.85
659.253	302.85
659.375	177.85
659.497	249.85
659.619	142.85
659.741	192.85
659.863	94.85
659.985	163.85
660.108	84.85
660.23	147.85
660.352	76.85
660.474	138.85
660.596	78.85
660.718	131.85
660.84	60.85
660.962	120.85
661.084	53.85
661.207	108.85
661.329	51.85
661.451	88.85
661.573	41.85
661.695	107.85
661.817	48.85
661.939	93.85
662.061	59.85
662.184	66.85
662.306	50.85
662.428	64.85
662.55	40.85
662.672	63.85
662.794	20.85
662.916	58.85
663.038	36.85
663.161	88.85
663.283	40.85
663.405	68.85
663.527	31.85
663.649	66.85
663.771	27.85
663.893	55.85
664.015	40.85
664.138	37.85
664.26	26.85
664.382	67.85
664.504	28.85
664.626	31.85
664.748	19.85
664.87	46.85
664.992	48.85
665.115	43.85
665.237	19.85
665.359	35.85
665.481	15.85
665.603	44.85
665.725	8.85
665.847	19.85
665.97	9.85
666.092	42.85
666.214	44.85
666.336	47.85
666.458	37.85
666.58	39.85
666.702	-5.15
666.825	10.85
666.947	13.85
667.069	34.85
667.191	25.85
667.313	44.85
667.435	17.85
667.557	19.85
667.68	18.85
667.802	32.85
667.924	16.85
668.046	46.85
668.168	19.85
668.29	51.85
668.412	15.85
668.535	27.85
668.657	7.85
668.779	28.85
668.901	20.85
669.023	33.85
669.145	8.85
669.267	37.85
669.39	7.85
669.512	24.85
669.634	5.85
669.756	20.85
669.878	23.85
670	42.85
670.123	-3.15
670.245	15.85
670.367	19.85
670.489	33.85
670.611	10.85
670.733	19.85
670.856	12.85
670.978	26.85
671.1	19.85
671.222	27.85
671.344	15.85
671.466	17.85
671.589	7.85
671.711	22.85
671.833	8.85
671.955	44.85
672.077	12.85
672.199	46.85
672.322	33.85
672.444	24.85
672.566	40.85
672.688	34.85
672.81	23.85
672.932	44.85
673.055	3.85
673.177	8.85
673.299	39.85
673.421	15.85
673.543	7.85
673.665	19.85
673.788	22.85
673.91	3.85
674.032	-16.15
674.154	12.85
674.276	24.85
674.399	13.85
674.521	-1.15
674.643	40.85
674.765	4.85
674.887	22.85
675.009	-1.15
675.132	1.85
675.254	4.85
675.376	32.85
675.498	7.85
675.62	44.85
675.743	-1.15
675.865	2.85
675.987	-0.15
676.109	26.85
676.231	23.85
676.354	29.85
676.476	5.85
676.598	-2.15
676.72	10.85
676.842	24.85
676.965	25.85
677.087	35.85
677.209	30.85
677.331	11.85
677.453	1.85
677.576	31.85
677.698	4.85
677.82	4.85
677.942	18.85
678.064	14.85
678.187	-0.15
678.309	13.85
678.431	4.85
678.553	6.85
678.675	28.85
678.798	36.85
678.92	10.85
679.042	4.85
679.164	2.85
679.286	16.85
679.409	14.85
679.531	7.85
679.653	2.85
679.775	19.85
679.898	14.85
680.02	3.85
680.142	8.85
680.264	13.85
680.386	-13.15
680.509	11.85
680.631	17.85
680.753	7.85
680.875	-15.15
680.998	23.85
681.12	2.85
681.242	20.85
681.364	-2.15
681.486	4.85
681.609	-13.15
681.731	1.85
681.853	7.85
681.975	10.85
682.098	21.85
682.22	24.85
682.342	2.85
682.464	24.85
682.587	8.85
682.709	23.85
682.831	-13.15
682.953	8.85
683.076	0.85
683.198	24.85
683.32	10.85
683.442	28.85
683.565	17.85
683.687	15.85
683.809	-0.15
683.931	-15.15
684.054	12.85
684.176	7.85
684.298	-1.15
684.42	-7.15
684.543	-2.15
684.665	4.85
684.787	2.85
684.909	4.85
685.032	30.85
685.154	11.85
685.276	-1.15
685.398	-4.15
685.521	-20.15
685.643	16.85
685.765	20.85
685.887	17.85
686.01	22.85
686.132	22.85
686.254	30.85
686.377	15.85
686.499	12.85
686.621	14.85
686.743	11.85
686.866	12.85
686.988	29.85
687.11	19.85
687.232	8.85
687.355	-4.15
687.477	11.85
687.599	15.85
687.722	3.85
687.844	4.85
687.966	-0.15
688.088	23.85
688.211	27.85
688.333	30.85
688.455	21.85
688.578	24.85
688.7	10.85
688.822	32.85
688.944	2.85
689.067	52.85
689.189	2.85
689.311	-12.15
689.434	-5.15
689.556	3.85
689.678	15.85
689.801	13.85
689.923	21.85
690.045	33.85
690.167	23.85
690.29	32.85
690.412	8.85
690.534	22.85
690.657	-6.15
690.779	9.85
690.901	9.85
691.024	14.85
691.146	0.85
691.268	5.85
691.391	21.85
691.513	24.85
691.635	29.85
691.758	18.85
691.88	16.85
692.002	5.85
692.125	0.85
692.247	2.85
692.369	0.85
692.492	12.85
692.614	5.85
692.736	9.85
692.859	5.85
692.981	20.85
693.103	5.85
693.226	19.85
693.348	37.85
693.47	9.85
693.593	23.85
693.715	-10.15
693.837	0.85
693.96	-3.15
694.082	-1.15
694.204	28.85
694.327	4.85
694.449	-6.15
694.571	-8.15
694.694	5.85
694.816	4.85
694.938	-3.15
695.061	0.85
695.183	3.85
695.305	14.85
695.428	19.85
695.55	-6.15
695.672	3.85
695.795	15.85
695.917	21.85
696.04	7.85
696.162	-0.15
696.284	-4.15
696.407	-0.15
696.529	-0.15
696.651	30.85
696.774	3.85
696.896	33.85
697.019	-3.15
697.141	-8.15
697.263	5.85
697.386	-9.15
697.508	8.85
697.63	23.85
697.753	12.85
697.875	19.85
697.998	-2.15
698.12	24.85
698.242	15.85
698.365	-3.15
698.487	-4.15
698.61	24.85
698.732	-4.15
698.854	29.85
698.977	11.85
699.099	14.85
699.221	-2.15
699.344	-3.15
699.466	7.85
699.589	23.85
699.711	-11.15
699.834	-6.15
699.956	12.85
700.078	7.85
700.201	-16.15
700.323	39.85
700.446	14.85
700.568	21.85
700.69	9.85
700.813	10.85
700.935	13.85
701.058	21.85
701.18	14.85
701.302	-1.15
701.425	13.85
701.547	16.85
701.67	8.85
701.792	18.85
701.915	6.85
702.037	-11.15
702.159	9.85
702.282	5.85
702.404	16.85
702.527	24.85
702.649	34.85
702.772	18.85
702.894	13.85
703.017	-1.15
703.139	24.85
703.261	14.85
703.384	13.85
703.506	-6.15
703.629	-5.15
703.751	10.85
703.874	-10.15
703.996	8.85
704.119	-8.15
704.241	17.85
704.364	-4.15
704.486	10.85
704.608	13.85
704.731	15.85
704.853	22.85
704.976	8.85
705.098	-4.15
705.221	-2.15
705.343	18.85
705.466	-0.15
705.588	20.85
705.711	3.85
705.833	1.85
705.956	23.85
706.078	9.85
706.201	14.85
706.323	22.85
706.446	-4.15
