Data from LowRes_H2_15_26_11_07_2024_HR4C61881__86__15-28-22-236.txt Node

Date: Thu Nov 07 15:28:22 EST 2024
User: crc00042
Spectrometer: HR4C6188
Trigger mode: 4
Integration Time (sec): 1.000000E-1
Scans to average: 1
Electric dark correction enabled: true
Nonlinearity correction enabled: false
Boxcar width: 0
XAxis mode: Wavelengths
Number of Pixels in Spectrum: 3648
>>>>>Begin Spectral Data<<<<<
245.66	-98.15
245.797	-98.15
245.934	-98.15
246.071	-67.15
246.208	5.85
246.344	1.85
246.481	-7.15
246.618	1.85
246.755	-3.15
246.892	-7.15
247.029	1.85
247.165	-15.15
247.302	17.85
247.439	13.85
247.576	12.85
247.713	-25.15
247.849	22.85
247.986	-15.15
248.123	0.85
248.26	-20.15
248.396	10.85
248.533	19.85
248.67	1.85
248.806	13.85
248.943	-12.15
249.08	-2.15
249.216	20.85
249.353	-4.15
249.49	6.85
249.626	13.85
249.763	-0.15
249.9	-9.15
250.036	-4.15
250.173	22.85
250.309	-8.15
250.446	2.85
250.582	-5.15
250.719	2.85
250.856	-12.15
250.992	-12.15
251.129	-12.15
251.265	-24.15
251.402	-5.15
251.538	2.85
251.675	2.85
251.811	19.85
251.948	26.85
252.084	22.85
252.221	14.85
252.357	-26.15
252.493	3.85
252.63	17.85
252.766	7.85
252.903	6.85
253.039	-7.15
253.175	4.85
253.312	12.85
253.448	-5.15
253.585	-2.15
253.721	13.85
253.857	-7.15
253.994	7.85
254.13	0.85
254.266	5.85
254.403	-10.15
254.539	7.85
254.675	17.85
254.811	5.85
254.948	2.85
255.084	1.85
255.22	-7.15
255.356	-16.15
255.493	10.85
255.629	0.85
255.765	5.85
255.901	11.85
256.037	8.85
256.174	8.85
256.31	-19.15
256.446	6.85
256.582	-3.15
256.718	-1.15
256.854	10.85
256.991	22.85
257.127	7.85
257.263	-0.15
257.399	-4.15
257.535	5.85
257.671	-4.15
257.807	-6.15
257.943	-21.15
258.079	-5.15
258.215	7.85
258.351	0.85
258.487	-2.15
258.623	24.85
258.759	-7.15
258.895	-18.15
259.031	9.85
259.167	6.85
259.303	12.85
259.439	1.85
259.575	3.85
259.711	-10.15
259.847	-0.15
259.983	7.85
260.119	-7.15
260.255	-1.15
260.391	7.85
260.527	10.85
260.663	13.85
260.799	-7.15
260.934	-8.15
261.07	-7.15
261.206	-6.15
261.342	-19.15
261.478	17.85
261.614	20.85
261.749	5.85
261.885	6.85
262.021	-0.15
262.157	24.85
262.293	0.85
262.428	4.85
262.564	10.85
262.7	5.85
262.836	3.85
262.971	29.85
263.107	4.85
263.243	40.85
263.378	6.85
263.514	-12.15
263.65	7.85
263.785	-10.15
263.921	8.85
264.057	11.85
264.192	24.85
264.328	16.85
264.464	-6.15
264.599	6.85
264.735	27.85
264.871	-14.15
265.006	8.85
265.142	-8.15
265.277	15.85
265.413	28.85
265.548	9.85
265.684	17.85
265.819	1.85
265.955	-11.15
266.091	-5.15
266.226	-11.15
266.362	-0.15
266.497	7.85
266.633	1.85
266.768	-12.15
266.903	14.85
267.039	4.85
267.174	10.85
267.31	6.85
267.445	3.85
267.581	3.85
267.716	-12.15
267.851	-3.15
267.987	6.85
268.122	14.85
268.258	6.85
268.393	-0.15
268.528	14.85
268.664	-5.15
268.799	1.85
268.934	-4.15
269.07	-7.15
269.205	23.85
269.34	33.85
269.476	0.85
269.611	-17.15
269.746	17.85
269.881	-9.15
270.017	12.85
270.152	9.85
270.287	6.85
270.422	19.85
270.558	1.85
270.693	19.85
270.828	-12.15
270.963	-20.15
271.098	-9.15
271.234	-8.15
271.369	24.85
271.504	24.85
271.639	-1.15
271.774	-1.15
271.909	8.85
272.045	-30.15
272.18	10.85
272.315	20.85
272.45	18.85
272.585	2.85
272.72	13.85
272.855	-0.15
272.99	21.85
273.125	0.85
273.26	-6.15
273.395	9.85
273.53	-4.15
273.665	10.85
273.8	12.85
273.935	19.85
274.07	8.85
274.205	14.85
274.34	4.85
274.475	-8.15
274.61	0.85
274.745	1.85
274.88	9.85
275.015	-8.15
275.15	9.85
275.285	3.85
275.42	9.85
275.555	22.85
275.69	-1.15
275.825	-1.15
275.959	-6.15
276.094	-4.15
276.229	-28.15
276.364	-8.15
276.499	8.85
276.634	4.85
276.768	-2.15
276.903	3.85
277.038	22.85
277.173	6.85
277.308	6.85
277.442	-6.15
277.577	-5.15
277.712	-2.15
277.847	0.85
277.981	-4.15
278.116	-11.15
278.251	-4.15
278.386	-1.15
278.52	7.85
278.655	-14.15
278.79	21.85
278.924	-1.15
279.059	12.85
279.194	-11.15
279.328	35.85
279.463	8.85
279.598	11.85
279.732	17.85
279.867	-0.15
280.001	0.85
280.136	11.85
280.271	7.85
280.405	3.85
280.54	-1.15
280.674	-6.15
280.809	19.85
280.943	-2.15
281.078	-18.15
281.213	5.85
281.347	18.85
281.482	9.85
281.616	10.85
281.751	-0.15
281.885	-15.15
282.02	-15.15
282.154	12.85
282.288	-14.15
282.423	-3.15
282.557	3.85
282.692	23.85
282.826	12.85
282.961	18.85
283.095	-3.15
283.229	1.85
283.364	-10.15
283.498	-17.15
283.633	14.85
283.767	4.85
283.901	1.85
284.036	6.85
284.17	5.85
284.304	8.85
284.439	-2.15
284.573	-10.15
284.707	24.85
284.842	-12.15
284.976	0.85
285.11	-9.15
285.244	-5.15
285.379	58.85
285.513	-24.15
285.647	-5.15
285.781	-3.15
285.916	5.85
286.05	-9.15
286.184	25.85
286.318	1.85
286.453	-22.15
286.587	9.85
286.721	-22.15
286.855	12.85
286.989	7.85
287.123	-8.15
287.258	-12.15
287.392	7.85
287.526	8.85
287.66	5.85
287.794	-3.15
287.928	-7.15
288.062	10.85
288.196	-6.15
288.33	0.85
288.464	7.85
288.598	8.85
288.733	6.85
288.867	21.85
289.001	-3.15
289.135	10.85
289.269	-1.15
289.403	3.85
289.537	-2.15
289.671	17.85
289.805	-12.15
289.939	13.85
290.073	3.85
290.207	5.85
290.34	-3.15
290.474	30.85
290.608	6.85
290.742	1.85
290.876	0.85
291.01	-19.15
291.144	28.85
291.278	26.85
291.412	4.85
291.546	-21.15
291.679	15.85
291.813	9.85
291.947	3.85
292.081	-16.15
292.215	-7.15
292.349	16.85
292.482	2.85
292.616	-14.15
292.75	8.85
292.884	17.85
293.018	-2.15
293.151	-34.15
293.285	0.85
293.419	1.85
293.553	7.85
293.686	-6.15
293.82	-4.15
293.954	24.85
294.088	24.85
294.221	-12.15
294.355	-16.15
294.489	3.85
294.622	-2.15
294.756	5.85
294.89	1.85
295.023	-13.15
295.157	13.85
295.291	5.85
295.424	2.85
295.558	-0.15
295.691	6.85
295.825	-16.15
295.959	-8.15
296.092	-19.15
296.226	5.85
296.359	13.85
296.493	-0.15
296.627	0.85
296.76	-1.15
296.894	-7.15
297.027	-1.15
297.161	4.85
297.294	-15.15
297.428	-0.15
297.561	22.85
297.695	-6.15
297.828	6.85
297.962	-0.15
298.095	-2.15
298.229	-4.15
298.362	-11.15
298.495	-2.15
298.629	-22.15
298.762	8.85
298.896	7.85
299.029	-18.15
299.162	15.85
299.296	2.85
299.429	-0.15
299.563	0.85
299.696	-4.15
299.829	-3.15
299.963	25.85
300.096	28.85
300.229	-7.15
300.363	3.85
300.496	4.85
300.629	-8.15
300.763	4.85
300.896	1.85
301.029	1.85
301.162	10.85
301.296	-15.15
301.429	11.85
301.562	-25.15
301.695	18.85
301.829	15.85
301.962	11.85
302.095	5.85
302.228	-9.15
302.362	9.85
302.495	0.85
302.628	5.85
302.761	2.85
302.894	-0.15
303.027	29.85
303.161	1.85
303.294	-4.15
303.427	3.85
303.56	-5.15
303.693	-7.15
303.826	16.85
303.959	-5.15
304.092	-9.15
304.225	-10.15
304.359	7.85
304.492	15.85
304.625	-11.15
304.758	8.85
304.891	-16.15
305.024	5.85
305.157	7.85
305.29	-10.15
305.423	-4.15
305.556	11.85
305.689	31.85
305.822	6.85
305.955	-1.15
306.088	8.85
306.221	-2.15
306.354	-7.15
306.487	-0.15
306.62	-14.15
306.752	-0.15
306.885	-5.15
307.018	-8.15
307.151	3.85
307.284	23.85
307.417	-25.15
307.55	4.85
307.683	-10.15
307.816	9.85
307.948	1.85
308.081	17.85
308.214	4.85
308.347	33.85
308.48	-6.15
308.613	-27.15
308.745	16.85
308.878	11.85
309.011	-0.15
309.144	12.85
309.277	-1.15
309.409	7.85
309.542	-2.15
309.675	21.85
309.808	7.85
309.94	19.85
310.073	0.85
310.206	3.85
310.339	10.85
310.471	-18.15
310.604	16.85
310.737	-6.15
310.869	-24.15
311.002	9.85
311.135	6.85
311.267	-19.15
311.4	0.85
311.533	9.85
311.665	-10.15
311.798	6.85
311.93	7.85
312.063	23.85
312.196	12.85
312.328	-14.15
312.461	6.85
312.593	3.85
312.726	25.85
312.859	-1.15
312.991	-0.15
313.124	3.85
313.256	12.85
313.389	17.85
313.521	1.85
313.654	0.85
313.786	-19.15
313.919	9.85
314.051	-4.15
314.184	13.85
314.316	20.85
314.449	-2.15
314.581	-12.15
314.714	-4.15
314.846	9.85
314.978	-9.15
315.111	1.85
315.243	9.85
315.376	1.85
315.508	12.85
315.641	1.85
315.773	22.85
315.905	8.85
316.038	10.85
316.17	17.85
316.302	-1.15
316.435	-4.15
316.567	-18.15
316.699	26.85
316.832	3.85
316.964	-13.15
317.096	-18.15
317.229	-2.15
317.361	-15.15
317.493	17.85
317.625	8.85
317.758	-1.15
317.89	0.85
318.022	7.85
318.155	-11.15
318.287	0.85
318.419	9.85
318.551	-0.15
318.683	9.85
318.816	12.85
318.948	-7.15
319.08	-16.15
319.212	-12.15
319.344	-4.15
319.477	-1.15
319.609	15.85
319.741	22.85
319.873	13.85
320.005	-4.15
320.137	7.85
320.269	11.85
320.401	5.85
320.534	3.85
320.666	-17.15
320.798	-5.15
320.93	-21.15
321.062	-7.15
321.194	-11.15
321.326	1.85
321.458	22.85
321.59	5.85
321.722	-1.15
321.854	-3.15
321.986	12.85
322.118	11.85
322.25	-0.15
322.382	4.85
322.514	11.85
322.646	1.85
322.778	13.85
322.91	0.85
323.042	2.85
323.174	-6.15
323.306	2.85
323.438	-2.15
323.57	9.85
323.702	8.85
323.834	12.85
323.966	-8.15
324.097	3.85
324.229	19.85
324.361	-15.15
324.493	-6.15
324.625	-0.15
324.757	2.85
324.889	-7.15
325.021	0.85
325.152	13.85
325.284	20.85
325.416	-3.15
325.548	1.85
325.68	-11.15
325.811	16.85
325.943	-11.15
326.075	-13.15
326.207	-2.15
326.339	9.85
326.47	3.85
326.602	3.85
326.734	4.85
326.866	9.85
326.997	-18.15
327.129	-11.15
327.261	-10.15
327.392	-8.15
327.524	-7.15
327.656	7.85
327.787	16.85
327.919	26.85
328.051	16.85
328.182	17.85
328.314	11.85
328.446	-9.15
328.577	11.85
328.709	7.85
328.841	-21.15
328.972	-10.15
329.104	-7.15
329.235	2.85
329.367	3.85
329.499	-4.15
329.63	0.85
329.762	21.85
329.893	19.85
330.025	-25.15
330.156	-20.15
330.288	8.85
330.419	0.85
330.551	19.85
330.683	-5.15
330.814	-3.15
330.946	12.85
331.077	-6.15
331.208	6.85
331.34	5.85
331.471	-10.15
331.603	3.85
331.734	-10.15
331.866	8.85
331.997	7.85
332.129	7.85
332.26	-4.15
332.392	14.85
332.523	10.85
332.654	-12.15
332.786	-10.15
332.917	-17.15
333.048	24.85
333.18	31.85
333.311	-4.15
333.443	8.85
333.574	-10.15
333.705	17.85
333.837	8.85
333.968	12.85
334.099	16.85
334.231	19.85
334.362	-6.15
334.493	27.85
334.624	17.85
334.756	-10.15
334.887	-6.15
335.018	4.85
335.15	0.85
335.281	11.85
335.412	13.85
335.543	10.85
335.675	-10.15
335.806	0.85
335.937	5.85
336.068	25.85
336.199	41.85
336.331	-10.15
336.462	7.85
336.593	16.85
336.724	-9.15
336.855	1.85
336.986	7.85
337.118	18.85
337.249	-1.15
337.38	6.85
337.511	-9.15
337.642	10.85
337.773	8.85
337.904	14.85
338.035	4.85
338.166	10.85
338.298	-3.15
338.429	-16.15
338.56	-2.15
338.691	-4.15
338.822	1.85
338.953	3.85
339.084	8.85
339.215	18.85
339.346	8.85
339.477	-1.15
339.608	2.85
339.739	-24.15
339.87	-8.15
340.001	-1.15
340.132	1.85
340.263	0.85
340.394	-2.15
340.525	29.85
340.656	11.85
340.787	1.85
340.918	21.85
341.049	11.85
341.179	3.85
341.31	-1.15
341.441	10.85
341.572	9.85
341.703	3.85
341.834	-3.15
341.965	13.85
342.096	5.85
342.227	-13.15
342.357	-7.15
342.488	-2.15
342.619	-9.15
342.75	5.85
342.881	-8.15
343.012	11.85
343.142	39.85
343.273	-0.15
343.404	-1.15
343.535	12.85
343.666	11.85
343.796	-8.15
343.927	18.85
344.058	15.85
344.189	11.85
344.319	-1.15
344.45	3.85
344.581	7.85
344.712	-5.15
344.842	0.85
344.973	-2.15
345.104	2.85
345.234	5.85
345.365	9.85
345.496	19.85
345.626	18.85
345.757	10.85
345.888	1.85
346.018	3.85
346.149	-17.15
346.28	22.85
346.41	-2.15
346.541	0.85
346.672	2.85
346.802	0.85
346.933	13.85
347.063	12.85
347.194	-3.15
347.325	-10.15
347.455	21.85
347.586	17.85
347.716	-6.15
347.847	5.85
347.977	30.85
348.108	13.85
348.238	15.85
348.369	4.85
348.499	3.85
348.63	-3.15
348.76	-4.15
348.891	27.85
349.021	13.85
349.152	16.85
349.282	6.85
349.413	8.85
349.543	2.85
349.674	1.85
349.804	17.85
349.935	16.85
350.065	0.85
350.196	-19.15
350.326	16.85
350.456	12.85
350.587	37.85
350.717	-0.15
350.848	-1.15
350.978	14.85
351.108	-11.15
351.239	15.85
351.369	5.85
351.499	-10.15
351.63	17.85
351.76	8.85
351.89	0.85
352.021	5.85
352.151	8.85
352.281	28.85
352.412	14.85
352.542	-19.15
352.672	-10.15
352.803	10.85
352.933	2.85
353.063	-5.15
353.193	-0.15
353.324	-11.15
353.454	21.85
353.584	9.85
353.714	-2.15
353.845	6.85
353.975	1.85
354.105	-7.15
354.235	9.85
354.365	-7.15
354.496	9.85
354.626	21.85
354.756	16.85
354.886	10.85
355.016	19.85
355.146	8.85
355.277	14.85
355.407	9.85
355.537	8.85
355.667	28.85
355.797	3.85
355.927	-6.15
356.057	19.85
356.187	-4.15
356.318	-3.15
356.448	11.85
356.578	6.85
356.708	22.85
356.838	11.85
356.968	17.85
357.098	11.85
357.228	8.85
357.358	9.85
357.488	-3.15
357.618	25.85
357.748	23.85
357.878	4.85
358.008	-14.15
358.138	7.85
358.268	8.85
358.398	3.85
358.528	-20.15
358.658	4.85
358.788	-0.15
358.918	22.85
359.048	5.85
359.178	29.85
359.308	11.85
359.438	26.85
359.568	18.85
359.698	21.85
359.827	2.85
359.957	8.85
360.087	8.85
360.217	1.85
360.347	18.85
360.477	23.85
360.607	-2.15
360.737	23.85
360.866	-4.15
360.996	-14.15
361.126	7.85
361.256	44.85
361.386	24.85
361.516	15.85
361.645	0.85
361.775	1.85
361.905	-13.15
362.035	9.85
362.165	10.85
362.294	24.85
362.424	17.85
362.554	6.85
362.684	-15.15
362.813	-8.15
362.943	18.85
363.073	3.85
363.203	15.85
363.332	-2.15
363.462	-20.15
363.592	5.85
363.721	0.85
363.851	-6.15
363.981	11.85
364.111	16.85
364.24	-23.15
364.37	0.85
364.5	24.85
364.629	18.85
364.759	-11.15
364.888	-24.15
365.018	6.85
365.148	2.85
365.277	17.85
365.407	24.85
365.537	13.85
365.666	9.85
365.796	-0.15
365.925	0.85
366.055	-14.15
366.184	-4.15
366.314	2.85
366.444	16.85
366.573	6.85
366.703	6.85
366.832	5.85
366.962	20.85
367.091	21.85
367.221	8.85
367.35	10.85
367.48	45.85
367.609	13.85
367.739	7.85
367.868	-0.15
367.998	16.85
368.127	20.85
368.257	37.85
368.386	21.85
368.516	14.85
368.645	-2.15
368.775	10.85
368.904	15.85
369.033	-2.15
369.163	-0.15
369.292	21.85
369.422	5.85
369.551	14.85
369.68	3.85
369.81	23.85
369.939	-5.15
370.069	22.85
370.198	25.85
370.327	-17.15
370.457	7.85
370.586	-0.15
370.715	-6.15
370.845	-5.15
370.974	-2.15
371.103	29.85
371.233	11.85
371.362	14.85
371.491	-5.15
371.621	1.85
371.75	11.85
371.879	-5.15
372.008	5.85
372.138	4.85
372.267	10.85
372.396	-4.15
372.525	-9.15
372.655	11.85
372.784	12.85
372.913	-3.15
373.042	-0.15
373.172	16.85
373.301	-24.15
373.43	-23.15
373.559	-15.15
373.688	13.85
373.818	-0.15
373.947	9.85
374.076	14.85
374.205	18.85
374.334	25.85
374.463	-3.15
374.593	18.85
374.722	15.85
374.851	5.85
374.98	-1.15
375.109	19.85
375.238	3.85
375.367	43.85
375.496	-0.15
375.625	-4.15
375.755	11.85
375.884	11.85
376.013	17.85
376.142	-16.15
376.271	3.85
376.4	19.85
376.529	0.85
376.658	7.85
376.787	20.85
376.916	5.85
377.045	11.85
377.174	4.85
377.303	19.85
377.432	27.85
377.561	17.85
377.69	5.85
377.819	22.85
377.948	7.85
378.077	-0.15
378.206	-0.15
378.335	9.85
378.464	2.85
378.593	27.85
378.722	6.85
378.851	16.85
378.98	12.85
379.108	-20.15
379.237	-13.15
379.366	-2.15
379.495	8.85
379.624	15.85
379.753	2.85
379.882	8.85
380.011	-7.15
380.14	-9.15
380.268	21.85
380.397	-2.15
380.526	26.85
380.655	-3.15
380.784	-23.15
380.913	-2.15
381.041	9.85
381.17	3.85
381.299	-6.15
381.428	24.85
381.557	8.85
381.685	5.85
381.814	9.85
381.943	6.85
382.072	-12.15
382.2	-18.15
382.329	5.85
382.458	9.85
382.587	31.85
382.715	10.85
382.844	6.85
382.973	5.85
383.102	4.85
383.23	3.85
383.359	-9.15
383.488	-0.15
383.616	0.85
383.745	0.85
383.874	4.85
384.003	0.85
384.131	-7.15
384.26	6.85
384.389	10.85
384.517	-11.15
384.646	-15.15
384.774	-3.15
384.903	24.85
385.032	23.85
385.16	-11.15
385.289	-8.15
385.418	3.85
385.546	1.85
385.675	13.85
385.803	7.85
385.932	-3.15
386.06	-6.15
386.189	3.85
386.318	9.85
386.446	2.85
386.575	-5.15
386.703	3.85
386.832	-9.15
386.96	-19.15
387.089	14.85
387.217	-16.15
387.346	2.85
387.474	10.85
387.603	27.85
387.731	21.85
387.86	16.85
387.988	24.85
388.117	14.85
388.245	6.85
388.374	18.85
388.502	35.85
388.631	13.85
388.759	10.85
388.888	14.85
389.016	7.85
389.144	5.85
389.273	-8.15
389.401	-1.15
389.53	4.85
389.658	2.85
389.786	-20.15
389.915	-9.15
390.043	-11.15
390.172	11.85
390.3	5.85
390.428	6.85
390.557	-10.15
390.685	17.85
390.813	1.85
390.942	23.85
391.07	9.85
391.198	2.85
391.327	-4.15
391.455	-5.15
391.583	22.85
391.712	12.85
391.84	2.85
391.968	9.85
392.096	6.85
392.225	-9.15
392.353	4.85
392.481	1.85
392.609	13.85
392.738	5.85
392.866	24.85
392.994	-12.15
393.122	33.85
393.251	14.85
393.379	-22.15
393.507	-11.15
393.635	-7.15
393.764	5.85
393.892	-2.15
394.02	4.85
394.148	-2.15
394.276	-0.15
394.404	36.85
394.533	12.85
394.661	-1.15
394.789	19.85
394.917	31.85
395.045	7.85
395.173	-7.15
395.302	-4.15
395.43	7.85
395.558	17.85
395.686	19.85
395.814	5.85
395.942	1.85
396.07	2.85
396.198	-3.15
396.326	16.85
396.454	17.85
396.582	19.85
396.711	7.85
396.839	4.85
396.967	2.85
397.095	1.85
397.223	8.85
397.351	14.85
397.479	0.85
397.607	-4.15
397.735	19.85
397.863	22.85
397.991	9.85
398.119	9.85
398.247	8.85
398.375	3.85
398.503	9.85
398.631	9.85
398.759	13.85
398.887	8.85
399.015	12.85
399.143	13.85
399.271	11.85
399.399	1.85
399.526	16.85
399.654	24.85
399.782	-0.15
399.91	26.85
400.038	36.85
400.166	11.85
400.294	6.85
400.422	-10.15
400.55	33.85
400.678	17.85
400.805	1.85
400.933	11.85
401.061	21.85
401.189	-4.15
401.317	7.85
401.445	33.85
401.573	21.85
401.7	8.85
401.828	2.85
401.956	4.85
402.084	9.85
402.212	7.85
402.34	2.85
402.467	-2.15
402.595	-2.15
402.723	-3.15
402.851	23.85
402.978	5.85
403.106	22.85
403.234	-6.15
403.362	15.85
403.489	18.85
403.617	9.85
403.745	8.85
403.873	4.85
404	14.85
404.128	7.85
404.256	20.85
404.384	9.85
404.511	15.85
404.639	11.85
404.767	2.85
404.894	-1.15
405.022	-2.15
405.15	5.85
405.277	-4.15
405.405	0.85
405.533	-8.15
405.66	-12.15
405.788	-29.15
405.916	-20.15
406.043	-11.15
406.171	10.85
406.299	6.85
406.426	7.85
406.554	23.85
406.681	28.85
406.809	8.85
406.937	20.85
407.064	4.85
407.192	28.85
407.319	9.85
407.447	4.85
407.574	37.85
407.702	-6.15
407.83	-7.15
407.957	-6.15
408.085	19.85
408.212	11.85
408.34	15.85
408.467	9.85
408.595	4.85
408.722	9.85
408.85	24.85
408.977	-7.15
409.105	10.85
409.232	7.85
409.36	-1.15
409.487	1.85
409.615	0.85
409.742	35.85
409.87	33.85
409.997	23.85
410.125	35.85
410.252	51.85
410.379	48.85
410.507	41.85
410.634	16.85
410.762	0.85
410.889	18.85
411.017	8.85
411.144	16.85
411.271	13.85
411.399	18.85
411.526	4.85
411.653	-1.15
411.781	22.85
411.908	11.85
412.036	20.85
412.163	31.85
412.29	15.85
412.418	10.85
412.545	8.85
412.672	4.85
412.8	16.85
412.927	20.85
413.054	27.85
413.182	9.85
413.309	16.85
413.436	-4.15
413.564	2.85
413.691	7.85
413.818	23.85
413.945	3.85
414.073	-21.15
414.2	13.85
414.327	14.85
414.454	6.85
414.582	7.85
414.709	1.85
414.836	-5.15
414.963	7.85
415.091	22.85
415.218	14.85
415.345	5.85
415.472	-3.15
415.6	-7.15
415.727	18.85
415.854	1.85
415.981	-1.15
416.108	-3.15
416.236	1.85
416.363	11.85
416.49	13.85
416.617	5.85
416.744	14.85
416.871	1.85
416.998	3.85
417.126	-5.15
417.253	7.85
417.38	5.85
417.507	6.85
417.634	8.85
417.761	23.85
417.888	18.85
418.015	-9.15
418.143	16.85
418.27	25.85
418.397	0.85
418.524	17.85
418.651	7.85
418.778	30.85
418.905	44.85
419.032	20.85
419.159	12.85
419.286	29.85
419.413	26.85
419.54	32.85
419.667	0.85
419.794	-11.15
419.921	4.85
420.048	-6.15
420.175	11.85
420.302	6.85
420.429	14.85
420.556	2.85
420.683	-6.15
420.81	29.85
420.937	21.85
421.064	8.85
421.191	19.85
421.318	21.85
421.445	21.85
421.572	2.85
421.699	27.85
421.826	11.85
421.953	5.85
422.08	-4.15
422.207	-4.15
422.334	-20.15
422.461	2.85
422.588	-8.15
422.714	6.85
422.841	28.85
422.968	19.85
423.095	29.85
423.222	2.85
423.349	30.85
423.476	21.85
423.603	-0.15
423.729	14.85
423.856	-0.15
423.983	34.85
424.11	11.85
424.237	-3.15
424.364	11.85
424.491	2.85
424.617	-15.15
424.744	2.85
424.871	18.85
424.998	1.85
425.125	6.85
425.251	1.85
425.378	-18.15
425.505	14.85
425.632	3.85
425.758	6.85
425.885	16.85
426.012	-6.15
426.139	-2.15
426.266	6.85
426.392	5.85
426.519	19.85
426.646	-0.15
426.772	11.85
426.899	5.85
427.026	5.85
427.153	-2.15
427.279	19.85
427.406	3.85
427.533	1.85
427.659	20.85
427.786	-5.15
427.913	13.85
428.039	22.85
428.166	-12.15
428.293	-5.15
428.419	1.85
428.546	1.85
428.673	-7.15
428.799	-3.15
428.926	6.85
429.053	28.85
429.179	15.85
429.306	-1.15
429.433	21.85
429.559	26.85
429.686	11.85
429.812	8.85
429.939	12.85
430.066	21.85
430.192	0.85
430.319	8.85
430.445	-4.15
430.572	7.85
430.699	-4.15
430.825	-6.15
430.952	5.85
431.078	16.85
431.205	9.85
431.331	-0.15
431.458	17.85
431.584	15.85
431.711	-0.15
431.837	3.85
431.964	12.85
432.09	0.85
432.217	-7.15
432.343	14.85
432.47	20.85
432.596	-2.15
432.723	-2.15
432.849	-12.15
432.976	3.85
433.102	-1.15
433.229	-0.15
433.355	27.85
433.482	62.85
433.608	159.85
433.735	135.85
433.861	128.85
433.987	165.85
434.114	237.85
434.24	199.85
434.367	77.85
434.493	18.85
434.62	23.85
434.746	15.85
434.872	32.85
434.999	13.85
435.125	18.85
435.252	-11.15
435.378	3.85
435.504	9.85
435.631	22.85
435.757	4.85
435.883	12.85
436.01	14.85
436.136	8.85
436.262	4.85
436.389	15.85
436.515	23.85
436.641	5.85
436.768	10.85
436.894	7.85
437.02	28.85
437.147	19.85
437.273	10.85
437.399	9.85
437.526	13.85
437.652	13.85
437.778	11.85
437.904	9.85
438.031	19.85
438.157	16.85
438.283	-3.15
438.409	-2.15
438.536	15.85
438.662	19.85
438.788	11.85
438.914	14.85
439.041	12.85
439.167	34.85
439.293	5.85
439.419	18.85
439.546	3.85
439.672	3.85
439.798	17.85
439.924	17.85
440.05	19.85
440.177	30.85
440.303	19.85
440.429	13.85
440.555	-7.15
440.681	1.85
440.807	16.85
440.934	8.85
441.06	4.85
441.186	7.85
441.312	8.85
441.438	19.85
441.564	27.85
441.69	25.85
441.816	18.85
441.943	16.85
442.069	17.85
442.195	21.85
442.321	26.85
442.447	3.85
442.573	-5.15
442.699	0.85
442.825	1.85
442.951	12.85
443.077	32.85
443.203	32.85
443.33	-8.15
443.456	-13.15
443.582	0.85
443.708	-2.15
443.834	22.85
443.96	28.85
444.086	6.85
444.212	30.85
444.338	31.85
444.464	19.85
444.59	31.85
444.716	24.85
444.842	18.85
444.968	4.85
445.094	12.85
445.22	12.85
445.346	-5.15
445.472	9.85
445.598	14.85
445.724	11.85
445.85	-3.15
445.976	23.85
446.102	18.85
446.228	44.85
446.354	8.85
446.48	17.85
446.605	21.85
446.731	17.85
446.857	7.85
446.983	6.85
447.109	7.85
447.235	19.85
447.361	5.85
447.487	27.85
447.613	7.85
447.739	-0.15
447.865	-6.15
447.99	-11.15
448.116	1.85
448.242	8.85
448.368	-3.15
448.494	9.85
448.62	20.85
448.746	19.85
448.872	3.85
448.997	-13.15
449.123	11.85
449.249	24.85
449.375	23.85
449.501	7.85
449.627	-2.15
449.752	20.85
449.878	-11.15
450.004	3.85
450.13	8.85
450.256	-1.15
450.381	-6.15
450.507	6.85
450.633	27.85
450.759	18.85
450.884	-3.15
451.01	7.85
451.136	-8.15
451.262	27.85
451.388	11.85
451.513	20.85
451.639	11.85
451.765	13.85
451.89	12.85
452.016	7.85
452.142	8.85
452.268	30.85
452.393	14.85
452.519	-11.15
452.645	-1.15
452.771	-1.15
452.896	-1.15
453.022	6.85
453.148	22.85
453.273	16.85
453.399	8.85
453.525	-1.15
453.65	-0.15
453.776	30.85
453.902	26.85
454.027	26.85
454.153	26.85
454.279	31.85
454.404	5.85
454.53	36.85
454.656	43.85
454.781	19.85
454.907	0.85
455.032	-3.15
455.158	29.85
455.284	19.85
455.409	21.85
455.535	19.85
455.66	24.85
455.786	21.85
455.912	20.85
456.037	8.85
456.163	9.85
456.288	24.85
456.414	-4.15
456.539	-0.15
456.665	9.85
456.791	7.85
456.916	8.85
457.042	9.85
457.167	-9.15
457.293	15.85
457.418	14.85
457.544	15.85
457.669	5.85
457.795	0.85
457.92	2.85
458.046	21.85
458.171	-0.15
458.297	-10.15
458.422	3.85
458.548	13.85
458.673	8.85
458.799	7.85
458.924	0.85
459.05	17.85
459.175	0.85
459.301	-1.15
459.426	24.85
459.552	6.85
459.677	-18.15
459.803	24.85
459.928	12.85
460.053	11.85
460.179	14.85
460.304	18.85
460.43	-3.15
460.555	3.85
460.681	2.85
460.806	15.85
460.931	3.85
461.057	0.85
461.182	-2.15
461.308	28.85
461.433	9.85
461.558	-14.15
461.684	20.85
461.809	16.85
461.934	3.85
462.06	25.85
462.185	-8.15
462.311	9.85
462.436	1.85
462.561	11.85
462.687	14.85
462.812	23.85
462.937	4.85
463.063	-0.15
463.188	-6.15
463.313	8.85
463.439	-0.15
463.564	5.85
463.689	9.85
463.814	20.85
463.94	6.85
464.065	18.85
464.19	22.85
464.316	5.85
464.441	4.85
464.566	7.85
464.692	19.85
464.817	9.85
464.942	-8.15
465.067	8.85
465.193	-10.15
465.318	12.85
465.443	2.85
465.568	-1.15
465.694	2.85
465.819	26.85
465.944	-9.15
466.069	9.85
466.194	3.85
466.32	21.85
466.445	11.85
466.57	8.85
466.695	0.85
466.82	5.85
466.946	26.85
467.071	10.85
467.196	-0.15
467.321	2.85
467.446	-2.15
467.572	-5.15
467.697	-2.15
467.822	13.85
467.947	16.85
468.072	8.85
468.197	-9.15
468.323	9.85
468.448	17.85
468.573	-8.15
468.698	1.85
468.823	7.85
468.948	6.85
469.073	12.85
469.198	28.85
469.324	21.85
469.449	13.85
469.574	20.85
469.699	28.85
469.824	18.85
469.949	7.85
470.074	30.85
470.199	42.85
470.324	17.85
470.449	11.85
470.574	15.85
470.7	-0.15
470.825	10.85
470.95	22.85
471.075	-12.15
471.2	7.85
471.325	28.85
471.45	-0.15
471.575	4.85
471.7	15.85
471.825	1.85
471.95	-0.15
472.075	25.85
472.2	14.85
472.325	13.85
472.45	2.85
472.575	7.85
472.7	0.85
472.825	22.85
472.95	21.85
473.075	21.85
473.2	13.85
473.325	1.85
473.45	-1.15
473.575	2.85
473.7	11.85
473.825	4.85
473.95	9.85
474.075	27.85
474.2	1.85
474.325	-5.15
474.45	20.85
474.574	3.85
474.699	9.85
474.824	30.85
474.949	3.85
475.074	9.85
475.199	14.85
475.324	27.85
475.449	33.85
475.574	20.85
475.699	20.85
475.824	4.85
475.949	12.85
476.073	14.85
476.198	12.85
476.323	14.85
476.448	23.85
476.573	5.85
476.698	24.85
476.823	20.85
476.947	11.85
477.072	5.85
477.197	12.85
477.322	7.85
477.447	9.85
477.572	24.85
477.697	21.85
477.821	16.85
477.946	20.85
478.071	24.85
478.196	16.85
478.321	26.85
478.445	16.85
478.57	14.85
478.695	18.85
478.82	40.85
478.945	21.85
479.069	-8.15
479.194	15.85
479.319	23.85
479.444	18.85
479.569	17.85
479.693	21.85
479.818	3.85
479.943	20.85
480.068	22.85
480.192	16.85
480.317	16.85
480.442	7.85
480.567	-0.15
480.691	11.85
480.816	1.85
480.941	6.85
481.066	27.85
481.19	18.85
481.315	23.85
481.44	17.85
481.564	-4.15
481.689	18.85
481.814	12.85
481.938	25.85
482.063	0.85
482.188	8.85
482.313	39.85
482.437	7.85
482.562	39.85
482.687	34.85
482.811	21.85
482.936	32.85
483.061	29.85
483.185	9.85
483.31	26.85
483.435	15.85
483.559	19.85
483.684	27.85
483.808	37.85
483.933	9.85
484.058	14.85
484.182	19.85
484.307	5.85
484.432	24.85
484.556	26.85
484.681	21.85
484.805	18.85
484.93	35.85
485.055	39.85
485.179	90.85
485.304	141.85
485.428	386.85
485.553	1311.85
485.678	1763.85
485.802	1672.85
485.927	1865.85
486.051	2783.85
486.176	1701.85
486.3	466.85
486.425	151.85
486.549	97.85
486.674	60.85
486.799	44.85
486.923	24.85
487.048	19.85
487.172	15.85
487.297	24.85
487.421	30.85
487.546	16.85
487.67	26.85
487.795	13.85
487.919	14.85
488.044	25.85
488.168	19.85
488.293	6.85
488.417	16.85
488.542	28.85
488.666	24.85
488.791	19.85
488.915	16.85
489.04	25.85
489.164	27.85
489.289	21.85
489.413	0.85
489.538	17.85
489.662	17.85
489.786	32.85
489.911	15.85
490.035	11.85
490.16	2.85
490.284	7.85
490.409	-8.15
490.533	13.85
490.658	21.85
490.782	16.85
490.906	19.85
491.031	9.85
491.155	9.85
491.28	17.85
491.404	24.85
491.528	31.85
491.653	16.85
491.777	36.85
491.902	6.85
492.026	49.85
492.15	30.85
492.275	54.85
492.399	14.85
492.524	9.85
492.648	33.85
492.772	17.85
492.897	24.85
493.021	13.85
493.145	23.85
493.27	9.85
493.394	-2.15
493.518	3.85
493.643	-4.15
493.767	12.85
493.891	5.85
494.016	15.85
494.14	15.85
494.264	23.85
494.389	39.85
494.513	13.85
494.637	4.85
494.762	25.85
494.886	33.85
495.01	29.85
495.134	33.85
495.259	25.85
495.383	7.85
495.507	17.85
495.632	13.85
495.756	44.85
495.88	21.85
496.004	8.85
496.129	5.85
496.253	19.85
496.377	10.85
496.501	25.85
496.626	20.85
496.75	11.85
496.874	20.85
496.998	-3.15
497.123	32.85
497.247	10.85
497.371	3.85
497.495	7.85
497.62	0.85
497.744	5.85
497.868	11.85
497.992	13.85
498.116	2.85
498.241	23.85
498.365	3.85
498.489	8.85
498.613	24.85
498.737	17.85
498.862	2.85
498.986	-6.15
499.11	3.85
499.234	-1.15
499.358	3.85
499.482	8.85
499.607	1.85
499.731	24.85
499.855	5.85
499.979	30.85
500.103	22.85
500.227	19.85
500.351	18.85
500.476	13.85
500.6	18.85
500.724	21.85
500.848	19.85
500.972	25.85
501.096	0.85
501.22	22.85
501.344	7.85
501.469	17.85
501.593	3.85
501.717	11.85
501.841	17.85
501.965	25.85
502.089	7.85
502.213	21.85
502.337	17.85
502.461	8.85
502.585	16.85
502.709	24.85
502.834	5.85
502.958	1.85
503.082	17.85
503.206	23.85
503.33	33.85
503.454	23.85
503.578	32.85
503.702	38.85
503.826	29.85
503.95	21.85
504.074	0.85
504.198	21.85
504.322	11.85
504.446	2.85
504.57	11.85
504.694	23.85
504.818	24.85
504.942	32.85
505.066	2.85
505.19	7.85
505.314	27.85
505.438	28.85
505.562	-0.15
505.686	20.85
505.81	19.85
505.934	10.85
506.058	7.85
506.182	5.85
506.306	7.85
506.43	-5.15
506.554	3.85
506.678	6.85
506.802	1.85
506.926	4.85
507.05	2.85
507.174	25.85
507.298	12.85
507.422	16.85
507.546	31.85
507.67	19.85
507.794	-0.15
507.918	7.85
508.042	6.85
508.165	8.85
508.289	-0.15
508.413	-12.15
508.537	-8.15
508.661	11.85
508.785	12.85
508.909	24.85
509.033	11.85
509.157	20.85
509.281	17.85
509.405	9.85
509.528	6.85
509.652	11.85
509.776	7.85
509.9	25.85
510.024	5.85
510.148	16.85
510.272	20.85
510.396	26.85
510.519	2.85
510.643	39.85
510.767	14.85
510.891	18.85
511.015	25.85
511.139	15.85
511.263	31.85
511.386	26.85
511.51	16.85
511.634	3.85
511.758	22.85
511.882	10.85
512.006	-2.15
512.129	4.85
512.253	37.85
512.377	14.85
512.501	27.85
512.625	21.85
512.748	6.85
512.872	24.85
512.996	-1.15
513.12	8.85
513.244	5.85
513.367	31.85
513.491	30.85
513.615	4.85
513.739	-10.15
513.862	4.85
513.986	11.85
514.11	35.85
514.234	22.85
514.358	26.85
514.481	25.85
514.605	13.85
514.729	11.85
514.853	43.85
514.976	5.85
515.1	16.85
515.224	31.85
515.348	18.85
515.471	8.85
515.595	23.85
515.719	3.85
515.842	31.85
515.966	9.85
516.09	38.85
516.214	-0.15
516.337	41.85
516.461	20.85
516.585	28.85
516.708	16.85
516.832	25.85
516.956	28.85
517.08	28.85
517.203	5.85
517.327	27.85
517.451	36.85
517.574	33.85
517.698	0.85
517.822	20.85
517.945	29.85
518.069	37.85
518.193	47.85
518.316	23.85
518.44	31.85
518.564	15.85
518.687	13.85
518.811	19.85
518.935	47.85
519.058	25.85
519.182	32.85
519.306	27.85
519.429	23.85
519.553	57.85
519.676	29.85
519.8	28.85
519.924	12.85
520.047	29.85
520.171	5.85
520.294	21.85
520.418	16.85
520.542	8.85
520.665	18.85
520.789	4.85
520.913	-1.15
521.036	-19.15
521.16	-4.15
521.283	9.85
521.407	9.85
521.53	-1.15
521.654	-14.15
521.778	33.85
521.901	15.85
522.025	2.85
522.148	20.85
522.272	7.85
522.395	-2.15
522.519	12.85
522.643	-16.15
522.766	2.85
522.89	21.85
523.013	23.85
523.137	7.85
523.26	19.85
523.384	6.85
523.507	17.85
523.631	8.85
523.754	11.85
523.878	15.85
524.002	9.85
524.125	16.85
524.249	-0.15
524.372	4.85
524.496	15.85
524.619	16.85
524.743	28.85
524.866	23.85
524.99	27.85
525.113	6.85
525.237	31.85
525.36	26.85
525.484	14.85
525.607	-16.15
525.731	-2.15
525.854	-6.15
525.978	37.85
526.101	0.85
526.224	11.85
526.348	22.85
526.471	6.85
526.595	3.85
526.718	12.85
526.842	-5.15
526.965	25.85
527.089	22.85
527.212	16.85
527.336	5.85
527.459	13.85
527.582	6.85
527.706	13.85
527.829	12.85
527.953	2.85
528.076	1.85
528.2	7.85
528.323	17.85
528.446	39.85
528.57	14.85
528.693	17.85
528.817	-0.15
528.94	25.85
529.064	48.85
529.187	7.85
529.31	7.85
529.434	-0.15
529.557	11.85
529.68	0.85
529.804	14.85
529.927	4.85
530.051	12.85
530.174	1.85
530.297	16.85
530.421	26.85
530.544	9.85
530.668	11.85
530.791	6.85
530.914	13.85
531.038	4.85
531.161	8.85
531.284	15.85
531.408	28.85
531.531	3.85
531.654	20.85
531.778	20.85
531.901	5.85
532.024	26.85
532.148	0.85
532.271	-5.15
532.394	21.85
532.518	30.85
532.641	25.85
532.764	23.85
532.888	11.85
533.011	-0.15
533.134	-9.15
533.258	21.85
533.381	-0.15
533.504	7.85
533.628	-0.15
533.751	7.85
533.874	12.85
533.997	16.85
534.121	10.85
534.244	12.85
534.367	19.85
534.491	3.85
534.614	9.85
534.737	7.85
534.86	14.85
534.984	-0.15
535.107	5.85
535.23	1.85
535.354	6.85
535.477	-14.15
535.6	-3.15
535.723	10.85
535.847	0.85
535.97	-4.15
536.093	15.85
536.216	5.85
536.34	9.85
536.463	-1.15
536.586	9.85
536.709	-3.15
536.833	5.85
536.956	-12.15
537.079	2.85
537.202	27.85
537.325	16.85
537.449	5.85
537.572	13.85
537.695	-5.15
537.818	3.85
537.941	1.85
538.065	8.85
538.188	-1.15
538.311	13.85
538.434	15.85
538.558	8.85
538.681	10.85
538.804	12.85
538.927	3.85
539.05	23.85
539.173	9.85
539.297	-2.15
539.42	7.85
539.543	22.85
539.666	25.85
539.789	6.85
539.913	5.85
540.036	9.85
540.159	11.85
540.282	-6.15
540.405	11.85
540.528	6.85
540.651	10.85
540.775	-6.15
540.898	5.85
541.021	11.85
541.144	18.85
541.267	23.85
541.39	5.85
541.513	6.85
541.637	1.85
541.76	1.85
541.883	-11.15
542.006	23.85
542.129	30.85
542.252	3.85
542.375	20.85
542.498	22.85
542.622	29.85
542.745	24.85
542.868	1.85
542.991	29.85
543.114	25.85
543.237	45.85
543.36	43.85
543.483	13.85
543.606	10.85
543.73	24.85
543.853	12.85
543.976	2.85
544.099	25.85
544.222	20.85
544.345	3.85
544.468	7.85
544.591	5.85
544.714	16.85
544.837	33.85
544.96	5.85
545.083	26.85
545.206	19.85
545.329	20.85
545.453	3.85
545.576	12.85
545.699	11.85
545.822	11.85
545.945	18.85
546.068	9.85
546.191	20.85
546.314	-0.15
546.437	10.85
546.56	21.85
546.683	0.85
546.806	17.85
546.929	4.85
547.052	9.85
547.175	1.85
547.298	8.85
547.421	4.85
547.544	2.85
547.667	19.85
547.79	5.85
547.913	-6.15
548.036	-4.15
548.159	4.85
548.282	3.85
548.405	3.85
548.528	21.85
548.651	9.85
548.774	11.85
548.897	3.85
549.02	25.85
549.143	35.85
549.266	22.85
549.389	7.85
549.512	1.85
549.635	27.85
549.758	-6.15
549.881	15.85
550.004	12.85
550.127	22.85
550.25	8.85
550.373	-3.15
550.496	8.85
550.619	11.85
550.742	-7.15
550.865	-21.15
550.988	9.85
551.111	36.85
551.234	11.85
551.356	0.85
551.479	13.85
551.602	10.85
551.725	-5.15
551.848	39.85
551.971	17.85
552.094	14.85
552.217	8.85
552.34	9.85
552.463	0.85
552.586	19.85
552.709	23.85
552.832	3.85
552.955	7.85
553.077	28.85
553.2	16.85
553.323	-7.15
553.446	-4.15
553.569	7.85
553.692	12.85
553.815	-6.15
553.938	8.85
554.061	20.85
554.184	-8.15
554.306	8.85
554.429	10.85
554.552	7.85
554.675	-8.15
554.798	1.85
554.921	15.85
555.044	27.85
555.167	6.85
555.29	22.85
555.412	15.85
555.535	1.85
555.658	-0.15
555.781	9.85
555.904	17.85
556.027	-11.15
556.15	4.85
556.272	10.85
556.395	9.85
556.518	-2.15
556.641	4.85
556.764	21.85
556.887	5.85
557.01	3.85
557.132	-9.15
557.255	6.85
557.378	19.85
557.501	-8.15
557.624	8.85
557.747	4.85
557.869	13.85
557.992	21.85
558.115	17.85
558.238	2.85
558.361	23.85
558.483	29.85
558.606	21.85
558.729	12.85
558.852	35.85
558.975	35.85
559.098	25.85
559.22	25.85
559.343	9.85
559.466	-0.15
559.589	-3.15
559.712	19.85
559.834	17.85
559.957	4.85
560.08	6.85
560.203	19.85
560.325	21.85
560.448	25.85
560.571	18.85
560.694	3.85
560.817	36.85
560.939	15.85
561.062	-0.15
561.185	4.85
561.308	10.85
561.43	-10.15
561.553	9.85
561.676	-8.15
561.799	13.85
561.921	15.85
562.044	19.85
562.167	-5.15
562.29	18.85
562.413	22.85
562.535	18.85
562.658	2.85
562.781	-1.15
562.903	9.85
563.026	10.85
563.149	28.85
563.272	9.85
563.394	24.85
563.517	29.85
563.64	6.85
563.763	0.85
563.885	6.85
564.008	32.85
564.131	29.85
564.254	3.85
564.376	12.85
564.499	-27.15
564.622	7.85
564.744	10.85
564.867	1.85
564.99	7.85
565.113	22.85
565.235	-0.15
565.358	0.85
565.481	-4.15
565.603	23.85
565.726	3.85
565.849	3.85
565.971	16.85
566.094	4.85
566.217	13.85
566.34	-0.15
566.462	6.85
566.585	15.85
566.708	6.85
566.83	17.85
566.953	19.85
567.076	7.85
567.198	5.85
567.321	1.85
567.444	7.85
567.566	7.85
567.689	-8.15
567.812	-2.15
567.934	9.85
568.057	8.85
568.18	4.85
568.302	-0.15
568.425	-5.15
568.548	15.85
568.67	33.85
568.793	27.85
568.916	25.85
569.038	-0.15
569.161	2.85
569.283	22.85
569.406	7.85
569.529	13.85
569.651	-5.15
569.774	9.85
569.897	16.85
570.019	19.85
570.142	17.85
570.265	13.85
570.387	2.85
570.51	29.85
570.632	26.85
570.755	11.85
570.878	7.85
571	21.85
571.123	2.85
571.246	33.85
571.368	17.85
571.491	16.85
571.613	-8.15
571.736	-0.15
571.859	5.85
571.981	5.85
572.104	-2.15
572.226	19.85
572.349	-21.15
572.472	21.85
572.594	18.85
572.717	13.85
572.839	15.85
572.962	18.85
573.085	12.85
573.207	16.85
573.33	-10.15
573.452	29.85
573.575	16.85
573.697	11.85
573.82	10.85
573.943	10.85
574.065	23.85
574.188	9.85
574.31	30.85
574.433	24.85
574.555	31.85
574.678	32.85
574.801	13.85
574.923	14.85
575.046	23.85
575.168	-3.15
575.291	1.85
575.413	19.85
575.536	15.85
575.659	13.85
575.781	-12.15
575.904	7.85
576.026	12.85
576.149	12.85
576.271	2.85
576.394	21.85
576.516	11.85
576.639	17.85
576.761	11.85
576.884	-9.15
577.007	1.85
577.129	16.85
577.252	5.85
577.374	26.85
577.497	12.85
577.619	23.85
577.742	12.85
577.864	25.85
577.987	13.85
578.109	32.85
578.232	6.85
578.354	15.85
578.477	4.85
578.599	14.85
578.722	4.85
578.844	-12.15
578.967	8.85
579.089	13.85
579.212	8.85
579.334	12.85
579.457	3.85
579.579	24.85
579.702	-0.15
579.824	18.85
579.947	7.85
580.069	14.85
580.192	-2.15
580.314	23.85
580.437	18.85
580.559	27.85
580.682	21.85
580.804	22.85
580.927	5.85
581.049	37.85
581.172	21.85
581.294	22.85
581.417	19.85
581.539	18.85
581.662	25.85
581.784	14.85
581.907	38.85
582.029	32.85
582.152	5.85
582.274	9.85
582.396	7.85
582.519	27.85
582.641	1.85
582.764	4.85
582.886	14.85
583.009	-11.15
583.131	-6.15
583.254	16.85
583.376	20.85
583.499	10.85
583.621	0.85
583.743	29.85
583.866	21.85
583.988	10.85
584.111	25.85
584.233	5.85
584.356	19.85
584.478	19.85
584.601	-13.15
584.723	2.85
584.845	22.85
584.968	0.85
585.09	-2.15
585.213	31.85
585.335	8.85
585.458	6.85
585.58	9.85
585.702	20.85
585.825	18.85
585.947	17.85
586.07	-5.15
586.192	8.85
586.315	21.85
586.437	-11.15
586.559	10.85
586.682	3.85
586.804	16.85
586.927	7.85
587.049	11.85
587.171	19.85
587.294	9.85
587.416	26.85
587.539	1.85
587.661	-12.15
587.783	-8.15
587.906	7.85
588.028	20.85
588.151	7.85
588.273	26.85
588.395	17.85
588.518	-0.15
588.64	5.85
588.763	38.85
588.885	33.85
589.007	30.85
589.13	5.85
589.252	12.85
589.375	19.85
589.497	2.85
589.619	5.85
589.742	1.85
589.864	15.85
589.986	4.85
590.109	-7.15
590.231	2.85
590.354	23.85
590.476	-8.15
590.598	2.85
590.721	-11.15
590.843	-1.15
590.965	0.85
591.088	9.85
591.21	5.85
591.332	11.85
591.455	-18.15
591.577	3.85
591.7	7.85
591.822	16.85
591.944	8.85
592.067	3.85
592.189	6.85
592.311	13.85
592.434	11.85
592.556	31.85
592.678	30.85
592.801	13.85
592.923	15.85
593.045	7.85
593.168	12.85
593.29	1.85
593.412	33.85
593.535	24.85
593.657	1.85
593.779	1.85
593.902	23.85
594.024	20.85
594.146	27.85
594.269	24.85
594.391	1.85
594.513	-0.15
594.636	19.85
594.758	-7.15
594.88	8.85
595.003	16.85
595.125	21.85
595.247	25.85
595.37	21.85
595.492	15.85
595.614	9.85
595.737	24.85
595.859	11.85
595.981	16.85
596.104	-1.15
596.226	24.85
596.348	7.85
596.471	25.85
596.593	16.85
596.715	-5.15
596.838	9.85
596.96	6.85
597.082	27.85
597.204	25.85
597.327	13.85
597.449	-3.15
597.571	5.85
597.694	36.85
597.816	16.85
597.938	-4.15
598.061	1.85
598.183	20.85
598.305	17.85
598.427	5.85
598.55	12.85
598.672	24.85
598.794	8.85
598.917	20.85
599.039	7.85
599.161	13.85
599.283	-0.15
599.406	2.85
599.528	27.85
599.65	43.85
599.773	14.85
599.895	33.85
600.017	8.85
600.139	12.85
600.262	12.85
600.384	12.85
600.506	3.85
600.628	27.85
600.751	23.85
600.873	10.85
600.995	3.85
601.118	25.85
601.24	28.85
601.362	26.85
601.484	24.85
601.607	18.85
601.729	14.85
601.851	14.85
601.973	-0.15
602.096	21.85
602.218	34.85
602.34	18.85
602.462	18.85
602.585	12.85
602.707	8.85
602.829	35.85
602.951	3.85
603.074	-8.15
603.196	-3.15
603.318	-0.15
603.44	11.85
603.563	4.85
603.685	1.85
603.807	13.85
603.929	15.85
604.052	40.85
604.174	20.85
604.296	2.85
604.418	5.85
604.541	28.85
604.663	1.85
604.785	13.85
604.907	11.85
605.03	11.85
605.152	33.85
605.274	13.85
605.396	7.85
605.519	30.85
605.641	8.85
605.763	14.85
605.885	6.85
606.008	10.85
606.13	23.85
606.252	29.85
606.374	-8.15
606.496	4.85
606.619	7.85
606.741	4.85
606.863	31.85
606.985	24.85
607.108	24.85
607.23	12.85
607.352	13.85
607.474	20.85
607.596	11.85
607.719	6.85
607.841	19.85
607.963	12.85
608.085	-7.15
608.207	20.85
608.33	11.85
608.452	20.85
608.574	23.85
608.696	12.85
608.819	7.85
608.941	14.85
609.063	-0.15
609.185	5.85
609.307	7.85
609.43	19.85
609.552	18.85
609.674	2.85
609.796	9.85
609.918	22.85
610.041	13.85
610.163	15.85
610.285	22.85
610.407	12.85
610.529	-4.15
610.652	7.85
610.774	15.85
610.896	9.85
611.018	1.85
611.14	-5.15
611.263	2.85
611.385	7.85
611.507	-3.15
611.629	4.85
611.751	12.85
611.873	34.85
611.996	26.85
612.118	35.85
612.24	5.85
612.362	19.85
612.484	31.85
612.607	9.85
612.729	1.85
612.851	14.85
612.973	-5.15
613.095	23.85
613.218	16.85
613.34	14.85
613.462	5.85
613.584	4.85
613.706	1.85
613.828	32.85
613.951	4.85
614.073	26.85
614.195	-15.15
614.317	22.85
614.439	13.85
614.561	20.85
614.684	7.85
614.806	17.85
614.928	16.85
615.05	2.85
615.172	17.85
615.294	12.85
615.417	7.85
615.539	7.85
615.661	13.85
615.783	36.85
615.905	23.85
616.027	73.85
616.15	102.85
616.272	85.85
616.394	47.85
616.516	36.85
616.638	33.85
616.76	23.85
616.883	17.85
617.005	5.85
617.127	27.85
617.249	1.85
617.371	0.85
617.493	7.85
617.615	13.85
617.738	13.85
617.86	3.85
617.982	5.85
618.104	-8.15
618.226	-4.15
618.348	-7.15
618.471	-2.15
618.593	26.85
618.715	11.85
618.837	10.85
618.959	9.85
619.081	27.85
619.203	12.85
619.326	15.85
619.448	10.85
619.57	4.85
619.692	24.85
619.814	5.85
619.936	18.85
620.058	19.85
620.181	11.85
620.303	8.85
620.425	17.85
620.547	11.85
620.669	5.85
620.791	8.85
620.913	11.85
621.036	2.85
621.158	11.85
621.28	9.85
621.402	-9.15
621.524	-0.15
621.646	14.85
621.768	7.85
621.891	-14.15
622.013	5.85
622.135	10.85
622.257	8.85
622.379	2.85
622.501	-2.15
622.623	-0.15
622.745	-1.15
622.868	8.85
622.99	3.85
623.112	16.85
623.234	8.85
623.356	17.85
623.478	6.85
623.6	39.85
623.722	16.85
623.845	17.85
623.967	17.85
624.089	20.85
624.211	7.85
624.333	13.85
624.455	0.85
624.577	6.85
624.699	22.85
624.822	25.85
624.944	9.85
625.066	15.85
625.188	0.85
625.31	19.85
625.432	29.85
625.554	-2.15
625.676	26.85
625.799	9.85
625.921	24.85
626.043	19.85
626.165	14.85
626.287	-12.15
626.409	14.85
626.531	6.85
626.653	11.85
626.775	-0.15
626.898	2.85
627.02	4.85
627.142	15.85
627.264	26.85
627.386	-2.15
627.508	2.85
627.63	3.85
627.752	9.85
627.874	7.85
627.997	10.85
628.119	0.85
628.241	32.85
628.363	21.85
628.485	21.85
628.607	-0.15
628.729	7.85
628.851	-16.15
628.973	-8.15
629.096	-6.15
629.218	8.85
629.34	18.85
629.462	1.85
629.584	19.85
629.706	17.85
629.828	19.85
629.95	25.85
630.072	-1.15
630.195	9.85
630.317	10.85
630.439	9.85
630.561	-0.15
630.683	-18.15
630.805	17.85
630.927	20.85
631.049	-10.15
631.171	4.85
631.293	17.85
631.416	24.85
631.538	14.85
631.66	-0.15
631.782	25.85
631.904	19.85
632.026	15.85
632.148	8.85
632.27	15.85
632.392	12.85
632.514	17.85
632.637	13.85
632.759	2.85
632.881	-2.15
633.003	2.85
633.125	12.85
633.247	19.85
633.369	5.85
633.491	21.85
633.613	24.85
633.735	8.85
633.858	22.85
633.98	12.85
634.102	1.85
634.224	-4.15
634.346	0.85
634.468	16.85
634.59	10.85
634.712	4.85
634.834	-8.15
634.956	5.85
635.078	-5.15
635.201	-9.15
635.323	16.85
635.445	-2.15
635.567	10.85
635.689	12.85
635.811	20.85
635.933	16.85
636.055	3.85
636.177	16.85
636.299	23.85
636.421	4.85
636.544	-8.15
636.666	0.85
636.788	8.85
636.91	13.85
637.032	18.85
637.154	15.85
637.276	38.85
637.398	17.85
637.52	16.85
637.642	7.85
637.764	4.85
637.887	20.85
638.009	12.85
638.131	22.85
638.253	23.85
638.375	26.85
638.497	10.85
638.619	-7.15
638.741	12.85
638.863	-11.15
638.985	-9.15
639.107	9.85
639.23	4.85
639.352	16.85
639.474	4.85
639.596	4.85
639.718	8.85
639.84	3.85
639.962	11.85
640.084	22.85
640.206	7.85
640.328	2.85
640.45	9.85
640.573	-3.15
640.695	3.85
640.817	1.85
640.939	24.85
641.061	4.85
641.183	-0.15
641.305	4.85
641.427	7.85
641.549	11.85
641.671	31.85
641.793	0.85
641.915	31.85
642.038	8.85
642.16	11.85
642.282	13.85
642.404	9.85
642.526	19.85
642.648	9.85
642.77	10.85
642.892	-6.15
643.014	14.85
643.136	10.85
643.258	-2.15
643.381	11.85
643.503	21.85
643.625	-4.15
643.747	4.85
643.869	-5.15
643.991	1.85
644.113	8.85
644.235	18.85
644.357	11.85
644.479	25.85
644.601	-3.15
644.723	5.85
644.846	18.85
644.968	15.85
645.09	-11.15
645.212	2.85
645.334	8.85
645.456	9.85
645.578	-0.15
645.7	4.85
645.822	15.85
645.944	5.85
646.066	-4.15
646.188	-6.15
646.311	27.85
646.433	12.85
646.555	50.85
646.677	42.85
646.799	36.85
646.921	31.85
647.043	24.85
647.165	5.85
647.287	1.85
647.409	14.85
647.531	24.85
647.654	-4.15
647.776	-2.15
647.898	23.85
648.02	-6.15
648.142	3.85
648.264	-2.15
648.386	4.85
648.508	9.85
648.63	-3.15
648.752	11.85
648.874	-2.15
648.997	19.85
649.119	7.85
649.241	7.85
649.363	28.85
649.485	9.85
649.607	1.85
649.729	-0.15
649.851	-4.15
649.973	20.85
650.095	7.85
650.217	-13.15
650.34	-3.15
650.462	22.85
650.584	7.85
650.706	25.85
650.828	21.85
650.95	-9.15
651.072	3.85
651.194	-2.15
651.316	7.85
651.438	13.85
651.56	-15.15
651.683	1.85
651.805	23.85
651.927	5.85
652.049	-0.15
652.171	-4.15
652.293	12.85
652.415	9.85
652.537	-16.15
652.659	4.85
652.781	12.85
652.903	20.85
653.026	37.85
653.148	6.85
653.27	11.85
653.392	19.85
653.514	6.85
653.636	7.85
653.758	12.85
653.88	7.85
654.002	8.85
654.124	9.85
654.247	12.85
654.369	12.85
654.491	20.85
654.613	19.85
654.735	5.85
654.857	20.85
654.979	22.85
655.101	30.85
655.223	26.85
655.345	20.85
655.468	32.85
655.59	16.85
655.712	21.85
655.834	31.85
655.956	39.85
656.078	35.85
656.2	51.85
656.322	29.85
656.444	24.85
656.566	55.85
656.689	41.85
656.811	63.85
656.933	91.85
657.055	84.85
657.177	146.85
657.299	254.85
657.421	515.85
657.543	1923.85
657.665	12745.85
657.787	15207.85
657.91	15361.85
658.032	15662.85
658.154	4748.85
658.276	4530.85
658.398	1383.85
658.52	1091.85
658.642	522.85
658.764	629.85
658.886	281.85
659.009	434.85
659.131	223.85
659.253	329.85
659.375	178.85
659.497	274.85
659.619	147.85
659.741	207.85
659.863	102.85
659.985	180.85
660.108	100.85
660.23	139.85
660.352	85.85
660.474	140.85
660.596	75.85
660.718	138.85
660.84	62.85
660.962	123.85
661.084	63.85
661.207	98.85
661.329	74.85
661.451	93.85
661.573	57.85
661.695	111.85
661.817	67.85
661.939	95.85
662.061	65.85
662.184	73.85
662.306	42.85
662.428	86.85
662.55	51.85
662.672	63.85
662.794	35.85
662.916	80.85
663.038	33.85
663.161	78.85
663.283	56.85
663.405	68.85
663.527	21.85
663.649	65.85
663.771	37.85
663.893	57.85
664.015	27.85
664.138	39.85
664.26	23.85
664.382	47.85
664.504	12.85
664.626	45.85
664.748	-1.15
664.87	36.85
664.992	43.85
665.115	63.85
665.237	18.85
665.359	43.85
665.481	17.85
665.603	45.85
665.725	13.85
665.847	17.85
665.97	10.85
666.092	41.85
666.214	29.85
666.336	49.85
666.458	28.85
666.58	47.85
666.702	28.85
666.825	23.85
666.947	1.85
667.069	21.85
667.191	-0.15
667.313	49.85
667.435	13.85
667.557	39.85
667.68	11.85
667.802	27.85
667.924	17.85
668.046	33.85
668.168	32.85
668.29	51.85
668.412	-0.15
668.535	40.85
668.657	11.85
668.779	28.85
668.901	31.85
669.023	45.85
669.145	21.85
669.267	45.85
669.39	12.85
669.512	43.85
669.634	-8.15
669.756	21.85
669.878	7.85
670	16.85
670.123	9.85
670.245	43.85
670.367	19.85
670.489	27.85
670.611	7.85
670.733	22.85
670.856	17.85
670.978	33.85
671.1	31.85
671.222	26.85
671.344	15.85
671.466	18.85
671.589	-3.15
671.711	6.85
671.833	9.85
671.955	22.85
672.077	16.85
672.199	48.85
672.322	19.85
672.444	21.85
672.566	32.85
672.688	34.85
672.81	23.85
672.932	28.85
673.055	17.85
673.177	7.85
673.299	29.85
673.421	13.85
673.543	20.85
673.665	36.85
673.788	16.85
673.91	22.85
674.032	-4.15
674.154	2.85
674.276	11.85
674.399	34.85
674.521	12.85
674.643	30.85
674.765	23.85
674.887	19.85
675.009	2.85
675.132	3.85
675.254	18.85
675.376	31.85
675.498	4.85
675.62	52.85
675.743	-3.15
675.865	22.85
675.987	2.85
676.109	11.85
676.231	17.85
676.354	37.85
676.476	3.85
676.598	51.85
676.72	13.85
676.842	25.85
676.965	12.85
677.087	7.85
677.209	0.85
677.331	30.85
677.453	13.85
677.576	29.85
677.698	5.85
677.82	31.85
677.942	11.85
678.064	4.85
678.187	8.85
678.309	22.85
678.431	2.85
678.553	17.85
678.675	15.85
678.798	21.85
678.92	7.85
679.042	0.85
679.164	8.85
679.286	20.85
679.409	16.85
679.531	3.85
679.653	13.85
679.775	6.85
679.898	7.85
680.02	1.85
680.142	-0.15
680.264	32.85
680.386	-0.15
680.509	15.85
680.631	14.85
680.753	17.85
680.875	-3.15
680.998	37.85
681.12	6.85
681.242	10.85
681.364	-10.15
681.486	5.85
681.609	-2.15
681.731	-1.15
681.853	-4.15
681.975	9.85
682.098	12.85
682.22	30.85
682.342	4.85
682.464	21.85
682.587	12.85
682.709	3.85
682.831	-14.15
682.953	13.85
683.076	5.85
683.198	13.85
683.32	13.85
683.442	34.85
683.565	21.85
683.687	15.85
683.809	6.85
683.931	8.85
684.054	13.85
684.176	24.85
684.298	4.85
684.42	12.85
684.543	25.85
684.665	21.85
684.787	11.85
684.909	8.85
685.032	2.85
685.154	5.85
685.276	11.85
685.398	5.85
685.521	-0.15
685.643	2.85
685.765	4.85
685.887	29.85
686.01	-10.15
686.132	-6.15
686.254	13.85
686.377	14.85
686.499	17.85
686.621	13.85
686.743	9.85
686.866	19.85
686.988	43.85
687.11	31.85
687.232	13.85
687.355	4.85
687.477	9.85
687.599	21.85
687.722	16.85
687.844	16.85
687.966	3.85
688.088	13.85
688.211	22.85
688.333	25.85
688.455	2.85
688.578	35.85
688.7	14.85
688.822	4.85
688.944	-10.15
689.067	36.85
689.189	11.85
689.311	-4.15
689.434	7.85
689.556	22.85
689.678	9.85
689.801	5.85
689.923	26.85
690.045	20.85
690.167	28.85
690.29	16.85
690.412	7.85
690.534	19.85
690.657	2.85
690.779	-0.15
690.901	26.85
691.024	11.85
691.146	-11.15
691.268	11.85
691.391	19.85
691.513	35.85
691.635	16.85
691.758	32.85
691.88	29.85
692.002	12.85
692.125	13.85
692.247	17.85
692.369	1.85
692.492	12.85
692.614	7.85
692.736	17.85
692.859	5.85
692.981	19.85
693.103	7.85
693.226	16.85
693.348	22.85
693.47	8.85
693.593	1.85
693.715	-10.15
693.837	2.85
693.96	2.85
694.082	-3.15
694.204	22.85
694.327	11.85
694.449	-12.15
694.571	2.85
694.694	13.85
694.816	10.85
694.938	-1.15
695.061	2.85
695.183	16.85
695.305	12.85
695.428	8.85
695.55	-11.15
695.672	7.85
695.795	5.85
695.917	27.85
696.04	0.85
696.162	-2.15
696.284	-5.15
696.407	3.85
696.529	22.85
696.651	28.85
696.774	-6.15
696.896	20.85
697.019	5.85
697.141	6.85
697.263	7.85
697.386	11.85
697.508	21.85
697.63	26.85
697.753	21.85
697.875	15.85
697.998	13.85
698.12	1.85
698.242	18.85
698.365	-2.15
698.487	-0.15
698.61	11.85
698.732	28.85
698.854	45.85
698.977	7.85
699.099	17.85
699.221	6.85
699.344	13.85
699.466	8.85
699.589	8.85
699.711	-3.15
699.834	24.85
699.956	-12.15
700.078	7.85
700.201	5.85
700.323	38.85
700.446	3.85
700.568	3.85
700.69	5.85
700.813	5.85
700.935	12.85
701.058	17.85
701.18	8.85
701.302	3.85
701.425	-7.15
701.547	-4.15
701.67	-5.15
701.792	2.85
701.915	-1.15
702.037	-6.15
702.159	-2.15
702.282	12.85
702.404	0.85
702.527	17.85
702.649	23.85
702.772	6.85
702.894	14.85
703.017	33.85
703.139	27.85
703.261	43.85
703.384	1.85
703.506	-11.15
703.629	2.85
703.751	24.85
703.874	9.85
703.996	4.85
704.119	-16.15
704.241	3.85
704.364	-8.15
704.486	7.85
704.608	-0.15
704.731	2.85
704.853	12.85
704.976	22.85
705.098	16.85
705.221	4.85
705.343	11.85
705.466	9.85
705.588	1.85
705.711	7.85
705.833	9.85
705.956	21.85
706.078	10.85
706.201	10.85
706.323	4.85
706.446	7.85
