Data from LowRes_H2_15_26_11_07_2024_HR4C61881__73__15-28-20-936.txt Node

Date: Thu Nov 07 15:28:20 EST 2024
User: crc00042
Spectrometer: HR4C6188
Trigger mode: 4
Integration Time (sec): 1.000000E-1
Scans to average: 1
Electric dark correction enabled: true
Nonlinearity correction enabled: false
Boxcar width: 0
XAxis mode: Wavelengths
Number of Pixels in Spectrum: 3648
>>>>>Begin Spectral Data<<<<<
245.66	-116.23
245.797	-116.23
245.934	-116.23
246.071	-82.23
246.208	5.77
246.344	-14.23
246.481	0.77
246.618	-16.23
246.755	19.77
246.892	1.77
247.029	0.77
247.165	-26.23
247.302	3.77
247.439	-1.23
247.576	6.77
247.713	1.77
247.849	28.77
247.986	-6.23
248.123	-6.23
248.26	-4.23
248.396	3.77
248.533	-3.23
248.67	-16.23
248.806	5.77
248.943	-9.23
249.08	-11.23
249.216	-0.23
249.353	-17.23
249.49	1.77
249.626	-23.23
249.763	-5.23
249.9	-16.23
250.036	2.77
250.173	-0.23
250.309	-6.23
250.446	-0.23
250.582	-10.23
250.719	-16.23
250.856	-12.23
250.992	-12.23
251.129	-3.23
251.265	-10.23
251.402	5.77
251.538	-2.23
251.675	1.77
251.811	6.77
251.948	21.77
252.084	10.77
252.221	14.77
252.357	-0.23
252.493	14.77
252.63	-11.23
252.766	18.77
252.903	9.77
253.039	10.77
253.175	-0.23
253.312	17.77
253.448	-14.23
253.585	-13.23
253.721	8.77
253.857	-8.23
253.994	-6.23
254.13	0.77
254.266	-10.23
254.403	-1.23
254.539	-0.23
254.675	0.77
254.811	9.77
254.948	-5.23
255.084	-6.23
255.22	-27.23
255.356	-15.23
255.493	3.77
255.629	1.77
255.765	5.77
255.901	2.77
256.037	2.77
256.174	7.77
256.31	-3.23
256.446	-3.23
256.582	-11.23
256.718	-2.23
256.854	14.77
256.991	-4.23
257.127	18.77
257.263	6.77
257.399	14.77
257.535	-23.23
257.671	2.77
257.807	-16.23
257.943	-23.23
258.079	-8.23
258.215	-16.23
258.351	11.77
258.487	20.77
258.623	29.77
258.759	3.77
258.895	-0.23
259.031	-19.23
259.167	-2.23
259.303	29.77
259.439	3.77
259.575	-15.23
259.711	1.77
259.847	-9.23
259.983	19.77
260.119	-18.23
260.255	-3.23
260.391	10.77
260.527	13.77
260.663	14.77
260.799	7.77
260.934	16.77
261.07	-15.23
261.206	1.77
261.342	-24.23
261.478	12.77
261.614	9.77
261.749	-7.23
261.885	-7.23
262.021	-18.23
262.157	8.77
262.293	-4.23
262.428	5.77
262.564	1.77
262.7	-1.23
262.836	8.77
262.971	22.77
263.107	21.77
263.243	15.77
263.378	6.77
263.514	-15.23
263.65	-6.23
263.785	-2.23
263.921	-6.23
264.057	0.77
264.192	12.77
264.328	22.77
264.464	-17.23
264.599	-7.23
264.735	17.77
264.871	4.77
265.006	-4.23
265.142	-3.23
265.277	25.77
265.413	12.77
265.548	10.77
265.684	5.77
265.819	1.77
265.955	-24.23
266.091	-10.23
266.226	3.77
266.362	3.77
266.497	-6.23
266.633	-7.23
266.768	-6.23
266.903	3.77
267.039	13.77
267.174	13.77
267.31	-7.23
267.445	-6.23
267.581	-19.23
267.716	17.77
267.851	13.77
267.987	22.77
268.122	7.77
268.258	-20.23
268.393	-10.23
268.528	8.77
268.664	-2.23
268.799	-1.23
268.934	4.77
269.07	6.77
269.205	-1.23
269.34	8.77
269.476	6.77
269.611	-13.23
269.746	9.77
269.881	3.77
270.017	18.77
270.152	12.77
270.287	3.77
270.422	4.77
270.558	-4.23
270.693	2.77
270.828	-9.23
270.963	-18.23
271.098	-2.23
271.234	2.77
271.369	24.77
271.504	-13.23
271.639	-15.23
271.774	-7.23
271.909	-16.23
272.045	-19.23
272.18	-10.23
272.315	8.77
272.45	14.77
272.585	-6.23
272.72	-6.23
272.855	1.77
272.99	29.77
273.125	-24.23
273.26	-15.23
273.395	-23.23
273.53	-32.23
273.665	1.77
273.8	1.77
273.935	-0.23
274.07	-6.23
274.205	-0.23
274.34	14.77
274.475	-0.23
274.61	28.77
274.745	-9.23
274.88	16.77
275.015	-25.23
275.15	0.77
275.285	-0.23
275.42	-0.23
275.555	20.77
275.69	10.77
275.825	-10.23
275.959	13.77
276.094	-3.23
276.229	-2.23
276.364	-18.23
276.499	9.77
276.634	2.77
276.768	-8.23
276.903	0.77
277.038	14.77
277.173	8.77
277.308	-2.23
277.442	-16.23
277.577	1.77
277.712	3.77
277.847	-13.23
277.981	-3.23
278.116	-22.23
278.251	13.77
278.386	-2.23
278.52	20.77
278.655	-13.23
278.79	6.77
278.924	-2.23
279.059	5.77
279.194	-1.23
279.328	22.77
279.463	16.77
279.598	30.77
279.732	-1.23
279.867	16.77
280.001	-2.23
280.136	-16.23
280.271	5.77
280.405	-2.23
280.54	-13.23
280.674	-7.23
280.809	12.77
280.943	-1.23
281.078	0.77
281.213	13.77
281.347	24.77
281.482	5.77
281.616	-1.23
281.751	0.77
281.885	-28.23
282.02	-8.23
282.154	-10.23
282.288	-13.23
282.423	-30.23
282.557	-10.23
282.692	6.77
282.826	5.77
282.961	-6.23
283.095	-17.23
283.229	-19.23
283.364	-29.23
283.498	-2.23
283.633	15.77
283.767	9.77
283.901	-1.23
284.036	5.77
284.17	-19.23
284.304	-6.23
284.439	-16.23
284.573	-16.23
284.707	17.77
284.842	-10.23
284.976	-19.23
285.11	-16.23
285.244	14.77
285.379	39.77
285.513	-3.23
285.647	8.77
285.781	6.77
285.916	22.77
286.05	-7.23
286.184	16.77
286.318	2.77
286.453	-12.23
286.587	-16.23
286.721	-21.23
286.855	0.77
286.989	11.77
287.123	-10.23
287.258	-12.23
287.392	-10.23
287.526	14.77
287.66	-20.23
287.794	-8.23
287.928	-9.23
288.062	11.77
288.196	-20.23
288.33	-8.23
288.464	32.77
288.598	13.77
288.733	0.77
288.867	5.77
289.001	-0.23
289.135	-0.23
289.269	-16.23
289.403	-14.23
289.537	3.77
289.671	-2.23
289.805	-29.23
289.939	-6.23
290.073	-7.23
290.207	2.77
290.34	-13.23
290.474	4.77
290.608	8.77
290.742	-6.23
290.876	-6.23
291.01	-6.23
291.144	24.77
291.278	-2.23
291.412	-16.23
291.546	-15.23
291.679	-19.23
291.813	2.77
291.947	-5.23
292.081	-11.23
292.215	-7.23
292.349	4.77
292.482	-9.23
292.616	-26.23
292.75	-0.23
292.884	9.77
293.018	-5.23
293.151	-18.23
293.285	1.77
293.419	-23.23
293.553	-8.23
293.686	3.77
293.82	13.77
293.954	13.77
294.088	24.77
294.221	-14.23
294.355	-2.23
294.489	-2.23
294.622	-6.23
294.756	-3.23
294.89	7.77
295.023	3.77
295.157	12.77
295.291	7.77
295.424	25.77
295.558	7.77
295.691	-17.23
295.825	-18.23
295.959	-2.23
296.092	-3.23
296.226	-17.23
296.359	1.77
296.493	15.77
296.627	4.77
296.76	9.77
296.894	-7.23
297.027	-13.23
297.161	-9.23
297.294	-19.23
297.428	-6.23
297.561	27.77
297.695	-4.23
297.828	-5.23
297.962	2.77
298.095	9.77
298.229	3.77
298.362	-28.23
298.495	-12.23
298.629	3.77
298.762	-2.23
298.896	15.77
299.029	-23.23
299.162	-0.23
299.296	12.77
299.429	-17.23
299.563	-5.23
299.696	4.77
299.829	6.77
299.963	7.77
300.096	2.77
300.229	2.77
300.363	-6.23
300.496	-11.23
300.629	-12.23
300.763	-11.23
300.896	0.77
301.029	6.77
301.162	-0.23
301.296	-1.23
301.429	7.77
301.562	-23.23
301.695	11.77
301.829	4.77
301.962	22.77
302.095	-3.23
302.228	-16.23
302.362	0.77
302.495	-1.23
302.628	1.77
302.761	-28.23
302.894	-4.23
303.027	18.77
303.161	0.77
303.294	-6.23
303.427	-0.23
303.56	5.77
303.693	-3.23
303.826	15.77
303.959	-2.23
304.092	-7.23
304.225	-14.23
304.359	14.77
304.492	13.77
304.625	-11.23
304.758	7.77
304.891	-9.23
305.024	15.77
305.157	1.77
305.29	-19.23
305.423	-28.23
305.556	6.77
305.689	19.77
305.822	-28.23
305.955	-14.23
306.088	-13.23
306.221	-15.23
306.354	-3.23
306.487	-11.23
306.62	-20.23
306.752	-3.23
306.885	-6.23
307.018	-19.23
307.151	12.77
307.284	16.77
307.417	-0.23
307.55	14.77
307.683	-12.23
307.816	27.77
307.948	-1.23
308.081	12.77
308.214	4.77
308.347	9.77
308.48	0.77
308.613	-14.23
308.745	-10.23
308.878	-19.23
309.011	-14.23
309.144	-1.23
309.277	-16.23
309.409	6.77
309.542	-7.23
309.675	0.77
309.808	-2.23
309.94	16.77
310.073	-17.23
310.206	0.77
310.339	14.77
310.471	-13.23
310.604	2.77
310.737	-8.23
310.869	-9.23
311.002	-2.23
311.135	-17.23
311.267	-25.23
311.4	9.77
311.533	8.77
311.665	-12.23
311.798	3.77
311.93	0.77
312.063	9.77
312.196	7.77
312.328	1.77
312.461	-2.23
312.593	-2.23
312.726	20.77
312.859	-1.23
312.991	20.77
313.124	-28.23
313.256	-3.23
313.389	-3.23
313.521	-14.23
313.654	-13.23
313.786	-18.23
313.919	-16.23
314.051	-1.23
314.184	-12.23
314.316	-5.23
314.449	-17.23
314.581	-6.23
314.714	-27.23
314.846	-5.23
314.978	-23.23
315.111	-2.23
315.243	-16.23
315.376	0.77
315.508	20.77
315.641	-1.23
315.773	22.77
315.905	2.77
316.038	12.77
316.17	4.77
316.302	3.77
316.435	-4.23
316.567	-10.23
316.699	13.77
316.832	-18.23
316.964	-12.23
317.096	-18.23
317.229	-12.23
317.361	-22.23
317.493	-9.23
317.625	-5.23
317.758	10.77
317.89	17.77
318.022	-8.23
318.155	-12.23
318.287	-11.23
318.419	-7.23
318.551	-4.23
318.683	8.77
318.816	15.77
318.948	-10.23
319.08	-3.23
319.212	1.77
319.344	-1.23
319.477	-18.23
319.609	-0.23
319.741	15.77
319.873	-6.23
320.005	-4.23
320.137	3.77
320.269	5.77
320.401	-4.23
320.534	4.77
320.666	-14.23
320.798	-5.23
320.93	-15.23
321.062	-22.23
321.194	-14.23
321.326	-2.23
321.458	-3.23
321.59	-6.23
321.722	-2.23
321.854	-10.23
321.986	-8.23
322.118	-13.23
322.25	-12.23
322.382	0.77
322.514	-1.23
322.646	-14.23
322.778	5.77
322.91	-3.23
323.042	6.77
323.174	7.77
323.306	-5.23
323.438	-26.23
323.57	-0.23
323.702	0.77
323.834	-4.23
323.966	-15.23
324.097	12.77
324.229	20.77
324.361	17.77
324.493	-3.23
324.625	-10.23
324.757	14.77
324.889	-3.23
325.021	0.77
325.152	-2.23
325.284	11.77
325.416	-14.23
325.548	9.77
325.68	16.77
325.811	30.77
325.943	13.77
326.075	-9.23
326.207	-1.23
326.339	15.77
326.47	-4.23
326.602	-9.23
326.734	4.77
326.866	20.77
326.997	0.77
327.129	0.77
327.261	-19.23
327.392	-10.23
327.524	0.77
327.656	-5.23
327.787	8.77
327.919	-5.23
328.051	-16.23
328.182	11.77
328.314	10.77
328.446	-18.23
328.577	3.77
328.709	-4.23
328.841	-26.23
328.972	-10.23
329.104	-2.23
329.235	4.77
329.367	-7.23
329.499	4.77
329.63	-0.23
329.762	-7.23
329.893	16.77
330.025	10.77
330.156	-11.23
330.288	17.77
330.419	12.77
330.551	17.77
330.683	0.77
330.814	-0.23
330.946	11.77
331.077	4.77
331.208	4.77
331.34	5.77
331.471	-8.23
331.603	1.77
331.734	-25.23
331.866	22.77
331.997	23.77
332.129	3.77
332.26	-8.23
332.392	4.77
332.523	3.77
332.654	-14.23
332.786	-4.23
332.917	-13.23
333.048	-7.23
333.18	20.77
333.311	-10.23
333.443	10.77
333.574	-0.23
333.705	15.77
333.837	-13.23
333.968	5.77
334.099	16.77
334.231	4.77
334.362	-9.23
334.493	-6.23
334.624	13.77
334.756	-5.23
334.887	-12.23
335.018	9.77
335.15	7.77
335.281	-10.23
335.412	13.77
335.543	3.77
335.675	-3.23
335.806	-2.23
335.937	-2.23
336.068	-7.23
336.199	29.77
336.331	-19.23
336.462	-24.23
336.593	-6.23
336.724	-6.23
336.855	-11.23
336.986	4.77
337.118	10.77
337.249	18.77
337.38	-1.23
337.511	-15.23
337.642	3.77
337.773	11.77
337.904	8.77
338.035	3.77
338.166	-3.23
338.298	3.77
338.429	-10.23
338.56	2.77
338.691	12.77
338.822	4.77
338.953	1.77
339.084	5.77
339.215	8.77
339.346	13.77
339.477	-12.23
339.608	0.77
339.739	-10.23
339.87	15.77
340.001	-7.23
340.132	11.77
340.263	-3.23
340.394	15.77
340.525	15.77
340.656	8.77
340.787	-2.23
340.918	25.77
341.049	-4.23
341.179	-8.23
341.31	-16.23
341.441	14.77
341.572	-7.23
341.703	7.77
341.834	-8.23
341.965	11.77
342.096	-14.23
342.227	-19.23
342.357	-9.23
342.488	3.77
342.619	13.77
342.75	-4.23
342.881	-12.23
343.012	14.77
343.142	19.77
343.273	-11.23
343.404	5.77
343.535	15.77
343.666	6.77
343.796	18.77
343.927	13.77
344.058	18.77
344.189	-12.23
344.319	-2.23
344.45	4.77
344.581	-7.23
344.712	-15.23
344.842	-6.23
344.973	-5.23
345.104	1.77
345.234	-7.23
345.365	-3.23
345.496	11.77
345.626	1.77
345.757	-2.23
345.888	-13.23
346.018	0.77
346.149	7.77
346.28	12.77
346.41	9.77
346.541	5.77
346.672	5.77
346.802	1.77
346.933	6.77
347.063	10.77
347.194	-6.23
347.325	7.77
347.455	5.77
347.586	-6.23
347.716	-19.23
347.847	-3.23
347.977	-3.23
348.108	13.77
348.238	9.77
348.369	-9.23
348.499	-1.23
348.63	-4.23
348.76	5.77
348.891	-11.23
349.021	2.77
349.152	20.77
349.282	2.77
349.413	-6.23
349.543	21.77
349.674	1.77
349.804	18.77
349.935	-7.23
350.065	-3.23
350.196	-7.23
350.326	1.77
350.456	-7.23
350.587	16.77
350.717	18.77
350.848	4.77
350.978	14.77
351.108	-24.23
351.239	11.77
351.369	-19.23
351.499	-3.23
351.63	3.77
351.76	3.77
351.89	-3.23
352.021	-8.23
352.151	-10.23
352.281	3.77
352.412	9.77
352.542	10.77
352.672	0.77
352.803	16.77
352.933	-1.23
353.063	-3.23
353.193	-0.23
353.324	3.77
353.454	31.77
353.584	31.77
353.714	4.77
353.845	12.77
353.975	-6.23
354.105	-15.23
354.235	-3.23
354.365	-1.23
354.496	-0.23
354.626	16.77
354.756	13.77
354.886	-1.23
355.016	-9.23
355.146	-10.23
355.277	8.77
355.407	4.77
355.537	-8.23
355.667	-1.23
355.797	0.77
355.927	-9.23
356.057	-3.23
356.187	-14.23
356.318	-4.23
356.448	8.77
356.578	15.77
356.708	10.77
356.838	19.77
356.968	6.77
357.098	1.77
357.228	7.77
357.358	8.77
357.488	-12.23
357.618	28.77
357.748	16.77
357.878	2.77
358.008	17.77
358.138	-3.23
358.268	-12.23
358.398	27.77
358.528	-18.23
358.658	-14.23
358.788	-11.23
358.918	-10.23
359.048	5.77
359.178	13.77
359.308	7.77
359.438	10.77
359.568	15.77
359.698	20.77
359.827	3.77
359.957	-5.23
360.087	11.77
360.217	-10.23
360.347	2.77
360.477	18.77
360.607	-7.23
360.737	14.77
360.866	-10.23
360.996	-12.23
361.126	-19.23
361.256	9.77
361.386	24.77
361.516	-1.23
361.645	-18.23
361.775	6.77
361.905	-11.23
362.035	-0.23
362.165	-8.23
362.294	3.77
362.424	17.77
362.554	11.77
362.684	-15.23
362.813	14.77
362.943	15.77
363.073	-4.23
363.203	0.77
363.332	16.77
363.462	-8.23
363.592	-10.23
363.721	-1.23
363.851	-3.23
363.981	11.77
364.111	-3.23
364.24	3.77
364.37	17.77
364.5	13.77
364.629	8.77
364.759	-25.23
364.888	-21.23
365.018	-22.23
365.148	3.77
365.277	12.77
365.407	17.77
365.537	29.77
365.666	-1.23
365.796	-10.23
365.925	-1.23
366.055	-6.23
366.184	-0.23
366.314	1.77
366.444	2.77
366.573	-10.23
366.703	-14.23
366.832	5.77
366.962	2.77
367.091	16.77
367.221	-0.23
367.35	-2.23
367.48	28.77
367.609	3.77
367.739	-7.23
367.868	-11.23
367.998	-2.23
368.127	14.77
368.257	13.77
368.386	18.77
368.516	19.77
368.645	15.77
368.775	4.77
368.904	27.77
369.033	3.77
369.163	6.77
369.292	5.77
369.422	-8.23
369.551	24.77
369.68	14.77
369.81	0.77
369.939	9.77
370.069	23.77
370.198	6.77
370.327	-13.23
370.457	-3.23
370.586	6.77
370.715	-7.23
370.845	-9.23
370.974	14.77
371.103	17.77
371.233	17.77
371.362	5.77
371.491	-12.23
371.621	6.77
371.75	10.77
371.879	-37.23
372.008	-10.23
372.138	-10.23
372.267	15.77
372.396	7.77
372.525	3.77
372.655	10.77
372.784	4.77
372.913	-9.23
373.042	1.77
373.172	28.77
373.301	-0.23
373.43	-12.23
373.559	4.77
373.688	2.77
373.818	8.77
373.947	22.77
374.076	16.77
374.205	8.77
374.334	-5.23
374.463	-15.23
374.593	5.77
374.722	11.77
374.851	13.77
374.98	-2.23
375.109	2.77
375.238	12.77
375.367	31.77
375.496	2.77
375.625	-12.23
375.755	4.77
375.884	24.77
376.013	16.77
376.142	-19.23
376.271	-9.23
376.4	1.77
376.529	-2.23
376.658	8.77
376.787	1.77
376.916	-13.23
377.045	7.77
377.174	-18.23
377.303	-7.23
377.432	19.77
377.561	12.77
377.69	-11.23
377.819	9.77
377.948	-10.23
378.077	-11.23
378.206	-2.23
378.335	-5.23
378.464	8.77
378.593	3.77
378.722	-12.23
378.851	5.77
378.98	15.77
379.108	-15.23
379.237	-6.23
379.366	11.77
379.495	13.77
379.624	5.77
379.753	16.77
379.882	13.77
380.011	0.77
380.14	-10.23
380.268	6.77
380.397	13.77
380.526	10.77
380.655	-15.23
380.784	-12.23
380.913	-9.23
381.041	-8.23
381.17	-16.23
381.299	-1.23
381.428	14.77
381.557	15.77
381.685	0.77
381.814	6.77
381.943	15.77
382.072	-6.23
382.2	3.77
382.329	4.77
382.458	-9.23
382.587	11.77
382.715	20.77
382.844	23.77
382.973	22.77
383.102	0.77
383.23	-8.23
383.359	-20.23
383.488	13.77
383.616	4.77
383.745	-28.23
383.874	8.77
384.003	-0.23
384.131	-4.23
384.26	-11.23
384.389	14.77
384.517	-8.23
384.646	-27.23
384.774	4.77
384.903	32.77
385.032	24.77
385.16	1.77
385.289	-10.23
385.418	-6.23
385.546	-4.23
385.675	-14.23
385.803	-0.23
385.932	-5.23
386.06	-7.23
386.189	-2.23
386.318	8.77
386.446	-7.23
386.575	9.77
386.703	10.77
386.832	-16.23
386.96	-26.23
387.089	7.77
387.217	4.77
387.346	-4.23
387.474	6.77
387.603	1.77
387.731	3.77
387.86	10.77
387.988	16.77
388.117	27.77
388.245	6.77
388.374	-0.23
388.502	5.77
388.631	-15.23
388.759	-8.23
388.888	0.77
389.016	-7.23
389.144	-14.23
389.273	15.77
389.401	-25.23
389.53	-14.23
389.658	10.77
389.786	-27.23
389.915	-14.23
390.043	0.77
390.172	9.77
390.3	2.77
390.428	10.77
390.557	-13.23
390.685	3.77
390.813	8.77
390.942	6.77
391.07	-10.23
391.198	-20.23
391.327	-0.23
391.455	-17.23
391.583	27.77
391.712	3.77
391.84	17.77
391.968	-13.23
392.096	5.77
392.225	2.77
392.353	-12.23
392.481	-21.23
392.609	-1.23
392.738	-0.23
392.866	3.77
392.994	-22.23
393.122	16.77
393.251	-5.23
393.379	-3.23
393.507	-21.23
393.635	-13.23
393.764	3.77
393.892	4.77
394.02	7.77
394.148	4.77
394.276	16.77
394.404	15.77
394.533	4.77
394.661	9.77
394.789	9.77
394.917	26.77
395.045	4.77
395.173	-11.23
395.302	22.77
395.43	16.77
395.558	21.77
395.686	21.77
395.814	5.77
395.942	-11.23
396.07	-3.23
396.198	1.77
396.326	-1.23
396.454	31.77
396.582	12.77
396.711	-11.23
396.839	20.77
396.967	2.77
397.095	3.77
397.223	7.77
397.351	16.77
397.479	32.77
397.607	11.77
397.735	4.77
397.863	8.77
397.991	2.77
398.119	-16.23
398.247	-10.23
398.375	6.77
398.503	9.77
398.631	15.77
398.759	4.77
398.887	-10.23
399.015	0.77
399.143	6.77
399.271	0.77
399.399	15.77
399.526	20.77
399.654	21.77
399.782	-0.23
399.91	18.77
400.038	25.77
400.166	-6.23
400.294	-6.23
400.422	-20.23
400.55	3.77
400.678	6.77
400.805	1.77
400.933	1.77
401.061	-0.23
401.189	-5.23
401.317	13.77
401.445	16.77
401.573	29.77
401.7	12.77
401.828	-8.23
401.956	-11.23
402.084	11.77
402.212	25.77
402.34	-0.23
402.467	-2.23
402.595	5.77
402.723	10.77
402.851	15.77
402.978	-4.23
403.106	-3.23
403.234	1.77
403.362	35.77
403.489	34.77
403.617	12.77
403.745	3.77
403.873	-8.23
404	17.77
404.128	0.77
404.256	6.77
404.384	25.77
404.511	3.77
404.639	-7.23
404.767	10.77
404.894	3.77
405.022	-3.23
405.15	12.77
405.277	-7.23
405.405	-4.23
405.533	7.77
405.66	-3.23
405.788	-7.23
405.916	-3.23
406.043	-6.23
406.171	-7.23
406.299	17.77
406.426	-7.23
406.554	16.77
406.681	25.77
406.809	6.77
406.937	-1.23
407.064	-3.23
407.192	4.77
407.319	6.77
407.447	-16.23
407.574	17.77
407.702	12.77
407.83	9.77
407.957	-17.23
408.085	-2.23
408.212	4.77
408.34	12.77
408.467	-8.23
408.595	11.77
408.722	11.77
408.85	23.77
408.977	-12.23
409.105	-11.23
409.232	6.77
409.36	-1.23
409.487	2.77
409.615	12.77
409.742	27.77
409.87	43.77
409.997	34.77
410.125	26.77
410.252	39.77
410.379	45.77
410.507	46.77
410.634	11.77
410.762	17.77
410.889	30.77
411.017	6.77
411.144	27.77
411.271	-24.23
411.399	-6.23
411.526	3.77
411.653	8.77
411.781	26.77
411.908	24.77
412.036	12.77
412.163	31.77
412.29	6.77
412.418	4.77
412.545	15.77
412.672	3.77
412.8	28.77
412.927	-0.23
413.054	24.77
413.182	15.77
413.309	-0.23
413.436	-13.23
413.564	4.77
413.691	3.77
413.818	19.77
413.945	-12.23
414.073	-6.23
414.2	0.77
414.327	-1.23
414.454	7.77
414.582	16.77
414.709	-8.23
414.836	-4.23
414.963	-10.23
415.091	5.77
415.218	-9.23
415.345	6.77
415.472	7.77
415.6	-5.23
415.727	0.77
415.854	-10.23
415.981	-10.23
416.108	14.77
416.236	19.77
416.363	16.77
416.49	5.77
416.617	9.77
416.744	17.77
416.871	7.77
416.998	6.77
417.126	-11.23
417.253	-8.23
417.38	2.77
417.507	7.77
417.634	25.77
417.761	23.77
417.888	16.77
418.015	6.77
418.143	19.77
418.27	25.77
418.397	-1.23
418.524	-2.23
418.651	-8.23
418.778	12.77
418.905	16.77
419.032	15.77
419.159	6.77
419.286	22.77
419.413	12.77
419.54	50.77
419.667	-0.23
419.794	-23.23
419.921	0.77
420.048	-5.23
420.175	2.77
420.302	-14.23
420.429	2.77
420.556	6.77
420.683	-7.23
420.81	4.77
420.937	24.77
421.064	24.77
421.191	-12.23
421.318	21.77
421.445	29.77
421.572	-0.23
421.699	18.77
421.826	16.77
421.953	15.77
422.08	18.77
422.207	-19.23
422.334	3.77
422.461	14.77
422.588	-3.23
422.714	22.77
422.841	23.77
422.968	-4.23
423.095	15.77
423.222	-9.23
423.349	8.77
423.476	3.77
423.603	-5.23
423.729	-8.23
423.856	-3.23
423.983	19.77
424.11	-5.23
424.237	7.77
424.364	22.77
424.491	6.77
424.617	-24.23
424.744	-5.23
424.871	-12.23
424.998	6.77
425.125	-4.23
425.251	-1.23
425.378	-0.23
425.505	4.77
425.632	3.77
425.758	-14.23
425.885	3.77
426.012	-15.23
426.139	25.77
426.266	-1.23
426.392	-1.23
426.519	7.77
426.646	-1.23
426.772	9.77
426.899	9.77
427.026	-0.23
427.153	0.77
427.279	6.77
427.406	13.77
427.533	3.77
427.659	-10.23
427.786	-14.23
427.913	15.77
428.039	-10.23
428.166	3.77
428.293	8.77
428.419	1.77
428.546	5.77
428.673	-12.23
428.799	-17.23
428.926	-2.23
429.053	20.77
429.179	4.77
429.306	8.77
429.433	23.77
429.559	21.77
429.686	-7.23
429.812	10.77
429.939	-5.23
430.066	18.77
430.192	13.77
430.319	0.77
430.445	3.77
430.572	5.77
430.699	-20.23
430.825	-13.23
430.952	2.77
431.078	19.77
431.205	-2.23
431.331	-3.23
431.458	10.77
431.584	17.77
431.711	-4.23
431.837	13.77
431.964	0.77
432.09	-0.23
432.217	-26.23
432.343	3.77
432.47	15.77
432.596	10.77
432.723	5.77
432.849	-9.23
432.976	4.77
433.102	-2.23
433.229	1.77
433.355	9.77
433.482	95.77
433.608	160.77
433.735	150.77
433.861	128.77
433.987	140.77
434.114	231.77
434.24	215.77
434.367	69.77
434.493	8.77
434.62	-8.23
434.746	9.77
434.872	0.77
434.999	13.77
435.125	0.77
435.252	0.77
435.378	-0.23
435.504	4.77
435.631	17.77
435.757	3.77
435.883	18.77
436.01	12.77
436.136	6.77
436.262	9.77
436.389	10.77
436.515	25.77
436.641	12.77
436.768	10.77
436.894	6.77
437.02	5.77
437.147	29.77
437.273	3.77
437.399	-5.23
437.526	10.77
437.652	2.77
437.778	11.77
437.904	-9.23
438.031	-8.23
438.157	15.77
438.283	17.77
438.409	-11.23
438.536	-12.23
438.662	16.77
438.788	16.77
438.914	10.77
439.041	17.77
439.167	15.77
439.293	0.77
439.419	-2.23
439.546	16.77
439.672	-0.23
439.798	27.77
439.924	22.77
440.05	31.77
440.177	14.77
440.303	4.77
440.429	4.77
440.555	6.77
440.681	10.77
440.807	11.77
440.934	-10.23
441.06	9.77
441.186	-12.23
441.312	-10.23
441.438	-4.23
441.564	24.77
441.69	16.77
441.816	9.77
441.943	-8.23
442.069	7.77
442.195	4.77
442.321	12.77
442.447	-13.23
442.573	-1.23
442.699	-1.23
442.825	-24.23
442.951	12.77
443.077	24.77
443.203	12.77
443.33	2.77
443.456	-16.23
443.582	-3.23
443.708	-5.23
443.834	10.77
443.96	-7.23
444.086	23.77
444.212	23.77
444.338	26.77
444.464	5.77
444.59	22.77
444.716	8.77
444.842	-6.23
444.968	-2.23
445.094	-6.23
445.22	18.77
445.346	-7.23
445.472	5.77
445.598	6.77
445.724	-10.23
445.85	2.77
445.976	3.77
446.102	-2.23
446.228	-9.23
446.354	-3.23
446.48	8.77
446.605	10.77
446.731	9.77
446.857	-14.23
446.983	11.77
447.109	5.77
447.235	4.77
447.361	-6.23
447.487	-6.23
447.613	-0.23
447.739	-14.23
447.865	12.77
447.99	24.77
448.116	13.77
448.242	20.77
448.368	0.77
448.494	3.77
448.62	9.77
448.746	15.77
448.872	12.77
448.997	-14.23
449.123	-0.23
449.249	20.77
449.375	25.77
449.501	11.77
449.627	-6.23
449.752	32.77
449.878	-12.23
450.004	4.77
450.13	17.77
450.256	14.77
450.381	3.77
450.507	-2.23
450.633	-9.23
450.759	10.77
450.884	5.77
451.01	15.77
451.136	5.77
451.262	2.77
451.388	-3.23
451.513	-8.23
451.639	-5.23
451.765	7.77
451.89	9.77
452.016	9.77
452.142	9.77
452.268	6.77
452.393	6.77
452.519	-3.23
452.645	12.77
452.771	-9.23
452.896	-2.23
453.022	4.77
453.148	24.77
453.273	16.77
453.399	0.77
453.525	-23.23
453.65	-13.23
453.776	24.77
453.902	25.77
454.027	0.77
454.153	11.77
454.279	24.77
454.404	6.77
454.53	22.77
454.656	22.77
454.781	-5.23
454.907	8.77
455.032	8.77
455.158	24.77
455.284	16.77
455.409	3.77
455.535	9.77
455.66	13.77
455.786	21.77
455.912	7.77
456.037	-24.23
456.163	-9.23
456.288	14.77
456.414	-1.23
456.539	-6.23
456.665	20.77
456.791	5.77
456.916	15.77
457.042	8.77
457.167	-8.23
457.293	15.77
457.418	-5.23
457.544	-15.23
457.669	-15.23
457.795	-16.23
457.92	-1.23
458.046	11.77
458.171	6.77
458.297	-3.23
458.422	-4.23
458.548	-5.23
458.673	-0.23
458.799	1.77
458.924	-0.23
459.05	15.77
459.175	7.77
459.301	21.77
459.426	5.77
459.552	-8.23
459.677	9.77
459.803	36.77
459.928	19.77
460.053	11.77
460.179	7.77
460.304	4.77
460.43	-10.23
460.555	-2.23
460.681	-11.23
460.806	8.77
460.931	7.77
461.057	14.77
461.182	9.77
461.308	11.77
461.433	11.77
461.558	-9.23
461.684	35.77
461.809	5.77
461.934	-1.23
462.06	13.77
462.185	3.77
462.311	3.77
462.436	4.77
462.561	9.77
462.687	-0.23
462.812	7.77
462.937	-8.23
463.063	1.77
463.188	-16.23
463.313	30.77
463.439	10.77
463.564	8.77
463.689	9.77
463.814	6.77
463.94	-2.23
464.065	16.77
464.19	34.77
464.316	-3.23
464.441	-6.23
464.566	-13.23
464.692	6.77
464.817	0.77
464.942	-1.23
465.067	-8.23
465.193	-20.23
465.318	-1.23
465.443	9.77
465.568	5.77
465.694	14.77
465.819	11.77
465.944	-4.23
466.069	14.77
466.194	16.77
466.32	11.77
466.445	11.77
466.57	-17.23
466.695	-12.23
466.82	10.77
466.946	8.77
467.071	2.77
467.196	7.77
467.321	7.77
467.446	-11.23
467.572	-0.23
467.697	-2.23
467.822	-4.23
467.947	2.77
468.072	-5.23
468.197	-9.23
468.323	-16.23
468.448	3.77
468.573	-4.23
468.698	13.77
468.823	7.77
468.948	15.77
469.073	5.77
469.198	8.77
469.324	8.77
469.449	1.77
469.574	1.77
469.699	20.77
469.824	9.77
469.949	9.77
470.074	27.77
470.199	36.77
470.324	39.77
470.449	16.77
470.574	-0.23
470.7	-1.23
470.825	18.77
470.95	22.77
471.075	-6.23
471.2	14.77
471.325	16.77
471.45	12.77
471.575	4.77
471.7	-0.23
471.825	-8.23
471.95	-11.23
472.075	-0.23
472.2	-9.23
472.325	0.77
472.45	17.77
472.575	17.77
472.7	4.77
472.825	34.77
472.95	16.77
473.075	1.77
473.2	-12.23
473.325	-3.23
473.45	0.77
473.575	-8.23
473.7	5.77
473.825	4.77
473.95	14.77
474.075	27.77
474.2	6.77
474.325	2.77
474.45	9.77
474.574	5.77
474.699	17.77
474.824	23.77
474.949	6.77
475.074	10.77
475.199	20.77
475.324	24.77
475.449	-12.23
475.574	16.77
475.699	15.77
475.824	3.77
475.949	3.77
476.073	15.77
476.198	21.77
476.323	5.77
476.448	0.77
476.573	8.77
476.698	26.77
476.823	19.77
476.947	2.77
477.072	16.77
477.197	17.77
477.322	-6.23
477.447	-20.23
477.572	18.77
477.697	-4.23
477.821	0.77
477.946	24.77
478.071	22.77
478.196	14.77
478.321	13.77
478.445	3.77
478.57	3.77
478.695	4.77
478.82	10.77
478.945	16.77
479.069	-7.23
479.194	6.77
479.319	13.77
479.444	26.77
479.569	17.77
479.693	16.77
479.818	26.77
479.943	8.77
480.068	18.77
480.192	25.77
480.317	13.77
480.442	8.77
480.567	-7.23
480.691	-1.23
480.816	-3.23
480.941	0.77
481.066	10.77
481.19	15.77
481.315	21.77
481.44	7.77
481.564	13.77
481.689	31.77
481.814	16.77
481.938	19.77
482.063	8.77
482.188	7.77
482.313	29.77
482.437	10.77
482.562	13.77
482.687	21.77
482.811	11.77
482.936	31.77
483.061	22.77
483.185	13.77
483.31	15.77
483.435	-1.23
483.559	6.77
483.684	14.77
483.808	25.77
483.933	16.77
484.058	7.77
484.182	5.77
484.307	-3.23
484.432	23.77
484.556	19.77
484.681	16.77
484.805	-0.23
484.93	25.77
485.055	42.77
485.179	85.77
485.304	114.77
485.428	357.77
485.553	1248.77
485.678	1782.77
485.802	1640.77
485.927	1784.77
486.051	2684.77
486.176	1643.77
486.3	433.77
486.425	151.77
486.549	81.77
486.674	53.77
486.799	35.77
486.923	36.77
487.048	36.77
487.172	13.77
487.297	13.77
487.421	19.77
487.546	28.77
487.67	17.77
487.795	2.77
487.919	30.77
488.044	30.77
488.168	22.77
488.293	22.77
488.417	18.77
488.542	28.77
488.666	15.77
488.791	25.77
488.915	21.77
489.04	31.77
489.164	30.77
489.289	27.77
489.413	-11.23
489.538	19.77
489.662	27.77
489.786	10.77
489.911	13.77
490.035	0.77
490.16	2.77
490.284	-5.23
490.409	-3.23
490.533	10.77
490.658	31.77
490.782	3.77
490.906	9.77
491.031	-3.23
491.155	12.77
491.28	21.77
491.404	17.77
491.528	28.77
491.653	6.77
491.777	23.77
491.902	-2.23
492.026	27.77
492.15	16.77
492.275	27.77
492.399	18.77
492.524	4.77
492.648	28.77
492.772	33.77
492.897	12.77
493.021	-1.23
493.145	26.77
493.27	8.77
493.394	0.77
493.518	-3.23
493.643	1.77
493.767	28.77
493.891	10.77
494.016	-6.23
494.14	1.77
494.264	11.77
494.389	17.77
494.513	-13.23
494.637	-10.23
494.762	0.77
494.886	10.77
495.01	25.77
495.134	19.77
495.259	14.77
495.383	9.77
495.507	11.77
495.632	34.77
495.756	39.77
495.88	14.77
496.004	2.77
496.129	7.77
496.253	-15.23
496.377	-5.23
496.501	23.77
496.626	-0.23
496.75	16.77
496.874	24.77
496.998	15.77
497.123	29.77
497.247	-9.23
497.371	0.77
497.495	16.77
497.62	11.77
497.744	-1.23
497.868	11.77
497.992	18.77
498.116	8.77
498.241	20.77
498.365	5.77
498.489	-3.23
498.613	14.77
498.737	9.77
498.862	-0.23
498.986	-24.23
499.11	1.77
499.234	19.77
499.358	1.77
499.482	-9.23
499.607	17.77
499.731	15.77
499.855	14.77
499.979	21.77
500.103	7.77
500.227	5.77
500.351	3.77
500.476	2.77
500.6	0.77
500.724	14.77
500.848	25.77
500.972	7.77
501.096	15.77
501.22	31.77
501.344	-13.23
501.469	-2.23
501.593	-3.23
501.717	23.77
501.841	-0.23
501.965	1.77
502.089	12.77
502.213	14.77
502.337	14.77
502.461	-2.23
502.585	3.77
502.709	16.77
502.834	10.77
502.958	10.77
503.082	7.77
503.206	25.77
503.33	33.77
503.454	34.77
503.578	23.77
503.702	19.77
503.826	7.77
503.95	35.77
504.074	12.77
504.198	-1.23
504.322	-0.23
504.446	-3.23
504.57	6.77
504.694	7.77
504.818	9.77
504.942	14.77
505.066	22.77
505.19	19.77
505.314	40.77
505.438	19.77
505.562	3.77
505.686	28.77
505.81	14.77
505.934	11.77
506.058	-0.23
506.182	0.77
506.306	13.77
506.43	0.77
506.554	4.77
506.678	-0.23
506.802	3.77
506.926	9.77
507.05	8.77
507.174	13.77
507.298	22.77
507.422	17.77
507.546	19.77
507.67	18.77
507.794	8.77
507.918	11.77
508.042	-0.23
508.165	-1.23
508.289	-3.23
508.413	2.77
508.537	-6.23
508.661	15.77
508.785	16.77
508.909	6.77
509.033	-8.23
509.157	16.77
509.281	23.77
509.405	23.77
509.528	17.77
509.652	35.77
509.776	0.77
509.9	20.77
510.024	12.77
510.148	7.77
510.272	4.77
510.396	6.77
510.519	2.77
510.643	22.77
510.767	6.77
510.891	4.77
511.015	-2.23
511.139	25.77
511.263	16.77
511.386	20.77
511.51	7.77
511.634	-4.23
511.758	0.77
511.882	-7.23
512.006	20.77
512.129	14.77
512.253	35.77
512.377	0.77
512.501	8.77
512.625	0.77
512.748	8.77
512.872	-1.23
512.996	3.77
513.12	11.77
513.244	7.77
513.367	15.77
513.491	31.77
513.615	19.77
513.739	7.77
513.862	4.77
513.986	10.77
514.11	14.77
514.234	9.77
514.358	24.77
514.481	31.77
514.605	5.77
514.729	21.77
514.853	16.77
514.976	-6.23
515.1	21.77
515.224	25.77
515.348	5.77
515.471	-7.23
515.595	3.77
515.719	12.77
515.842	27.77
515.966	3.77
516.09	20.77
516.214	3.77
516.337	40.77
516.461	14.77
516.585	28.77
516.708	27.77
516.832	12.77
516.956	23.77
517.08	30.77
517.203	13.77
517.327	14.77
517.451	23.77
517.574	36.77
517.698	21.77
517.822	18.77
517.945	31.77
518.069	34.77
518.193	36.77
518.316	49.77
518.44	29.77
518.564	21.77
518.687	20.77
518.811	14.77
518.935	49.77
519.058	25.77
519.182	28.77
519.306	31.77
519.429	28.77
519.553	62.77
519.676	44.77
519.8	7.77
519.924	-4.23
520.047	10.77
520.171	20.77
520.294	12.77
520.418	2.77
520.542	11.77
520.665	10.77
520.789	0.77
520.913	-1.23
521.036	-4.23
521.16	5.77
521.283	18.77
521.407	-0.23
521.53	-9.23
521.654	-6.23
521.778	38.77
521.901	3.77
522.025	6.77
522.148	5.77
522.272	15.77
522.395	15.77
522.519	8.77
522.643	-9.23
522.766	10.77
522.89	-3.23
523.013	23.77
523.137	5.77
523.26	9.77
523.384	23.77
523.507	14.77
523.631	19.77
523.754	6.77
523.878	12.77
524.002	12.77
524.125	-3.23
524.249	-4.23
524.372	-0.23
524.496	7.77
524.619	11.77
524.743	6.77
524.866	-4.23
524.99	5.77
525.113	-5.23
525.237	13.77
525.36	19.77
525.484	12.77
525.607	0.77
525.731	-19.23
525.854	3.77
525.978	12.77
526.101	0.77
526.224	8.77
526.348	16.77
526.471	18.77
526.595	17.77
526.718	2.77
526.842	-7.23
526.965	7.77
527.089	2.77
527.212	14.77
527.336	-16.23
527.459	7.77
527.582	8.77
527.706	22.77
527.829	6.77
527.953	6.77
528.076	-16.23
528.2	2.77
528.323	9.77
528.446	23.77
528.57	-10.23
528.693	14.77
528.817	-10.23
528.94	19.77
529.064	27.77
529.187	7.77
529.31	6.77
529.434	0.77
529.557	0.77
529.68	10.77
529.804	18.77
529.927	12.77
530.051	-4.23
530.174	-6.23
530.297	9.77
530.421	14.77
530.544	13.77
530.668	18.77
530.791	-3.23
530.914	12.77
531.038	7.77
531.161	-4.23
531.284	1.77
531.408	13.77
531.531	10.77
531.654	-1.23
531.778	-8.23
531.901	-4.23
532.024	16.77
532.148	7.77
532.271	27.77
532.394	27.77
532.518	23.77
532.641	29.77
532.764	25.77
532.888	18.77
533.011	-13.23
533.134	-18.23
533.258	16.77
533.381	7.77
533.504	5.77
533.628	6.77
533.751	8.77
533.874	-0.23
533.997	25.77
534.121	19.77
534.244	-5.23
534.367	-5.23
534.491	3.77
534.614	17.77
534.737	22.77
534.86	16.77
534.984	5.77
535.107	11.77
535.23	27.77
535.354	6.77
535.477	-14.23
535.6	1.77
535.723	12.77
535.847	15.77
535.97	-12.23
536.093	12.77
536.216	-4.23
536.34	13.77
536.463	2.77
536.586	25.77
536.709	11.77
536.833	-1.23
536.956	2.77
537.079	-4.23
537.202	23.77
537.325	6.77
537.449	-16.23
537.572	8.77
537.695	6.77
537.818	-10.23
537.941	-7.23
538.065	5.77
538.188	-3.23
538.311	31.77
538.434	15.77
538.558	10.77
538.681	16.77
538.804	9.77
538.927	15.77
539.05	22.77
539.173	8.77
539.297	5.77
539.42	25.77
539.543	12.77
539.666	33.77
539.789	16.77
539.913	-0.23
540.036	12.77
540.159	9.77
540.282	-0.23
540.405	-10.23
540.528	5.77
540.651	14.77
540.775	-2.23
540.898	10.77
541.021	-5.23
541.144	9.77
541.267	23.77
541.39	0.77
541.513	24.77
541.637	10.77
541.76	-16.23
541.883	-12.23
542.006	6.77
542.129	3.77
542.252	-8.23
542.375	18.77
542.498	-6.23
542.622	5.77
542.745	9.77
542.868	14.77
542.991	8.77
543.114	10.77
543.237	18.77
543.36	22.77
543.483	23.77
543.606	19.77
543.73	30.77
543.853	-2.23
543.976	-1.23
544.099	17.77
544.222	16.77
544.345	-3.23
544.468	18.77
544.591	2.77
544.714	11.77
544.837	20.77
544.96	0.77
545.083	-2.23
545.206	-0.23
545.329	20.77
545.453	-3.23
545.576	-15.23
545.699	-2.23
545.822	8.77
545.945	24.77
546.068	5.77
546.191	12.77
546.314	1.77
546.437	7.77
546.56	-0.23
546.683	16.77
546.806	25.77
546.929	-6.23
547.052	-4.23
547.175	-0.23
547.298	10.77
547.421	-5.23
547.544	-0.23
547.667	26.77
547.79	7.77
547.913	-11.23
548.036	-14.23
548.159	-0.23
548.282	-4.23
548.405	-12.23
548.528	0.77
548.651	-0.23
548.774	7.77
548.897	16.77
549.02	20.77
549.143	29.77
549.266	10.77
549.389	17.77
549.512	-5.23
549.635	38.77
549.758	14.77
549.881	2.77
550.004	-5.23
550.127	0.77
550.25	-16.23
550.373	-20.23
550.496	28.77
550.619	-10.23
550.742	-9.23
550.865	-19.23
550.988	12.77
551.111	12.77
551.234	6.77
551.356	-0.23
551.479	2.77
551.602	-7.23
551.725	13.77
551.848	19.77
551.971	27.77
552.094	6.77
552.217	-1.23
552.34	-1.23
552.463	-15.23
552.586	4.77
552.709	5.77
552.832	0.77
552.955	12.77
553.077	14.77
553.2	13.77
553.323	-15.23
553.446	-7.23
553.569	28.77
553.692	17.77
553.815	11.77
553.938	9.77
554.061	22.77
554.184	10.77
554.306	11.77
554.429	20.77
554.552	16.77
554.675	3.77
554.798	1.77
554.921	8.77
555.044	4.77
555.167	-0.23
555.29	5.77
555.412	-2.23
555.535	-4.23
555.658	-1.23
555.781	10.77
555.904	12.77
556.027	2.77
556.15	2.77
556.272	0.77
556.395	11.77
556.518	0.77
556.641	-0.23
556.764	25.77
556.887	12.77
557.01	-12.23
557.132	-15.23
557.255	3.77
557.378	14.77
557.501	14.77
557.624	14.77
557.747	3.77
557.869	15.77
557.992	17.77
558.115	-4.23
558.238	0.77
558.361	3.77
558.483	28.77
558.606	8.77
558.729	-7.23
558.852	30.77
558.975	19.77
559.098	27.77
559.22	7.77
559.343	13.77
559.466	2.77
559.589	3.77
559.712	6.77
559.834	15.77
559.957	-2.23
560.08	-1.23
560.203	21.77
560.325	22.77
560.448	25.77
560.571	21.77
560.694	4.77
560.817	-0.23
560.939	10.77
561.062	-4.23
561.185	-2.23
561.308	20.77
561.43	-13.23
561.553	7.77
561.676	0.77
561.799	12.77
561.921	-4.23
562.044	-10.23
562.167	-16.23
562.29	13.77
562.413	22.77
562.535	3.77
562.658	-12.23
562.781	10.77
562.903	-5.23
563.026	12.77
563.149	17.77
563.272	4.77
563.394	14.77
563.517	-10.23
563.64	-8.23
563.763	-6.23
563.885	4.77
564.008	21.77
564.131	8.77
564.254	1.77
564.376	10.77
564.499	-10.23
564.622	-10.23
564.744	5.77
564.867	8.77
564.99	-1.23
565.113	6.77
565.235	14.77
565.358	8.77
565.481	-8.23
565.603	11.77
565.726	-1.23
565.849	26.77
565.971	15.77
566.094	3.77
566.217	13.77
566.34	11.77
566.462	12.77
566.585	16.77
566.708	32.77
566.83	9.77
566.953	38.77
567.076	9.77
567.198	5.77
567.321	-15.23
567.444	3.77
567.566	22.77
567.689	-0.23
567.812	1.77
567.934	8.77
568.057	-1.23
568.18	7.77
568.302	-2.23
568.425	-7.23
568.548	12.77
568.67	6.77
568.793	22.77
568.916	9.77
569.038	-1.23
569.161	14.77
569.283	35.77
569.406	17.77
569.529	7.77
569.651	-6.23
569.774	-0.23
569.897	0.77
570.019	25.77
570.142	5.77
570.265	0.77
570.387	-0.23
570.51	3.77
570.632	14.77
570.755	6.77
570.878	1.77
571	15.77
571.123	6.77
571.246	19.77
571.368	-2.23
571.491	-0.23
571.613	-8.23
571.736	1.77
571.859	18.77
571.981	-3.23
572.104	-0.23
572.226	8.77
572.349	-9.23
572.472	5.77
572.594	15.77
572.717	4.77
572.839	-8.23
572.962	27.77
573.085	-0.23
573.207	-4.23
573.33	16.77
573.452	19.77
573.575	21.77
573.697	-4.23
573.82	-8.23
573.943	9.77
574.065	10.77
574.188	4.77
574.31	20.77
574.433	9.77
574.555	20.77
574.678	14.77
574.801	8.77
574.923	2.77
575.046	7.77
575.168	-0.23
575.291	5.77
575.413	10.77
575.536	4.77
575.659	20.77
575.781	-0.23
575.904	3.77
576.026	1.77
576.149	-3.23
576.271	24.77
576.394	4.77
576.516	4.77
576.639	9.77
576.761	1.77
576.884	3.77
577.007	-3.23
577.129	0.77
577.252	-1.23
577.374	21.77
577.497	10.77
577.619	14.77
577.742	0.77
577.864	11.77
577.987	16.77
578.109	13.77
578.232	16.77
578.354	8.77
578.477	-6.23
578.599	-4.23
578.722	-2.23
578.844	4.77
578.967	-2.23
579.089	22.77
579.212	-7.23
579.334	1.77
579.457	-6.23
579.579	25.77
579.702	-8.23
579.824	0.77
579.947	-12.23
580.069	1.77
580.192	-11.23
580.314	12.77
580.437	9.77
580.559	33.77
580.682	0.77
580.804	4.77
580.927	18.77
581.049	33.77
581.172	15.77
581.294	5.77
581.417	5.77
581.539	21.77
581.662	9.77
581.784	29.77
581.907	11.77
582.029	-0.23
582.152	-11.23
582.274	5.77
582.396	7.77
582.519	-2.23
582.641	19.77
582.764	7.77
582.886	4.77
583.009	-7.23
583.131	-5.23
583.254	2.77
583.376	25.77
583.499	19.77
583.621	1.77
583.743	8.77
583.866	21.77
583.988	10.77
584.111	12.77
584.233	-8.23
584.356	7.77
584.478	3.77
584.601	-13.23
584.723	-5.23
584.845	24.77
584.968	13.77
585.09	-0.23
585.213	12.77
585.335	8.77
585.458	8.77
585.58	15.77
585.702	24.77
585.825	18.77
585.947	11.77
586.07	-14.23
586.192	-20.23
586.315	10.77
586.437	-4.23
586.559	-0.23
586.682	-21.23
586.804	12.77
586.927	8.77
587.049	-8.23
587.171	6.77
587.294	15.77
587.416	37.77
587.539	-2.23
587.661	1.77
587.783	2.77
587.906	5.77
588.028	13.77
588.151	11.77
588.273	21.77
588.395	6.77
588.518	1.77
588.64	-0.23
588.763	19.77
588.885	18.77
589.007	14.77
589.13	-14.23
589.252	-11.23
589.375	11.77
589.497	4.77
589.619	15.77
589.742	10.77
589.864	25.77
589.986	26.77
590.109	-7.23
590.231	-13.23
590.354	10.77
590.476	-4.23
590.598	5.77
590.721	1.77
590.843	14.77
590.965	2.77
591.088	19.77
591.21	8.77
591.332	10.77
591.455	-1.23
591.577	-4.23
591.7	5.77
591.822	7.77
591.944	12.77
592.067	-7.23
592.189	7.77
592.311	7.77
592.434	-14.23
592.556	10.77
592.678	17.77
592.801	0.77
592.923	8.77
593.045	-9.23
593.168	-1.23
593.29	-0.23
593.412	24.77
593.535	-4.23
593.657	5.77
593.779	18.77
593.902	-6.23
594.024	10.77
594.146	33.77
594.269	8.77
594.391	-22.23
594.513	31.77
594.636	4.77
594.758	-4.23
594.88	21.77
595.003	9.77
595.125	-4.23
595.247	15.77
595.37	11.77
595.492	9.77
595.614	29.77
595.737	3.77
595.859	6.77
595.981	19.77
596.104	-4.23
596.226	13.77
596.348	1.77
596.471	-12.23
596.593	12.77
596.715	-0.23
596.838	-12.23
596.96	-6.23
597.082	7.77
597.204	26.77
597.327	17.77
597.449	-3.23
597.571	6.77
597.694	19.77
597.816	15.77
597.938	3.77
598.061	-0.23
598.183	4.77
598.305	11.77
598.427	21.77
598.55	24.77
598.672	11.77
598.794	7.77
598.917	-3.23
599.039	8.77
599.161	-9.23
599.283	-14.23
599.406	4.77
599.528	9.77
599.65	25.77
599.773	6.77
599.895	13.77
600.017	23.77
600.139	3.77
600.262	-4.23
600.384	10.77
600.506	7.77
600.628	18.77
600.751	13.77
600.873	-8.23
600.995	-3.23
601.118	5.77
601.24	-2.23
601.362	14.77
601.484	23.77
601.607	25.77
601.729	12.77
601.851	16.77
601.973	9.77
602.096	17.77
602.218	8.77
602.34	9.77
602.462	23.77
602.585	17.77
602.707	14.77
602.829	6.77
602.951	2.77
603.074	-7.23
603.196	22.77
603.318	9.77
603.44	17.77
603.563	4.77
603.685	0.77
603.807	18.77
603.929	31.77
604.052	41.77
604.174	41.77
604.296	19.77
604.418	22.77
604.541	20.77
604.663	-3.23
604.785	7.77
604.907	0.77
605.03	-19.23
605.152	41.77
605.274	18.77
605.396	5.77
605.519	3.77
605.641	-9.23
605.763	7.77
605.885	-0.23
606.008	-2.23
606.13	5.77
606.252	23.77
606.374	-10.23
606.496	-11.23
606.619	12.77
606.741	-1.23
606.863	30.77
606.985	27.77
607.108	17.77
607.23	21.77
607.352	0.77
607.474	-0.23
607.596	0.77
607.719	0.77
607.841	7.77
607.963	0.77
608.085	-6.23
608.207	29.77
608.33	7.77
608.452	7.77
608.574	7.77
608.696	13.77
608.819	18.77
608.941	7.77
609.063	17.77
609.185	16.77
609.307	14.77
609.43	17.77
609.552	17.77
609.674	-13.23
609.796	-4.23
609.918	21.77
610.041	16.77
610.163	21.77
610.285	8.77
610.407	0.77
610.529	-0.23
610.652	13.77
610.774	23.77
610.896	9.77
611.018	17.77
611.14	-0.23
611.263	1.77
611.385	-4.23
611.507	10.77
611.629	2.77
611.751	18.77
611.873	23.77
611.996	6.77
612.118	13.77
612.24	-0.23
612.362	21.77
612.484	15.77
612.607	21.77
612.729	17.77
612.851	24.77
612.973	4.77
613.095	-0.23
613.218	4.77
613.34	12.77
613.462	8.77
613.584	-6.23
613.706	10.77
613.828	28.77
613.951	7.77
614.073	4.77
614.195	0.77
614.317	0.77
614.439	8.77
614.561	19.77
614.684	15.77
614.806	31.77
614.928	4.77
615.05	20.77
615.172	13.77
615.294	4.77
615.417	10.77
615.539	7.77
615.661	8.77
615.783	34.77
615.905	25.77
616.027	72.77
616.15	80.77
616.272	72.77
616.394	64.77
616.516	46.77
616.638	16.77
616.76	9.77
616.883	15.77
617.005	6.77
617.127	8.77
617.249	5.77
617.371	19.77
617.493	16.77
617.615	21.77
617.738	5.77
617.86	16.77
617.982	12.77
618.104	12.77
618.226	1.77
618.348	11.77
618.471	17.77
618.593	6.77
618.715	2.77
618.837	11.77
618.959	18.77
619.081	33.77
619.203	-0.23
619.326	3.77
619.448	11.77
619.57	9.77
619.692	-0.23
619.814	-6.23
619.936	16.77
620.058	24.77
620.181	6.77
620.303	-10.23
620.425	15.77
620.547	1.77
620.669	0.77
620.791	2.77
620.913	0.77
621.036	4.77
621.158	-5.23
621.28	7.77
621.402	5.77
621.524	0.77
621.646	5.77
621.768	9.77
621.891	-4.23
622.013	6.77
622.135	-24.23
622.257	1.77
622.379	7.77
622.501	-4.23
622.623	1.77
622.745	5.77
622.868	5.77
622.99	1.77
623.112	2.77
623.234	9.77
623.356	1.77
623.478	-14.23
623.6	16.77
623.722	8.77
623.845	-2.23
623.967	7.77
624.089	17.77
624.211	-10.23
624.333	9.77
624.455	14.77
624.577	5.77
624.699	24.77
624.822	-0.23
624.944	-10.23
625.066	-1.23
625.188	-4.23
625.31	27.77
625.432	30.77
625.554	14.77
625.676	20.77
625.799	0.77
625.921	3.77
626.043	-1.23
626.165	-0.23
626.287	-0.23
626.409	5.77
626.531	11.77
626.653	8.77
626.775	6.77
626.898	5.77
627.02	11.77
627.142	11.77
627.264	9.77
627.386	14.77
627.508	24.77
627.63	9.77
627.752	19.77
627.874	17.77
627.997	23.77
628.119	10.77
628.241	31.77
628.363	37.77
628.485	5.77
628.607	11.77
628.729	13.77
628.851	-11.23
628.973	12.77
629.096	1.77
629.218	2.77
629.34	9.77
629.462	2.77
629.584	1.77
629.706	16.77
629.828	12.77
629.95	21.77
630.072	-3.23
630.195	25.77
630.317	7.77
630.439	-11.23
630.561	12.77
630.683	0.77
630.805	-3.23
630.927	-4.23
631.049	5.77
631.171	1.77
631.293	13.77
631.416	2.77
631.538	1.77
631.66	5.77
631.782	15.77
631.904	25.77
632.026	7.77
632.148	19.77
632.27	-0.23
632.392	3.77
632.514	3.77
632.637	5.77
632.759	-3.23
632.881	5.77
633.003	12.77
633.125	5.77
633.247	2.77
633.369	-0.23
633.491	-3.23
633.613	1.77
633.735	1.77
633.858	18.77
633.98	22.77
634.102	0.77
634.224	1.77
634.346	-2.23
634.468	10.77
634.59	5.77
634.712	4.77
634.834	2.77
634.956	-0.23
635.078	2.77
635.201	-12.23
635.323	8.77
635.445	-1.23
635.567	-4.23
635.689	-0.23
635.811	5.77
635.933	-4.23
636.055	7.77
636.177	1.77
636.299	19.77
636.421	3.77
636.544	-12.23
636.666	9.77
636.788	-4.23
636.91	-0.23
637.032	1.77
637.154	20.77
637.276	42.77
637.398	11.77
637.52	16.77
637.642	4.77
637.764	16.77
637.887	2.77
638.009	8.77
638.131	2.77
638.253	-1.23
638.375	8.77
638.497	-12.23
638.619	-30.23
638.741	-0.23
638.863	-6.23
638.985	-6.23
639.107	-8.23
639.23	12.77
639.352	11.77
639.474	1.77
639.596	-0.23
639.718	14.77
639.84	4.77
639.962	15.77
640.084	27.77
640.206	3.77
640.328	2.77
640.45	5.77
640.573	-2.23
640.695	-5.23
640.817	3.77
640.939	23.77
641.061	6.77
641.183	15.77
641.305	1.77
641.427	-2.23
641.549	16.77
641.671	-0.23
641.793	-20.23
641.915	-0.23
642.038	-10.23
642.16	-8.23
642.282	5.77
642.404	-6.23
642.526	-10.23
642.648	9.77
642.77	4.77
642.892	-2.23
643.014	10.77
643.136	6.77
643.258	7.77
643.381	21.77
643.503	9.77
643.625	-0.23
643.747	-11.23
643.869	6.77
643.991	-4.23
644.113	-2.23
644.235	8.77
644.357	4.77
644.479	31.77
644.601	11.77
644.723	-9.23
644.846	9.77
644.968	5.77
645.09	-4.23
645.212	-6.23
645.334	17.77
645.456	13.77
645.578	11.77
645.7	4.77
645.822	1.77
645.944	0.77
646.066	-7.23
646.188	-6.23
646.311	28.77
646.433	-0.23
646.555	38.77
646.677	48.77
646.799	45.77
646.921	43.77
647.043	13.77
647.165	-2.23
647.287	1.77
647.409	8.77
647.531	22.77
647.654	-19.23
647.776	23.77
647.898	22.77
648.02	-10.23
648.142	4.77
648.264	7.77
648.386	-7.23
648.508	-3.23
648.63	-8.23
648.752	19.77
648.874	-2.23
648.997	-0.23
649.119	7.77
649.241	5.77
649.363	48.77
649.485	3.77
649.607	-7.23
649.729	-14.23
649.851	-7.23
649.973	-8.23
650.095	2.77
650.217	-2.23
650.34	5.77
650.462	2.77
650.584	0.77
650.706	28.77
650.828	26.77
650.95	-1.23
651.072	8.77
651.194	19.77
651.316	4.77
651.438	-3.23
651.56	-19.23
651.683	-0.23
651.805	2.77
651.927	2.77
652.049	-21.23
652.171	-0.23
652.293	9.77
652.415	-10.23
652.537	-13.23
652.659	-7.23
652.781	4.77
652.903	9.77
653.026	19.77
653.148	8.77
653.27	-7.23
653.392	6.77
653.514	-3.23
653.636	5.77
653.758	1.77
653.88	-12.23
654.002	-0.23
654.124	13.77
654.247	6.77
654.369	25.77
654.491	1.77
654.613	18.77
654.735	27.77
654.857	32.77
654.979	18.77
655.101	3.77
655.223	43.77
655.345	17.77
655.468	37.77
655.59	17.77
655.712	28.77
655.834	16.77
655.956	43.77
656.078	20.77
656.2	44.77
656.322	25.77
656.444	9.77
656.566	59.77
656.689	66.77
656.811	73.77
656.933	112.77
657.055	72.77
657.177	146.77
657.299	226.77
657.421	510.77
657.543	1855.77
657.665	12579.77
657.787	15175.77
657.91	15296.77
658.032	15658.77
658.154	4647.77
658.276	3891.77
658.398	1234.77
658.52	1062.77
658.642	493.77
658.764	608.77
658.886	291.77
659.009	411.77
659.131	214.77
659.253	313.77
659.375	147.77
659.497	250.77
659.619	148.77
659.741	205.77
659.863	106.77
659.985	167.77
660.108	86.77
660.23	149.77
660.352	51.77
660.474	133.77
660.596	95.77
660.718	126.77
660.84	62.77
660.962	107.77
661.084	46.77
661.207	98.77
661.329	57.77
661.451	103.77
661.573	49.77
661.695	96.77
661.817	67.77
661.939	96.77
662.061	69.77
662.184	64.77
662.306	40.77
662.428	63.77
662.55	54.77
662.672	61.77
662.794	45.77
662.916	47.77
663.038	40.77
663.161	65.77
663.283	43.77
663.405	73.77
663.527	12.77
663.649	71.77
663.771	20.77
663.893	43.77
664.015	29.77
664.138	56.77
664.26	11.77
664.382	52.77
664.504	20.77
664.626	15.77
664.748	17.77
664.87	36.77
664.992	47.77
665.115	59.77
665.237	31.77
665.359	28.77
665.481	27.77
665.603	51.77
665.725	25.77
665.847	21.77
665.97	-3.23
666.092	32.77
666.214	27.77
666.336	34.77
666.458	19.77
666.58	36.77
666.702	-5.23
666.825	13.77
666.947	-13.23
667.069	35.77
667.191	16.77
667.313	25.77
667.435	9.77
667.557	11.77
667.68	-0.23
667.802	40.77
667.924	15.77
668.046	31.77
668.168	25.77
668.29	50.77
668.412	15.77
668.535	31.77
668.657	12.77
668.779	6.77
668.901	3.77
669.023	20.77
669.145	-17.23
669.267	33.77
669.39	2.77
669.512	20.77
669.634	-2.23
669.756	15.77
669.878	3.77
670	46.77
670.123	4.77
670.245	25.77
670.367	3.77
670.489	36.77
670.611	5.77
670.733	1.77
670.856	7.77
670.978	30.77
671.1	21.77
671.222	23.77
671.344	2.77
671.466	7.77
671.589	-12.23
671.711	1.77
671.833	-2.23
671.955	16.77
672.077	4.77
672.199	34.77
672.322	4.77
672.444	30.77
672.566	22.77
672.688	30.77
672.81	13.77
672.932	12.77
673.055	1.77
673.177	1.77
673.299	-2.23
673.421	12.77
673.543	22.77
673.665	22.77
673.788	13.77
673.91	9.77
674.032	-16.23
674.154	7.77
674.276	5.77
674.399	19.77
674.521	20.77
674.643	14.77
674.765	-0.23
674.887	13.77
675.009	-13.23
675.132	-4.23
675.254	-2.23
675.376	10.77
675.498	12.77
675.62	35.77
675.743	13.77
675.865	17.77
675.987	0.77
676.109	17.77
676.231	12.77
676.354	39.77
676.476	-6.23
676.598	28.77
676.72	3.77
676.842	14.77
676.965	19.77
677.087	15.77
677.209	24.77
677.331	23.77
677.453	-10.23
677.576	20.77
677.698	18.77
677.82	23.77
677.942	1.77
678.064	10.77
678.187	-0.23
678.309	5.77
678.431	-0.23
678.553	-4.23
678.675	20.77
678.798	19.77
678.92	3.77
679.042	13.77
679.164	-5.23
679.286	10.77
679.409	7.77
679.531	-5.23
679.653	2.77
679.775	14.77
679.898	8.77
680.02	-2.23
680.142	0.77
680.264	13.77
680.386	-12.23
680.509	13.77
680.631	9.77
680.753	18.77
680.875	-0.23
680.998	13.77
681.12	-0.23
681.242	-6.23
681.364	-28.23
681.486	21.77
681.609	2.77
681.731	-7.23
681.853	1.77
681.975	2.77
682.098	3.77
682.22	26.77
682.342	11.77
682.464	21.77
682.587	12.77
682.709	19.77
682.831	-23.23
682.953	-4.23
683.076	-10.23
683.198	30.77
683.32	14.77
683.442	11.77
683.565	22.77
683.687	9.77
683.809	5.77
683.931	1.77
684.054	13.77
684.176	22.77
684.298	3.77
684.42	22.77
684.543	-2.23
684.665	9.77
684.787	4.77
684.909	3.77
685.032	16.77
685.154	-15.23
685.276	6.77
685.398	-5.23
685.521	-14.23
685.643	6.77
685.765	-0.23
685.887	11.77
686.01	24.77
686.132	17.77
686.254	10.77
686.377	16.77
686.499	1.77
686.621	6.77
686.743	22.77
686.866	7.77
686.988	28.77
687.11	25.77
687.232	-14.23
687.355	-0.23
687.477	3.77
687.599	-2.23
687.722	-6.23
687.844	11.77
687.966	0.77
688.088	4.77
688.211	19.77
688.333	32.77
688.455	7.77
688.578	17.77
688.7	24.77
688.822	11.77
688.944	-15.23
689.067	41.77
689.189	13.77
689.311	2.77
689.434	-10.23
689.556	4.77
689.678	8.77
689.801	6.77
689.923	3.77
690.045	6.77
690.167	5.77
690.29	27.77
690.412	2.77
690.534	9.77
690.657	0.77
690.779	1.77
690.901	12.77
691.024	9.77
691.146	-1.23
691.268	5.77
691.391	25.77
691.513	17.77
691.635	21.77
691.758	27.77
691.88	10.77
692.002	7.77
692.125	5.77
692.247	3.77
692.369	-9.23
692.492	0.77
692.614	-1.23
692.736	1.77
692.859	5.77
692.981	-2.23
693.103	-9.23
693.226	17.77
693.348	27.77
693.47	4.77
693.593	2.77
693.715	-2.23
693.837	-4.23
693.96	-14.23
694.082	-3.23
694.204	16.77
694.327	7.77
694.449	-3.23
694.571	6.77
694.694	4.77
694.816	4.77
694.938	2.77
695.061	14.77
695.183	0.77
695.305	10.77
695.428	7.77
695.55	-4.23
695.672	-2.23
695.795	-0.23
695.917	22.77
696.04	-0.23
696.162	0.77
696.284	14.77
696.407	15.77
696.529	12.77
696.651	25.77
696.774	17.77
696.896	14.77
697.019	23.77
697.141	14.77
697.263	-3.23
697.386	17.77
697.508	1.77
697.63	16.77
697.753	1.77
697.875	7.77
697.998	-6.23
698.12	19.77
698.242	11.77
698.365	7.77
698.487	-12.23
698.61	22.77
698.732	0.77
698.854	28.77
698.977	-9.23
699.099	16.77
699.221	3.77
699.344	-8.23
699.466	-4.23
699.589	5.77
699.711	-8.23
699.834	8.77
699.956	-1.23
700.078	-1.23
700.201	1.77
700.323	25.77
700.446	6.77
700.568	1.77
700.69	9.77
700.813	15.77
700.935	-1.23
701.058	-11.23
701.18	-3.23
701.302	15.77
701.425	5.77
701.547	4.77
701.67	2.77
701.792	18.77
701.915	1.77
702.037	0.77
702.159	-0.23
702.282	20.77
702.404	-13.23
702.527	7.77
702.649	6.77
702.772	9.77
702.894	7.77
703.017	14.77
703.139	19.77
703.261	15.77
703.384	8.77
703.506	-10.23
703.629	-10.23
703.751	11.77
703.874	1.77
703.996	6.77
704.119	-15.23
704.241	-1.23
704.364	9.77
704.486	15.77
704.608	10.77
704.731	-4.23
704.853	-2.23
704.976	-0.23
705.098	9.77
705.221	-14.23
705.343	15.77
705.466	21.77
705.588	8.77
705.711	-4.23
705.833	-3.23
705.956	10.77
706.078	30.77
706.201	5.77
706.323	0.77
706.446	1.77
