Data from LowRes_H2_15_26_11_07_2024_HR4C61881__17__15-28-15-338.txt Node

Date: Thu Nov 07 15:28:15 EST 2024
User: crc00042
Spectrometer: HR4C6188
Trigger mode: 4
Integration Time (sec): 1.000000E-1
Scans to average: 1
Electric dark correction enabled: true
Nonlinearity correction enabled: false
Boxcar width: 0
XAxis mode: Wavelengths
Number of Pixels in Spectrum: 3648
>>>>>Begin Spectral Data<<<<<
245.66	-75.54
245.797	-75.54
245.934	-75.54
246.071	-75.54
246.208	4.46
246.344	-15.54
246.481	-10.54
246.618	-6.54
246.755	27.46
246.892	-6.54
247.029	-3.54
247.165	1.46
247.302	-6.54
247.439	7.46
247.576	16.46
247.713	-23.54
247.849	30.46
247.986	-10.54
248.123	-2.54
248.26	-12.54
248.396	17.46
248.533	13.46
248.67	7.46
248.806	5.46
248.943	-18.54
249.08	3.46
249.216	34.46
249.353	-7.54
249.49	-1.54
249.626	-3.54
249.763	5.46
249.9	4.46
250.036	1.46
250.173	8.46
250.309	12.46
250.446	7.46
250.582	9.46
250.719	11.46
250.856	-0.54
250.992	6.46
251.129	7.46
251.265	1.46
251.402	0.46
251.538	11.46
251.675	8.46
251.811	17.46
251.948	13.46
252.084	10.46
252.221	10.46
252.357	-4.54
252.493	25.46
252.63	4.46
252.766	19.46
252.903	-0.54
253.039	-12.54
253.175	-13.54
253.312	8.46
253.448	0.46
253.585	-16.54
253.721	8.46
253.857	6.46
253.994	21.46
254.13	11.46
254.266	9.46
254.403	14.46
254.539	15.46
254.675	4.46
254.811	12.46
254.948	12.46
255.084	3.46
255.22	4.46
255.356	12.46
255.493	13.46
255.629	12.46
255.765	9.46
255.901	2.46
256.037	1.46
256.174	5.46
256.31	2.46
256.446	-3.54
256.582	-1.54
256.718	18.46
256.854	22.46
256.991	18.46
257.127	23.46
257.263	1.46
257.399	9.46
257.535	8.46
257.671	-5.54
257.807	-5.54
257.943	-8.54
258.079	1.46
258.215	-2.54
258.351	23.46
258.487	8.46
258.623	32.46
258.759	4.46
258.895	5.46
259.031	14.46
259.167	-1.54
259.303	21.46
259.439	14.46
259.575	4.46
259.711	-10.54
259.847	-13.54
259.983	1.46
260.119	16.46
260.255	-5.54
260.391	31.46
260.527	15.46
260.663	4.46
260.799	21.46
260.934	2.46
261.07	-11.54
261.206	-16.54
261.342	6.46
261.478	30.46
261.614	22.46
261.749	13.46
261.885	0.46
262.021	10.46
262.157	5.46
262.293	5.46
262.428	9.46
262.564	-2.54
262.7	24.46
262.836	-3.54
262.971	16.46
263.107	16.46
263.243	17.46
263.378	9.46
263.514	-18.54
263.65	-1.54
263.785	-21.54
263.921	-10.54
264.057	-3.54
264.192	11.46
264.328	20.46
264.464	0.46
264.599	10.46
264.735	11.46
264.871	-15.54
265.006	4.46
265.142	-15.54
265.277	9.46
265.413	16.46
265.548	22.46
265.684	5.46
265.819	-8.54
265.955	-13.54
266.091	-21.54
266.226	5.46
266.362	0.46
266.497	7.46
266.633	21.46
266.768	3.46
266.903	13.46
267.039	11.46
267.174	39.46
267.31	-11.54
267.445	-4.54
267.581	8.46
267.716	22.46
267.851	-12.54
267.987	3.46
268.122	25.46
268.258	-6.54
268.393	-4.54
268.528	47.46
268.664	-4.54
268.799	-10.54
268.934	3.46
269.07	-11.54
269.205	23.46
269.34	34.46
269.476	11.46
269.611	-11.54
269.746	20.46
269.881	-3.54
270.017	18.46
270.152	-2.54
270.287	6.46
270.422	13.46
270.558	-9.54
270.693	23.46
270.828	-2.54
270.963	-2.54
271.098	3.46
271.234	-4.54
271.369	34.46
271.504	8.46
271.639	-1.54
271.774	-25.54
271.909	2.46
272.045	-20.54
272.18	7.46
272.315	-3.54
272.45	18.46
272.585	-7.54
272.72	-15.54
272.855	13.46
272.99	27.46
273.125	-13.54
273.26	-18.54
273.395	-15.54
273.53	0.46
273.665	21.46
273.8	7.46
273.935	9.46
274.07	7.46
274.205	16.46
274.34	1.46
274.475	-13.54
274.61	25.46
274.745	13.46
274.88	5.46
275.015	-7.54
275.15	4.46
275.285	17.46
275.42	13.46
275.555	23.46
275.69	10.46
275.825	11.46
275.959	15.46
276.094	8.46
276.229	-12.54
276.364	-3.54
276.499	-9.54
276.634	5.46
276.768	-2.54
276.903	-3.54
277.038	17.46
277.173	14.46
277.308	-1.54
277.442	6.46
277.577	-0.54
277.712	0.46
277.847	-9.54
277.981	20.46
278.116	-15.54
278.251	1.46
278.386	11.46
278.52	2.46
278.655	4.46
278.79	8.46
278.924	5.46
279.059	9.46
279.194	-9.54
279.328	39.46
279.463	13.46
279.598	18.46
279.732	-2.54
279.867	-0.54
280.001	8.46
280.136	5.46
280.271	21.46
280.405	22.46
280.54	12.46
280.674	-2.54
280.809	25.46
280.943	10.46
281.078	12.46
281.213	20.46
281.347	10.46
281.482	-6.54
281.616	6.46
281.751	21.46
281.885	-10.54
282.02	-6.54
282.154	9.46
282.288	-5.54
282.423	-18.54
282.557	-2.54
282.692	7.46
282.826	10.46
282.961	30.46
283.095	16.46
283.229	-0.54
283.364	-2.54
283.498	2.46
283.633	13.46
283.767	4.46
283.901	1.46
284.036	3.46
284.17	1.46
284.304	-4.54
284.439	-4.54
284.573	-2.54
284.707	9.46
284.842	17.46
284.976	8.46
285.11	0.46
285.244	18.46
285.379	48.46
285.513	0.46
285.647	-0.54
285.781	15.46
285.916	23.46
286.05	10.46
286.184	32.46
286.318	10.46
286.453	-11.54
286.587	-19.54
286.721	3.46
286.855	28.46
286.989	15.46
287.123	-15.54
287.258	1.46
287.392	4.46
287.526	12.46
287.66	-0.54
287.794	10.46
287.928	-6.54
288.062	15.46
288.196	-0.54
288.33	14.46
288.464	6.46
288.598	23.46
288.733	-2.54
288.867	26.46
289.001	15.46
289.135	9.46
289.269	-13.54
289.403	24.46
289.537	18.46
289.671	4.46
289.805	-8.54
289.939	1.46
290.073	-3.54
290.207	13.46
290.34	0.46
290.474	19.46
290.608	24.46
290.742	12.46
290.876	-2.54
291.01	-2.54
291.144	41.46
291.278	18.46
291.412	16.46
291.546	15.46
291.679	1.46
291.813	12.46
291.947	11.46
292.081	11.46
292.215	1.46
292.349	19.46
292.482	18.46
292.616	-10.54
292.75	0.46
292.884	18.46
293.018	13.46
293.151	-14.54
293.285	8.46
293.419	-5.54
293.553	-16.54
293.686	13.46
293.82	9.46
293.954	14.46
294.088	30.46
294.221	-0.54
294.355	0.46
294.489	32.46
294.622	-0.54
294.756	7.46
294.89	10.46
295.023	17.46
295.157	17.46
295.291	14.46
295.424	12.46
295.558	-4.54
295.691	1.46
295.825	14.46
295.959	16.46
296.092	-2.54
296.226	5.46
296.359	13.46
296.493	0.46
296.627	21.46
296.76	22.46
296.894	4.46
297.027	9.46
297.161	8.46
297.294	-9.54
297.428	11.46
297.561	29.46
297.695	9.46
297.828	15.46
297.962	11.46
298.095	14.46
298.229	30.46
298.362	-7.54
298.495	-18.54
298.629	2.46
298.762	14.46
298.896	26.46
299.029	-5.54
299.162	11.46
299.296	18.46
299.429	-7.54
299.563	0.46
299.696	17.46
299.829	5.46
299.963	7.46
300.096	10.46
300.229	17.46
300.363	15.46
300.496	39.46
300.629	-16.54
300.763	-16.54
300.896	5.46
301.029	16.46
301.162	-3.54
301.296	-18.54
301.429	12.46
301.562	-21.54
301.695	-1.54
301.829	22.46
301.962	12.46
302.095	5.46
302.228	-3.54
302.362	20.46
302.495	-1.54
302.628	10.46
302.761	18.46
302.894	2.46
303.027	36.46
303.161	0.46
303.294	-8.54
303.427	25.46
303.56	4.46
303.693	2.46
303.826	24.46
303.959	19.46
304.092	-13.54
304.225	-0.54
304.359	9.46
304.492	3.46
304.625	7.46
304.758	14.46
304.891	-8.54
305.024	8.46
305.157	-6.54
305.29	1.46
305.423	-3.54
305.556	33.46
305.689	21.46
305.822	-7.54
305.955	-1.54
306.088	-6.54
306.221	6.46
306.354	-3.54
306.487	11.46
306.62	-7.54
306.752	13.46
306.885	13.46
307.018	22.46
307.151	17.46
307.284	13.46
307.417	-4.54
307.55	8.46
307.683	10.46
307.816	19.46
307.948	23.46
308.081	30.46
308.214	16.46
308.347	25.46
308.48	0.46
308.613	-9.54
308.745	10.46
308.878	-13.54
309.011	-14.54
309.144	-0.54
309.277	-6.54
309.409	20.46
309.542	1.46
309.675	31.46
309.808	13.46
309.94	37.46
310.073	-7.54
310.206	0.46
310.339	24.46
310.471	-15.54
310.604	9.46
310.737	-4.54
310.869	-2.54
311.002	11.46
311.135	-10.54
311.267	-10.54
311.4	-4.54
311.533	34.46
311.665	10.46
311.798	-6.54
311.93	4.46
312.063	28.46
312.196	-2.54
312.328	-2.54
312.461	13.46
312.593	24.46
312.726	25.46
312.859	5.46
312.991	10.46
313.124	-24.54
313.256	21.46
313.389	5.46
313.521	-2.54
313.654	-6.54
313.786	-6.54
313.919	13.46
314.051	13.46
314.184	25.46
314.316	11.46
314.449	-19.54
314.581	11.46
314.714	6.46
314.846	9.46
314.978	-12.54
315.111	8.46
315.243	4.46
315.376	14.46
315.508	10.46
315.641	-1.54
315.773	35.46
315.905	17.46
316.038	4.46
316.17	-0.54
316.302	-2.54
316.435	13.46
316.567	12.46
316.699	24.46
316.832	-11.54
316.964	-8.54
317.096	-3.54
317.229	-4.54
317.361	-3.54
317.493	-0.54
317.625	1.46
317.758	12.46
317.89	8.46
318.022	12.46
318.155	-5.54
318.287	9.46
318.419	5.46
318.551	13.46
318.683	-3.54
318.816	-0.54
318.948	-0.54
319.08	1.46
319.212	4.46
319.344	28.46
319.477	6.46
319.609	20.46
319.741	8.46
319.873	3.46
320.005	2.46
320.137	-12.54
320.269	15.46
320.401	5.46
320.534	5.46
320.666	-6.54
320.798	-1.54
320.93	6.46
321.062	-7.54
321.194	-1.54
321.326	-3.54
321.458	30.46
321.59	9.46
321.722	9.46
321.854	19.46
321.986	8.46
322.118	17.46
322.25	20.46
322.382	19.46
322.514	9.46
322.646	-0.54
322.778	9.46
322.91	-0.54
323.042	-0.54
323.174	12.46
323.306	13.46
323.438	-6.54
323.57	-6.54
323.702	-0.54
323.834	-8.54
323.966	-1.54
324.097	23.46
324.229	33.46
324.361	22.46
324.493	11.46
324.625	-1.54
324.757	15.46
324.889	11.46
325.021	10.46
325.152	10.46
325.284	20.46
325.416	-5.54
325.548	9.46
325.68	-0.54
325.811	28.46
325.943	24.46
326.075	-0.54
326.207	-4.54
326.339	9.46
326.47	-2.54
326.602	26.46
326.734	10.46
326.866	23.46
326.997	-6.54
327.129	3.46
327.261	-14.54
327.392	8.46
327.524	10.46
327.656	-2.54
327.787	40.46
327.919	15.46
328.051	8.46
328.182	21.46
328.314	35.46
328.446	1.46
328.577	28.46
328.709	4.46
328.841	9.46
328.972	-6.54
329.104	-0.54
329.235	14.46
329.367	8.46
329.499	31.46
329.63	11.46
329.762	16.46
329.893	25.46
330.025	-1.54
330.156	-13.54
330.288	22.46
330.419	16.46
330.551	17.46
330.683	9.46
330.814	-13.54
330.946	-1.54
331.077	-22.54
331.208	-1.54
331.34	12.46
331.471	-9.54
331.603	2.46
331.734	1.46
331.866	22.46
331.997	20.46
332.129	11.46
332.26	-5.54
332.392	14.46
332.523	26.46
332.654	-18.54
332.786	2.46
332.917	-8.54
333.048	26.46
333.18	17.46
333.311	-5.54
333.443	7.46
333.574	13.46
333.705	37.46
333.837	-13.54
333.968	-1.54
334.099	33.46
334.231	36.46
334.362	19.46
334.493	24.46
334.624	4.46
334.756	12.46
334.887	13.46
335.018	17.46
335.15	25.46
335.281	14.46
335.412	15.46
335.543	18.46
335.675	11.46
335.806	5.46
335.937	4.46
336.068	17.46
336.199	30.46
336.331	-12.54
336.462	-11.54
336.593	26.46
336.724	20.46
336.855	22.46
336.986	19.46
337.118	11.46
337.249	20.46
337.38	17.46
337.511	-0.54
337.642	1.46
337.773	-1.54
337.904	5.46
338.035	29.46
338.166	13.46
338.298	-0.54
338.429	-3.54
338.56	0.46
338.691	16.46
338.822	10.46
338.953	0.46
339.084	14.46
339.215	17.46
339.346	20.46
339.477	18.46
339.608	22.46
339.739	-7.54
339.87	10.46
340.001	14.46
340.132	21.46
340.263	-1.54
340.394	15.46
340.525	14.46
340.656	-6.54
340.787	1.46
340.918	16.46
341.049	5.46
341.179	20.46
341.31	32.46
341.441	14.46
341.572	-1.54
341.703	5.46
341.834	0.46
341.965	28.46
342.096	12.46
342.227	17.46
342.357	14.46
342.488	21.46
342.619	14.46
342.75	9.46
342.881	-15.54
343.012	13.46
343.142	14.46
343.273	8.46
343.404	12.46
343.535	42.46
343.666	5.46
343.796	-0.54
343.927	11.46
344.058	22.46
344.189	19.46
344.319	1.46
344.45	17.46
344.581	9.46
344.712	-16.54
344.842	-11.54
344.973	10.46
345.104	26.46
345.234	-2.54
345.365	-18.54
345.496	1.46
345.626	18.46
345.757	25.46
345.888	-0.54
346.018	20.46
346.149	-4.54
346.28	37.46
346.41	8.46
346.541	35.46
346.672	-2.54
346.802	28.46
346.933	19.46
347.063	11.46
347.194	1.46
347.325	8.46
347.455	26.46
347.586	8.46
347.716	-6.54
347.847	8.46
347.977	14.46
348.108	17.46
348.238	16.46
348.369	-13.54
348.499	8.46
348.63	1.46
348.76	16.46
348.891	10.46
349.021	5.46
349.152	8.46
349.282	3.46
349.413	-1.54
349.543	33.46
349.674	2.46
349.804	15.46
349.935	5.46
350.065	-3.54
350.196	-8.54
350.326	21.46
350.456	0.46
350.587	25.46
350.717	7.46
350.848	10.46
350.978	14.46
351.108	-13.54
351.239	18.46
351.369	6.46
351.499	-3.54
351.63	7.46
351.76	15.46
351.89	13.46
352.021	13.46
352.151	5.46
352.281	48.46
352.412	20.46
352.542	3.46
352.672	11.46
352.803	7.46
352.933	5.46
353.063	-1.54
353.193	3.46
353.324	13.46
353.454	36.46
353.584	14.46
353.714	21.46
353.845	13.46
353.975	7.46
354.105	6.46
354.235	23.46
354.365	17.46
354.496	-0.54
354.626	4.46
354.756	13.46
354.886	15.46
355.016	6.46
355.146	7.46
355.277	25.46
355.407	2.46
355.537	8.46
355.667	1.46
355.797	-7.54
355.927	-0.54
356.057	19.46
356.187	-12.54
356.318	-9.54
356.448	3.46
356.578	4.46
356.708	8.46
356.838	-6.54
356.968	3.46
357.098	7.46
357.228	17.46
357.358	14.46
357.488	14.46
357.618	27.46
357.748	23.46
357.878	13.46
358.008	-5.54
358.138	8.46
358.268	6.46
358.398	13.46
358.528	0.46
358.658	2.46
358.788	10.46
358.918	24.46
359.048	26.46
359.178	15.46
359.308	30.46
359.438	13.46
359.568	16.46
359.698	23.46
359.827	3.46
359.957	2.46
360.087	16.46
360.217	-2.54
360.347	16.46
360.477	30.46
360.607	4.46
360.737	27.46
360.866	4.46
360.996	-18.54
361.126	-1.54
361.256	40.46
361.386	23.46
361.516	22.46
361.645	-3.54
361.775	13.46
361.905	-6.54
362.035	18.46
362.165	-0.54
362.294	6.46
362.424	16.46
362.554	13.46
362.684	12.46
362.813	5.46
362.943	20.46
363.073	13.46
363.203	1.46
363.332	18.46
363.462	9.46
363.592	13.46
363.721	-2.54
363.851	1.46
363.981	21.46
364.111	-7.54
364.24	1.46
364.37	1.46
364.5	24.46
364.629	22.46
364.759	6.46
364.888	-22.54
365.018	14.46
365.148	10.46
365.277	17.46
365.407	10.46
365.537	17.46
365.666	23.46
365.796	15.46
365.925	12.46
366.055	-0.54
366.184	-11.54
366.314	-3.54
366.444	13.46
366.573	-8.54
366.703	4.46
366.832	26.46
366.962	14.46
367.091	43.46
367.221	21.46
367.35	19.46
367.48	43.46
367.609	23.46
367.739	20.46
367.868	-2.54
367.998	4.46
368.127	21.46
368.257	19.46
368.386	6.46
368.516	8.46
368.645	5.46
368.775	5.46
368.904	6.46
369.033	2.46
369.163	-9.54
369.292	11.46
369.422	6.46
369.551	18.46
369.68	14.46
369.81	25.46
369.939	10.46
370.069	29.46
370.198	28.46
370.327	5.46
370.457	4.46
370.586	1.46
370.715	4.46
370.845	-15.54
370.974	15.46
371.103	28.46
371.233	29.46
371.362	25.46
371.491	-7.54
371.621	25.46
371.75	16.46
371.879	12.46
372.008	15.46
372.138	4.46
372.267	30.46
372.396	6.46
372.525	4.46
372.655	19.46
372.784	4.46
372.913	-10.54
373.042	-5.54
373.172	43.46
373.301	-11.54
373.43	1.46
373.559	-0.54
373.688	17.46
373.818	23.46
373.947	27.46
374.076	11.46
374.205	18.46
374.334	28.46
374.463	-1.54
374.593	23.46
374.722	20.46
374.851	9.46
374.98	4.46
375.109	4.46
375.238	19.46
375.367	45.46
375.496	-8.54
375.625	7.46
375.755	15.46
375.884	23.46
376.013	12.46
376.142	-1.54
376.271	-0.54
376.4	16.46
376.529	23.46
376.658	16.46
376.787	-6.54
376.916	4.46
377.045	10.46
377.174	10.46
377.303	-3.54
377.432	30.46
377.561	8.46
377.69	10.46
377.819	30.46
377.948	39.46
378.077	5.46
378.206	17.46
378.335	9.46
378.464	15.46
378.593	31.46
378.722	6.46
378.851	17.46
378.98	24.46
379.108	-1.54
379.237	-2.54
379.366	10.46
379.495	20.46
379.624	6.46
379.753	15.46
379.882	19.46
380.011	3.46
380.14	9.46
380.268	23.46
380.397	16.46
380.526	32.46
380.655	2.46
380.784	-17.54
380.913	8.46
381.041	8.46
381.17	3.46
381.299	15.46
381.428	32.46
381.557	34.46
381.685	26.46
381.814	16.46
381.943	12.46
382.072	3.46
382.2	-2.54
382.329	-1.54
382.458	2.46
382.587	9.46
382.715	5.46
382.844	-6.54
382.973	22.46
383.102	8.46
383.23	13.46
383.359	-7.54
383.488	15.46
383.616	8.46
383.745	-3.54
383.874	2.46
384.003	13.46
384.131	0.46
384.26	9.46
384.389	26.46
384.517	-9.54
384.646	-9.54
384.774	19.46
384.903	16.46
385.032	24.46
385.16	8.46
385.289	7.46
385.418	-9.54
385.546	-2.54
385.675	6.46
385.803	10.46
385.932	4.46
386.06	-14.54
386.189	19.46
386.318	-1.54
386.446	1.46
386.575	26.46
386.703	16.46
386.832	13.46
386.96	-16.54
387.089	26.46
387.217	2.46
387.346	0.46
387.474	14.46
387.603	7.46
387.731	28.46
387.86	12.46
387.988	5.46
388.117	6.46
388.245	23.46
388.374	10.46
388.502	16.46
388.631	13.46
388.759	16.46
388.888	28.46
389.016	9.46
389.144	21.46
389.273	9.46
389.401	-3.54
389.53	-1.54
389.658	17.46
389.786	-9.54
389.915	-1.54
390.043	-10.54
390.172	3.46
390.3	34.46
390.428	10.46
390.557	8.46
390.685	34.46
390.813	11.46
390.942	28.46
391.07	23.46
391.198	14.46
391.327	-6.54
391.455	-11.54
391.583	32.46
391.712	35.46
391.84	21.46
391.968	7.46
392.096	2.46
392.225	12.46
392.353	0.46
392.481	9.46
392.609	13.46
392.738	12.46
392.866	13.46
392.994	21.46
393.122	23.46
393.251	-3.54
393.379	0.46
393.507	-3.54
393.635	6.46
393.764	4.46
393.892	20.46
394.02	1.46
394.148	9.46
394.276	5.46
394.404	34.46
394.533	13.46
394.661	8.46
394.789	22.46
394.917	30.46
395.045	3.46
395.173	-5.54
395.302	4.46
395.43	13.46
395.558	-5.54
395.686	19.46
395.814	7.46
395.942	5.46
396.07	20.46
396.198	19.46
396.326	19.46
396.454	11.46
396.582	31.46
396.711	11.46
396.839	14.46
396.967	11.46
397.095	17.46
397.223	26.46
397.351	25.46
397.479	9.46
397.607	1.46
397.735	37.46
397.863	17.46
397.991	18.46
398.119	15.46
398.247	-5.54
398.375	13.46
398.503	13.46
398.631	27.46
398.759	3.46
398.887	17.46
399.015	5.46
399.143	19.46
399.271	13.46
399.399	21.46
399.526	2.46
399.654	32.46
399.782	-1.54
399.91	17.46
400.038	22.46
400.166	7.46
400.294	12.46
400.422	2.46
400.55	6.46
400.678	9.46
400.805	3.46
400.933	2.46
401.061	13.46
401.189	1.46
401.317	22.46
401.445	36.46
401.573	17.46
401.7	-1.54
401.828	-6.54
401.956	15.46
402.084	27.46
402.212	26.46
402.34	4.46
402.467	9.46
402.595	21.46
402.723	26.46
402.851	28.46
402.978	4.46
403.106	20.46
403.234	18.46
403.362	17.46
403.489	30.46
403.617	21.46
403.745	9.46
403.873	-5.54
404	18.46
404.128	10.46
404.256	19.46
404.384	25.46
404.511	27.46
404.639	9.46
404.767	6.46
404.894	13.46
405.022	4.46
405.15	21.46
405.277	8.46
405.405	-15.54
405.533	4.46
405.66	0.46
405.788	-9.54
405.916	-7.54
406.043	-5.54
406.171	-1.54
406.299	13.46
406.426	24.46
406.554	11.46
406.681	27.46
406.809	19.46
406.937	25.46
407.064	21.46
407.192	9.46
407.319	16.46
407.447	1.46
407.574	20.46
407.702	-0.54
407.83	-5.54
407.957	-1.54
408.085	24.46
408.212	28.46
408.34	13.46
408.467	5.46
408.595	8.46
408.722	23.46
408.85	24.46
408.977	6.46
409.105	12.46
409.232	24.46
409.36	30.46
409.487	22.46
409.615	17.46
409.742	38.46
409.87	18.46
409.997	48.46
410.125	49.46
410.252	46.46
410.379	42.46
410.507	38.46
410.634	16.46
410.762	11.46
410.889	14.46
411.017	4.46
411.144	-1.54
411.271	6.46
411.399	17.46
411.526	-4.54
411.653	25.46
411.781	40.46
411.908	19.46
412.036	2.46
412.163	36.46
412.29	16.46
412.418	10.46
412.545	19.46
412.672	10.46
412.8	33.46
412.927	13.46
413.054	22.46
413.182	15.46
413.309	6.46
413.436	3.46
413.564	0.46
413.691	14.46
413.818	27.46
413.945	-1.54
414.073	18.46
414.2	18.46
414.327	25.46
414.454	30.46
414.582	8.46
414.709	21.46
414.836	16.46
414.963	10.46
415.091	8.46
415.218	9.46
415.345	6.46
415.472	6.46
415.6	-8.54
415.727	15.46
415.854	38.46
415.981	14.46
416.108	4.46
416.236	6.46
416.363	26.46
416.49	19.46
416.617	22.46
416.744	26.46
416.871	19.46
416.998	18.46
417.126	14.46
417.253	14.46
417.38	6.46
417.507	10.46
417.634	22.46
417.761	29.46
417.888	25.46
418.015	9.46
418.143	5.46
418.27	32.46
418.397	12.46
418.524	27.46
418.651	14.46
418.778	14.46
418.905	31.46
419.032	28.46
419.159	17.46
419.286	35.46
419.413	22.46
419.54	35.46
419.667	22.46
419.794	-2.54
419.921	14.46
420.048	21.46
420.175	22.46
420.302	8.46
420.429	28.46
420.556	16.46
420.683	-2.54
420.81	10.46
420.937	17.46
421.064	18.46
421.191	-4.54
421.318	24.46
421.445	45.46
421.572	9.46
421.699	14.46
421.826	24.46
421.953	23.46
422.08	17.46
422.207	1.46
422.334	18.46
422.461	26.46
422.588	9.46
422.714	14.46
422.841	17.46
422.968	29.46
423.095	-2.54
423.222	12.46
423.349	5.46
423.476	4.46
423.603	2.46
423.729	6.46
423.856	2.46
423.983	28.46
424.11	15.46
424.237	37.46
424.364	25.46
424.491	32.46
424.617	-1.54
424.744	-6.54
424.871	20.46
424.998	17.46
425.125	2.46
425.251	15.46
425.378	0.46
425.505	24.46
425.632	9.46
425.758	-2.54
425.885	14.46
426.012	27.46
426.139	21.46
426.266	15.46
426.392	20.46
426.519	33.46
426.646	26.46
426.772	33.46
426.899	12.46
427.026	8.46
427.153	23.46
427.279	17.46
427.406	21.46
427.533	14.46
427.659	21.46
427.786	18.46
427.913	35.46
428.039	15.46
428.166	1.46
428.293	8.46
428.419	32.46
428.546	15.46
428.673	-1.54
428.799	-1.54
428.926	-2.54
429.053	21.46
429.179	23.46
429.306	9.46
429.433	25.46
429.559	19.46
429.686	-2.54
429.812	3.46
429.939	11.46
430.066	5.46
430.192	4.46
430.319	15.46
430.445	9.46
430.572	21.46
430.699	6.46
430.825	14.46
430.952	6.46
431.078	-4.54
431.205	35.46
431.331	17.46
431.458	8.46
431.584	16.46
431.711	-11.54
431.837	3.46
431.964	20.46
432.09	13.46
432.217	2.46
432.343	1.46
432.47	32.46
432.596	13.46
432.723	10.46
432.849	14.46
432.976	27.46
433.102	24.46
433.229	10.46
433.355	38.46
433.482	72.46
433.608	136.46
433.735	154.46
433.861	125.46
433.987	148.46
434.114	229.46
434.24	213.46
434.367	82.46
434.493	20.46
434.62	16.46
434.746	35.46
434.872	-3.54
434.999	14.46
435.125	10.46
435.252	12.46
435.378	22.46
435.504	7.46
435.631	13.46
435.757	19.46
435.883	28.46
436.01	10.46
436.136	7.46
436.262	14.46
436.389	17.46
436.515	38.46
436.641	19.46
436.768	29.46
436.894	25.46
437.02	8.46
437.147	24.46
437.273	2.46
437.399	8.46
437.526	20.46
437.652	12.46
437.778	24.46
437.904	13.46
438.031	16.46
438.157	15.46
438.283	27.46
438.409	10.46
438.536	10.46
438.662	16.46
438.788	7.46
438.914	9.46
439.041	27.46
439.167	33.46
439.293	20.46
439.419	6.46
439.546	18.46
439.672	14.46
439.798	14.46
439.924	30.46
440.05	34.46
440.177	37.46
440.303	10.46
440.429	24.46
440.555	28.46
440.681	24.46
440.807	24.46
440.934	1.46
441.06	23.46
441.186	24.46
441.312	14.46
441.438	21.46
441.564	4.46
441.69	20.46
441.816	34.46
441.943	20.46
442.069	46.46
442.195	18.46
442.321	28.46
442.447	9.46
442.573	17.46
442.699	21.46
442.825	-6.54
442.951	9.46
443.077	18.46
443.203	21.46
443.33	10.46
443.456	-6.54
443.582	18.46
443.708	19.46
443.834	19.46
443.96	20.46
444.086	24.46
444.212	32.46
444.338	52.46
444.464	18.46
444.59	25.46
444.716	15.46
444.842	13.46
444.968	1.46
445.094	14.46
445.22	12.46
445.346	-9.54
445.472	23.46
445.598	22.46
445.724	-4.54
445.85	9.46
445.976	24.46
446.102	36.46
446.228	14.46
446.354	1.46
446.48	7.46
446.605	20.46
446.731	22.46
446.857	4.46
446.983	15.46
447.109	9.46
447.235	22.46
447.361	-5.54
447.487	5.46
447.613	21.46
447.739	-2.54
447.865	9.46
447.99	21.46
448.116	20.46
448.242	34.46
448.368	16.46
448.494	8.46
448.62	6.46
448.746	12.46
448.872	22.46
448.997	7.46
449.123	7.46
449.249	46.46
449.375	18.46
449.501	-6.54
449.627	-10.54
449.752	25.46
449.878	1.46
450.004	5.46
450.13	21.46
450.256	29.46
450.381	25.46
450.507	15.46
450.633	38.46
450.759	26.46
450.884	6.46
451.01	16.46
451.136	13.46
451.262	30.46
451.388	10.46
451.513	18.46
451.639	27.46
451.765	34.46
451.89	12.46
452.016	12.46
452.142	12.46
452.268	14.46
452.393	19.46
452.519	2.46
452.645	21.46
452.771	19.46
452.896	6.46
453.022	-3.54
453.148	30.46
453.273	12.46
453.399	22.46
453.525	9.46
453.65	4.46
453.776	19.46
453.902	34.46
454.027	46.46
454.153	24.46
454.279	13.46
454.404	1.46
454.53	41.46
454.656	25.46
454.781	14.46
454.907	18.46
455.032	1.46
455.158	21.46
455.284	24.46
455.409	26.46
455.535	20.46
455.66	18.46
455.786	29.46
455.912	20.46
456.037	3.46
456.163	29.46
456.288	37.46
456.414	11.46
456.539	21.46
456.665	6.46
456.791	21.46
456.916	10.46
457.042	13.46
457.167	4.46
457.293	21.46
457.418	0.46
457.544	11.46
457.669	2.46
457.795	15.46
457.92	20.46
458.046	28.46
458.171	23.46
458.297	18.46
458.422	-1.54
458.548	6.46
458.673	31.46
458.799	11.46
458.924	1.46
459.05	22.46
459.175	26.46
459.301	12.46
459.426	24.46
459.552	-3.54
459.677	-6.54
459.803	17.46
459.928	22.46
460.053	15.46
460.179	18.46
460.304	31.46
460.43	-15.54
460.555	14.46
460.681	8.46
460.806	10.46
460.931	9.46
461.057	9.46
461.182	3.46
461.308	16.46
461.433	15.46
461.558	14.46
461.684	27.46
461.809	7.46
461.934	24.46
462.06	34.46
462.185	13.46
462.311	10.46
462.436	18.46
462.561	24.46
462.687	19.46
462.812	25.46
462.937	2.46
463.063	-5.54
463.188	16.46
463.313	13.46
463.439	24.46
463.564	11.46
463.689	9.46
463.814	18.46
463.94	15.46
464.065	14.46
464.19	18.46
464.316	5.46
464.441	-7.54
464.566	0.46
464.692	18.46
464.817	11.46
464.942	14.46
465.067	25.46
465.193	-5.54
465.318	22.46
465.443	11.46
465.568	5.46
465.694	5.46
465.819	21.46
465.944	24.46
466.069	19.46
466.194	29.46
466.32	6.46
466.445	24.46
466.57	5.46
466.695	5.46
466.82	8.46
466.946	6.46
467.071	20.46
467.196	2.46
467.321	12.46
467.446	12.46
467.572	21.46
467.697	12.46
467.822	17.46
467.947	25.46
468.072	13.46
468.197	18.46
468.323	4.46
468.448	-0.54
468.573	6.46
468.698	-4.54
468.823	22.46
468.948	34.46
469.073	20.46
469.198	4.46
469.324	28.46
469.449	7.46
469.574	8.46
469.699	4.46
469.824	8.46
469.949	9.46
470.074	20.46
470.199	41.46
470.324	36.46
470.449	23.46
470.574	-0.54
470.7	17.46
470.825	25.46
470.95	18.46
471.075	-0.54
471.2	11.46
471.325	4.46
471.45	11.46
471.575	-2.54
471.7	25.46
471.825	6.46
471.95	24.46
472.075	7.46
472.2	27.46
472.325	17.46
472.45	5.46
472.575	17.46
472.7	5.46
472.825	25.46
472.95	28.46
473.075	9.46
473.2	9.46
473.325	-4.54
473.45	14.46
473.575	5.46
473.7	21.46
473.825	6.46
473.95	32.46
474.075	23.46
474.2	16.46
474.325	15.46
474.45	39.46
474.574	22.46
474.699	30.46
474.824	16.46
474.949	19.46
475.074	-1.54
475.199	18.46
475.324	20.46
475.449	6.46
475.574	18.46
475.699	18.46
475.824	18.46
475.949	0.46
476.073	-6.54
476.198	2.46
476.323	25.46
476.448	18.46
476.573	18.46
476.698	23.46
476.823	16.46
476.947	8.46
477.072	4.46
477.197	27.46
477.322	15.46
477.447	4.46
477.572	5.46
477.697	1.46
477.821	8.46
477.946	39.46
478.071	38.46
478.196	37.46
478.321	8.46
478.445	18.46
478.57	7.46
478.695	25.46
478.82	20.46
478.945	32.46
479.069	-1.54
479.194	3.46
479.319	22.46
479.444	22.46
479.569	34.46
479.693	13.46
479.818	10.46
479.943	17.46
480.068	19.46
480.192	28.46
480.317	26.46
480.442	7.46
480.567	10.46
480.691	39.46
480.816	17.46
480.941	3.46
481.066	17.46
481.19	41.46
481.315	26.46
481.44	-2.54
481.564	-5.54
481.689	25.46
481.814	33.46
481.938	22.46
482.063	15.46
482.188	17.46
482.313	46.46
482.437	24.46
482.562	19.46
482.687	50.46
482.811	39.46
482.936	12.46
483.061	25.46
483.185	36.46
483.31	30.46
483.435	14.46
483.559	16.46
483.684	19.46
483.808	40.46
483.933	20.46
484.058	9.46
484.182	16.46
484.307	4.46
484.432	26.46
484.556	7.46
484.681	7.46
484.805	21.46
484.93	52.46
485.055	36.46
485.179	93.46
485.304	101.46
485.428	360.46
485.553	1249.46
485.678	1720.46
485.802	1596.46
485.927	1804.46
486.051	2615.46
486.176	1618.46
486.3	451.46
486.425	150.46
486.549	74.46
486.674	34.46
486.799	44.46
486.923	27.46
487.048	29.46
487.172	6.46
487.297	26.46
487.421	33.46
487.546	37.46
487.67	38.46
487.795	4.46
487.919	11.46
488.044	37.46
488.168	43.46
488.293	32.46
488.417	13.46
488.542	27.46
488.666	23.46
488.791	36.46
488.915	24.46
489.04	37.46
489.164	31.46
489.289	36.46
489.413	-0.54
489.538	22.46
489.662	31.46
489.786	19.46
489.911	25.46
490.035	19.46
490.16	12.46
490.284	12.46
490.409	0.46
490.533	20.46
490.658	52.46
490.782	17.46
490.906	28.46
491.031	26.46
491.155	25.46
491.28	28.46
491.404	18.46
491.528	38.46
491.653	5.46
491.777	21.46
491.902	14.46
492.026	24.46
492.15	23.46
492.275	49.46
492.399	30.46
492.524	3.46
492.648	39.46
492.772	21.46
492.897	30.46
493.021	14.46
493.145	28.46
493.27	14.46
493.394	23.46
493.518	4.46
493.643	1.46
493.767	16.46
493.891	24.46
494.016	38.46
494.14	12.46
494.264	24.46
494.389	24.46
494.513	3.46
494.637	6.46
494.762	33.46
494.886	12.46
495.01	28.46
495.134	24.46
495.259	20.46
495.383	12.46
495.507	17.46
495.632	27.46
495.756	40.46
495.88	16.46
496.004	8.46
496.129	19.46
496.253	29.46
496.377	11.46
496.501	33.46
496.626	-7.54
496.75	26.46
496.874	18.46
496.998	13.46
497.123	27.46
497.247	17.46
497.371	6.46
497.495	20.46
497.62	21.46
497.744	27.46
497.868	-15.54
497.992	26.46
498.116	25.46
498.241	31.46
498.365	7.46
498.489	5.46
498.613	48.46
498.737	22.46
498.862	24.46
498.986	-1.54
499.11	26.46
499.234	21.46
499.358	20.46
499.482	12.46
499.607	27.46
499.731	31.46
499.855	27.46
499.979	33.46
500.103	30.46
500.227	29.46
500.351	7.46
500.476	4.46
500.6	22.46
500.724	25.46
500.848	14.46
500.972	20.46
501.096	30.46
501.22	49.46
501.344	7.46
501.469	8.46
501.593	26.46
501.717	11.46
501.841	18.46
501.965	26.46
502.089	18.46
502.213	14.46
502.337	13.46
502.461	24.46
502.585	24.46
502.709	9.46
502.834	20.46
502.958	8.46
503.082	27.46
503.206	13.46
503.33	27.46
503.454	34.46
503.578	46.46
503.702	45.46
503.826	22.46
503.95	33.46
504.074	-2.54
504.198	7.46
504.322	8.46
504.446	27.46
504.57	20.46
504.694	21.46
504.818	33.46
504.942	27.46
505.066	10.46
505.19	6.46
505.314	24.46
505.438	23.46
505.562	9.46
505.686	19.46
505.81	0.46
505.934	22.46
506.058	6.46
506.182	30.46
506.306	21.46
506.43	17.46
506.554	17.46
506.678	23.46
506.802	10.46
506.926	19.46
507.05	22.46
507.174	17.46
507.298	28.46
507.422	7.46
507.546	20.46
507.67	37.46
507.794	14.46
507.918	17.46
508.042	39.46
508.165	27.46
508.289	2.46
508.413	7.46
508.537	12.46
508.661	13.46
508.785	17.46
508.909	27.46
509.033	0.46
509.157	13.46
509.281	20.46
509.405	-0.54
509.528	36.46
509.652	32.46
509.776	15.46
509.9	21.46
510.024	20.46
510.148	15.46
510.272	22.46
510.396	23.46
510.519	3.46
510.643	36.46
510.767	2.46
510.891	9.46
511.015	8.46
511.139	-1.54
511.263	34.46
511.386	1.46
511.51	9.46
511.634	24.46
511.758	20.46
511.882	7.46
512.006	29.46
512.129	16.46
512.253	36.46
512.377	15.46
512.501	4.46
512.625	13.46
512.748	12.46
512.872	15.46
512.996	8.46
513.12	-0.54
513.244	0.46
513.367	24.46
513.491	3.46
513.615	15.46
513.739	14.46
513.862	17.46
513.986	12.46
514.11	21.46
514.234	12.46
514.358	31.46
514.481	38.46
514.605	11.46
514.729	21.46
514.853	29.46
514.976	1.46
515.1	10.46
515.224	43.46
515.348	19.46
515.471	-0.54
515.595	25.46
515.719	-3.54
515.842	31.46
515.966	16.46
516.09	27.46
516.214	15.46
516.337	37.46
516.461	26.46
516.585	17.46
516.708	42.46
516.832	29.46
516.956	21.46
517.08	9.46
517.203	6.46
517.327	14.46
517.451	23.46
517.574	28.46
517.698	18.46
517.822	29.46
517.945	22.46
518.069	41.46
518.193	38.46
518.316	34.46
518.44	25.46
518.564	17.46
518.687	25.46
518.811	26.46
518.935	46.46
519.058	29.46
519.182	51.46
519.306	52.46
519.429	30.46
519.553	49.46
519.676	25.46
519.8	28.46
519.924	6.46
520.047	23.46
520.171	15.46
520.294	26.46
520.418	26.46
520.542	9.46
520.665	24.46
520.789	11.46
520.913	0.46
521.036	-0.54
521.16	14.46
521.283	16.46
521.407	6.46
521.53	0.46
521.654	7.46
521.778	20.46
521.901	28.46
522.025	28.46
522.148	15.46
522.272	17.46
522.395	-13.54
522.519	18.46
522.643	6.46
522.766	26.46
522.89	26.46
523.013	42.46
523.137	7.46
523.26	12.46
523.384	11.46
523.507	4.46
523.631	13.46
523.754	14.46
523.878	4.46
524.002	33.46
524.125	-4.54
524.249	7.46
524.372	19.46
524.496	12.46
524.619	15.46
524.743	26.46
524.866	4.46
524.99	7.46
525.113	6.46
525.237	14.46
525.36	9.46
525.484	14.46
525.607	-4.54
525.731	-4.54
525.854	12.46
525.978	37.46
526.101	16.46
526.224	16.46
526.348	11.46
526.471	10.46
526.595	14.46
526.718	22.46
526.842	-9.54
526.965	24.46
527.089	17.46
527.212	18.46
527.336	12.46
527.459	13.46
527.582	9.46
527.706	17.46
527.829	27.46
527.953	24.46
528.076	-1.54
528.2	16.46
528.323	36.46
528.446	29.46
528.57	5.46
528.693	25.46
528.817	29.46
528.94	23.46
529.064	35.46
529.187	16.46
529.31	0.46
529.434	7.46
529.557	17.46
529.68	18.46
529.804	10.46
529.927	18.46
530.051	20.46
530.174	9.46
530.297	18.46
530.421	16.46
530.544	14.46
530.668	29.46
530.791	7.46
530.914	32.46
531.038	6.46
531.161	15.46
531.284	20.46
531.408	18.46
531.531	13.46
531.654	15.46
531.778	8.46
531.901	9.46
532.024	29.46
532.148	15.46
532.271	7.46
532.394	18.46
532.518	16.46
532.641	28.46
532.764	41.46
532.888	40.46
533.011	15.46
533.134	17.46
533.258	32.46
533.381	18.46
533.504	13.46
533.628	2.46
533.751	10.46
533.874	5.46
533.997	17.46
534.121	2.46
534.244	24.46
534.367	15.46
534.491	10.46
534.614	18.46
534.737	12.46
534.86	18.46
534.984	-2.54
535.107	30.46
535.23	30.46
535.354	11.46
535.477	-6.54
535.6	13.46
535.723	14.46
535.847	15.46
535.97	1.46
536.093	24.46
536.216	8.46
536.34	9.46
536.463	-4.54
536.586	32.46
536.709	31.46
536.833	21.46
536.956	2.46
537.079	24.46
537.202	20.46
537.325	6.46
537.449	1.46
537.572	21.46
537.695	11.46
537.818	9.46
537.941	9.46
538.065	35.46
538.188	11.46
538.311	22.46
538.434	28.46
538.558	1.46
538.681	6.46
538.804	12.46
538.927	27.46
539.05	10.46
539.173	1.46
539.297	4.46
539.42	17.46
539.543	5.46
539.666	16.46
539.789	26.46
539.913	31.46
540.036	20.46
540.159	8.46
540.282	-3.54
540.405	0.46
540.528	12.46
540.651	29.46
540.775	-3.54
540.898	22.46
541.021	30.46
541.144	24.46
541.267	15.46
541.39	18.46
541.513	39.46
541.637	17.46
541.76	8.46
541.883	6.46
542.006	19.46
542.129	40.46
542.252	-0.54
542.375	11.46
542.498	15.46
542.622	20.46
542.745	-6.54
542.868	21.46
542.991	26.46
543.114	41.46
543.237	30.46
543.36	26.46
543.483	10.46
543.606	29.46
543.73	22.46
543.853	10.46
543.976	14.46
544.099	10.46
544.222	16.46
544.345	0.46
544.468	0.46
544.591	24.46
544.714	17.46
544.837	30.46
544.96	4.46
545.083	28.46
545.206	-1.54
545.329	12.46
545.453	21.46
545.576	17.46
545.699	14.46
545.822	6.46
545.945	20.46
546.068	7.46
546.191	29.46
546.314	13.46
546.437	13.46
546.56	25.46
546.683	11.46
546.806	24.46
546.929	13.46
547.052	4.46
547.175	17.46
547.298	22.46
547.421	5.46
547.544	0.46
547.667	19.46
547.79	8.46
547.913	-0.54
548.036	-8.54
548.159	9.46
548.282	6.46
548.405	13.46
548.528	29.46
548.651	10.46
548.774	6.46
548.897	22.46
549.02	28.46
549.143	40.46
549.266	20.46
549.389	24.46
549.512	20.46
549.635	38.46
549.758	7.46
549.881	7.46
550.004	7.46
550.127	14.46
550.25	2.46
550.373	-5.54
550.496	6.46
550.619	1.46
550.742	11.46
550.865	0.46
550.988	28.46
551.111	22.46
551.234	29.46
551.356	10.46
551.479	9.46
551.602	8.46
551.725	14.46
551.848	23.46
551.971	60.46
552.094	21.46
552.217	-2.54
552.34	6.46
552.463	-5.54
552.586	18.46
552.709	4.46
552.832	16.46
552.955	26.46
553.077	21.46
553.2	20.46
553.323	2.46
553.446	2.46
553.569	-0.54
553.692	13.46
553.815	18.46
553.938	17.46
554.061	19.46
554.184	4.46
554.306	18.46
554.429	12.46
554.552	23.46
554.675	-6.54
554.798	14.46
554.921	9.46
555.044	4.46
555.167	8.46
555.29	7.46
555.412	0.46
555.535	26.46
555.658	7.46
555.781	-6.54
555.904	30.46
556.027	16.46
556.15	25.46
556.272	12.46
556.395	32.46
556.518	11.46
556.641	8.46
556.764	15.46
556.887	20.46
557.01	0.46
557.132	13.46
557.255	26.46
557.378	18.46
557.501	18.46
557.624	30.46
557.747	9.46
557.869	20.46
557.992	18.46
558.115	23.46
558.238	-2.54
558.361	15.46
558.483	22.46
558.606	12.46
558.729	19.46
558.852	23.46
558.975	37.46
559.098	13.46
559.22	19.46
559.343	2.46
559.466	20.46
559.589	14.46
559.712	25.46
559.834	18.46
559.957	33.46
560.08	21.46
560.203	25.46
560.325	54.46
560.448	42.46
560.571	17.46
560.694	8.46
560.817	26.46
560.939	11.46
561.062	1.46
561.185	14.46
561.308	21.46
561.43	-1.54
561.553	12.46
561.676	5.46
561.799	8.46
561.921	16.46
562.044	10.46
562.167	-3.54
562.29	31.46
562.413	50.46
562.535	12.46
562.658	2.46
562.781	10.46
562.903	14.46
563.026	5.46
563.149	29.46
563.272	7.46
563.394	18.46
563.517	17.46
563.64	8.46
563.763	13.46
563.885	16.46
564.008	38.46
564.131	23.46
564.254	13.46
564.376	18.46
564.499	0.46
564.622	7.46
564.744	23.46
564.867	-1.54
564.99	11.46
565.113	17.46
565.235	22.46
565.358	7.46
565.481	4.46
565.603	9.46
565.726	10.46
565.849	24.46
565.971	31.46
566.094	6.46
566.217	24.46
566.34	22.46
566.462	15.46
566.585	27.46
566.708	48.46
566.83	19.46
566.953	29.46
567.076	1.46
567.198	16.46
567.321	2.46
567.444	29.46
567.566	0.46
567.689	1.46
567.812	8.46
567.934	7.46
568.057	2.46
568.18	27.46
568.302	20.46
568.425	0.46
568.548	11.46
568.67	12.46
568.793	16.46
568.916	8.46
569.038	8.46
569.161	7.46
569.283	17.46
569.406	10.46
569.529	1.46
569.651	13.46
569.774	12.46
569.897	10.46
570.019	34.46
570.142	31.46
570.265	8.46
570.387	2.46
570.51	4.46
570.632	31.46
570.755	1.46
570.878	-6.54
571	22.46
571.123	13.46
571.246	34.46
571.368	15.46
571.491	21.46
571.613	5.46
571.736	-10.54
571.859	6.46
571.981	-3.54
572.104	24.46
572.226	4.46
572.349	4.46
572.472	30.46
572.594	25.46
572.717	16.46
572.839	4.46
572.962	18.46
573.085	19.46
573.207	24.46
573.33	22.46
573.452	45.46
573.575	48.46
573.697	27.46
573.82	11.46
573.943	7.46
574.065	9.46
574.188	-2.54
574.31	24.46
574.433	27.46
574.555	26.46
574.678	10.46
574.801	23.46
574.923	19.46
575.046	17.46
575.168	2.46
575.291	9.46
575.413	13.46
575.536	12.46
575.659	22.46
575.781	18.46
575.904	24.46
576.026	21.46
576.149	17.46
576.271	15.46
576.394	10.46
576.516	24.46
576.639	23.46
576.761	11.46
576.884	-1.54
577.007	1.46
577.129	26.46
577.252	13.46
577.374	24.46
577.497	6.46
577.619	17.46
577.742	10.46
577.864	25.46
577.987	26.46
578.109	21.46
578.232	21.46
578.354	42.46
578.477	13.46
578.599	13.46
578.722	-2.54
578.844	26.46
578.967	27.46
579.089	14.46
579.212	-3.54
579.334	13.46
579.457	21.46
579.579	19.46
579.702	12.46
579.824	-2.54
579.947	2.46
580.069	12.46
580.192	2.46
580.314	37.46
580.437	21.46
580.559	50.46
580.682	28.46
580.804	29.46
580.927	28.46
581.049	47.46
581.172	17.46
581.294	24.46
581.417	24.46
581.539	15.46
581.662	24.46
581.784	16.46
581.907	24.46
582.029	13.46
582.152	12.46
582.274	26.46
582.396	10.46
582.519	10.46
582.641	1.46
582.764	5.46
582.886	24.46
583.009	-3.54
583.131	10.46
583.254	9.46
583.376	34.46
583.499	16.46
583.621	29.46
583.743	30.46
583.866	15.46
583.988	16.46
584.111	21.46
584.233	32.46
584.356	25.46
584.478	28.46
584.601	2.46
584.723	20.46
584.845	35.46
584.968	-8.54
585.09	-10.54
585.213	37.46
585.335	-11.54
585.458	26.46
585.58	10.46
585.702	18.46
585.825	18.46
585.947	20.46
586.07	-2.54
586.192	12.46
586.315	16.46
586.437	4.46
586.559	14.46
586.682	13.46
586.804	22.46
586.927	6.46
587.049	5.46
587.171	41.46
587.294	10.46
587.416	22.46
587.539	15.46
587.661	1.46
587.783	13.46
587.906	19.46
588.028	18.46
588.151	21.46
588.273	27.46
588.395	6.46
588.518	20.46
588.64	8.46
588.763	32.46
588.885	29.46
589.007	31.46
589.13	1.46
589.252	-10.54
589.375	12.46
589.497	20.46
589.619	18.46
589.742	19.46
589.864	28.46
589.986	33.46
590.109	-1.54
590.231	-3.54
590.354	16.46
590.476	-17.54
590.598	14.46
590.721	4.46
590.843	10.46
590.965	20.46
591.088	16.46
591.21	5.46
591.332	18.46
591.455	0.46
591.577	4.46
591.7	13.46
591.822	36.46
591.944	-2.54
592.067	21.46
592.189	14.46
592.311	18.46
592.434	14.46
592.556	18.46
592.678	5.46
592.801	15.46
592.923	15.46
593.045	-6.54
593.168	14.46
593.29	28.46
593.412	16.46
593.535	6.46
593.657	2.46
593.779	14.46
593.902	22.46
594.024	22.46
594.146	36.46
594.269	10.46
594.391	-7.54
594.513	19.46
594.636	9.46
594.758	2.46
594.88	9.46
595.003	3.46
595.125	15.46
595.247	-5.54
595.37	7.46
595.492	25.46
595.614	40.46
595.737	18.46
595.859	10.46
595.981	16.46
596.104	12.46
596.226	12.46
596.348	14.46
596.471	-2.54
596.593	25.46
596.715	0.46
596.838	1.46
596.96	-13.54
597.082	13.46
597.204	6.46
597.327	17.46
597.449	30.46
597.571	18.46
597.694	12.46
597.816	16.46
597.938	28.46
598.061	17.46
598.183	4.46
598.305	28.46
598.427	17.46
598.55	12.46
598.672	16.46
598.794	26.46
598.917	29.46
599.039	25.46
599.161	20.46
599.283	14.46
599.406	32.46
599.528	42.46
599.65	40.46
599.773	35.46
599.895	39.46
600.017	37.46
600.139	-1.54
600.262	8.46
600.384	19.46
600.506	14.46
600.628	21.46
600.751	35.46
600.873	6.46
600.995	17.46
601.118	34.46
601.24	-4.54
601.362	25.46
601.484	4.46
601.607	6.46
601.729	8.46
601.851	5.46
601.973	8.46
602.096	22.46
602.218	32.46
602.34	21.46
602.462	42.46
602.585	8.46
602.707	1.46
602.829	33.46
602.951	0.46
603.074	4.46
603.196	6.46
603.318	8.46
603.44	14.46
603.563	33.46
603.685	-11.54
603.807	34.46
603.929	15.46
604.052	24.46
604.174	9.46
604.296	16.46
604.418	12.46
604.541	35.46
604.663	21.46
604.785	20.46
604.907	19.46
605.03	24.46
605.152	49.46
605.274	12.46
605.396	-0.54
605.519	20.46
605.641	14.46
605.763	19.46
605.885	28.46
606.008	9.46
606.13	21.46
606.252	28.46
606.374	-1.54
606.496	-8.54
606.619	-3.54
606.741	11.46
606.863	37.46
606.985	25.46
607.108	23.46
607.23	23.46
607.352	14.46
607.474	11.46
607.596	28.46
607.719	12.46
607.841	27.46
607.963	10.46
608.085	14.46
608.207	28.46
608.33	14.46
608.452	11.46
608.574	12.46
608.696	43.46
608.819	12.46
608.941	-4.54
609.063	6.46
609.185	4.46
609.307	22.46
609.43	20.46
609.552	8.46
609.674	-3.54
609.796	8.46
609.918	38.46
610.041	14.46
610.163	24.46
610.285	33.46
610.407	22.46
610.529	11.46
610.652	12.46
610.774	20.46
610.896	16.46
611.018	18.46
611.14	6.46
611.263	1.46
611.385	9.46
611.507	11.46
611.629	5.46
611.751	8.46
611.873	31.46
611.996	21.46
612.118	32.46
612.24	26.46
612.362	13.46
612.484	28.46
612.607	27.46
612.729	44.46
612.851	16.46
612.973	9.46
613.095	5.46
613.218	27.46
613.34	24.46
613.462	22.46
613.584	35.46
613.706	16.46
613.828	48.46
613.951	28.46
614.073	16.46
614.195	4.46
614.317	28.46
614.439	26.46
614.561	37.46
614.684	35.46
614.806	36.46
614.928	21.46
615.05	22.46
615.172	8.46
615.294	24.46
615.417	16.46
615.539	19.46
615.661	11.46
615.783	37.46
615.905	18.46
616.027	69.46
616.15	110.46
616.272	83.46
616.394	44.46
616.516	41.46
616.638	44.46
616.76	0.46
616.883	21.46
617.005	9.46
617.127	11.46
617.249	14.46
617.371	20.46
617.493	6.46
617.615	12.46
617.738	6.46
617.86	24.46
617.982	21.46
618.104	21.46
618.226	7.46
618.348	17.46
618.471	8.46
618.593	13.46
618.715	10.46
618.837	0.46
618.959	22.46
619.081	32.46
619.203	28.46
619.326	12.46
619.448	14.46
619.57	18.46
619.692	38.46
619.814	32.46
619.936	1.46
620.058	19.46
620.181	18.46
620.303	41.46
620.425	42.46
620.547	26.46
620.669	0.46
620.791	24.46
620.913	18.46
621.036	2.46
621.158	8.46
621.28	20.46
621.402	10.46
621.524	16.46
621.646	13.46
621.768	7.46
621.891	5.46
622.013	14.46
622.135	1.46
622.257	7.46
622.379	10.46
622.501	11.46
622.623	6.46
622.745	2.46
622.868	4.46
622.99	20.46
623.112	15.46
623.234	5.46
623.356	20.46
623.478	-2.54
623.6	32.46
623.722	18.46
623.845	19.46
623.967	12.46
624.089	10.46
624.211	7.46
624.333	33.46
624.455	20.46
624.577	12.46
624.699	17.46
624.822	10.46
624.944	13.46
625.066	10.46
625.188	0.46
625.31	13.46
625.432	28.46
625.554	8.46
625.676	28.46
625.799	-4.54
625.921	12.46
626.043	23.46
626.165	8.46
626.287	1.46
626.409	32.46
626.531	0.46
626.653	15.46
626.775	18.46
626.898	17.46
627.02	9.46
627.142	36.46
627.264	9.46
627.386	15.46
627.508	20.46
627.63	14.46
627.752	18.46
627.874	20.46
627.997	24.46
628.119	19.46
628.241	26.46
628.363	39.46
628.485	12.46
628.607	12.46
628.729	8.46
628.851	-3.54
628.973	9.46
629.096	0.46
629.218	19.46
629.34	11.46
629.462	-9.54
629.584	-1.54
629.706	-10.54
629.828	18.46
629.95	9.46
630.072	17.46
630.195	20.46
630.317	14.46
630.439	5.46
630.561	6.46
630.683	1.46
630.805	17.46
630.927	24.46
631.049	19.46
631.171	0.46
631.293	19.46
631.416	17.46
631.538	-0.54
631.66	9.46
631.782	30.46
631.904	19.46
632.026	9.46
632.148	22.46
632.27	10.46
632.392	16.46
632.514	15.46
632.637	30.46
632.759	7.46
632.881	-0.54
633.003	8.46
633.125	-11.54
633.247	-10.54
633.369	13.46
633.491	25.46
633.613	18.46
633.735	2.46
633.858	7.46
633.98	8.46
634.102	0.46
634.224	1.46
634.346	9.46
634.468	13.46
634.59	1.46
634.712	6.46
634.834	6.46
634.956	9.46
635.078	-8.54
635.201	-1.54
635.323	16.46
635.445	4.46
635.567	-6.54
635.689	21.46
635.811	16.46
635.933	16.46
636.055	-1.54
636.177	5.46
636.299	14.46
636.421	10.46
636.544	-5.54
636.666	2.46
636.788	24.46
636.91	13.46
637.032	12.46
637.154	24.46
637.276	31.46
637.398	18.46
637.52	1.46
637.642	29.46
637.764	12.46
637.887	13.46
638.009	16.46
638.131	21.46
638.253	8.46
638.375	17.46
638.497	24.46
638.619	15.46
638.741	18.46
638.863	7.46
638.985	3.46
639.107	10.46
639.23	14.46
639.352	16.46
639.474	13.46
639.596	10.46
639.718	5.46
639.84	4.46
639.962	12.46
640.084	26.46
640.206	29.46
640.328	0.46
640.45	24.46
640.573	28.46
640.695	15.46
640.817	17.46
640.939	29.46
641.061	18.46
641.183	-5.54
641.305	6.46
641.427	-0.54
641.549	12.46
641.671	17.46
641.793	12.46
641.915	20.46
642.038	0.46
642.16	-1.54
642.282	15.46
642.404	10.46
642.526	-0.54
642.648	-11.54
642.77	2.46
642.892	-3.54
643.014	20.46
643.136	10.46
643.258	9.46
643.381	16.46
643.503	25.46
643.625	-1.54
643.747	1.46
643.869	12.46
643.991	3.46
644.113	15.46
644.235	11.46
644.357	8.46
644.479	20.46
644.601	14.46
644.723	26.46
644.846	18.46
644.968	5.46
645.09	10.46
645.212	13.46
645.334	16.46
645.456	13.46
645.578	6.46
645.7	21.46
645.822	19.46
645.944	24.46
646.066	19.46
646.188	7.46
646.311	26.46
646.433	24.46
646.555	52.46
646.677	41.46
646.799	34.46
646.921	24.46
647.043	44.46
647.165	8.46
647.287	4.46
647.409	-3.54
647.531	36.46
647.654	3.46
647.776	26.46
647.898	24.46
648.02	6.46
648.142	-0.54
648.264	8.46
648.386	15.46
648.508	-8.54
648.63	4.46
648.752	25.46
648.874	4.46
648.997	17.46
649.119	2.46
649.241	12.46
649.363	32.46
649.485	21.46
649.607	9.46
649.729	-8.54
649.851	4.46
649.973	-9.54
650.095	9.46
650.217	4.46
650.34	2.46
650.462	13.46
650.584	13.46
650.706	1.46
650.828	30.46
650.95	1.46
651.072	15.46
651.194	6.46
651.316	7.46
651.438	22.46
651.56	-0.54
651.683	1.46
651.805	14.46
651.927	11.46
652.049	10.46
652.171	7.46
652.293	4.46
652.415	-9.54
652.537	-3.54
652.659	14.46
652.781	18.46
652.903	36.46
653.026	29.46
653.148	13.46
653.27	16.46
653.392	24.46
653.514	5.46
653.636	24.46
653.758	31.46
653.88	16.46
654.002	9.46
654.124	0.46
654.247	-7.54
654.369	20.46
654.491	18.46
654.613	6.46
654.735	25.46
654.857	18.46
654.979	21.46
655.101	15.46
655.223	38.46
655.345	14.46
655.468	27.46
655.59	28.46
655.712	52.46
655.834	31.46
655.956	42.46
656.078	32.46
656.2	67.46
656.322	38.46
656.444	24.46
656.566	39.46
656.689	52.46
656.811	77.46
656.933	96.46
657.055	85.46
657.177	156.46
657.299	247.46
657.421	486.46
657.543	1846.46
657.665	12488.46
657.787	15153.46
657.91	15228.46
658.032	15667.46
658.154	4627.46
658.276	3154.46
658.398	1114.46
658.52	1004.46
658.642	472.46
658.764	565.46
658.886	261.46
659.009	394.46
659.131	218.46
659.253	313.46
659.375	159.46
659.497	268.46
659.619	123.46
659.741	206.46
659.863	102.46
659.985	166.46
660.108	101.46
660.23	159.46
660.352	93.46
660.474	137.46
660.596	57.46
660.718	125.46
660.84	70.46
660.962	123.46
661.084	60.46
661.207	109.46
661.329	65.46
661.451	103.46
661.573	53.46
661.695	110.46
661.817	47.46
661.939	90.46
662.061	66.46
662.184	81.46
662.306	29.46
662.428	86.46
662.55	47.46
662.672	56.46
662.794	47.46
662.916	65.46
663.038	40.46
663.161	81.46
663.283	52.46
663.405	77.46
663.527	39.46
663.649	78.46
663.771	32.46
663.893	50.46
664.015	39.46
664.138	69.46
664.26	45.46
664.382	43.46
664.504	25.46
664.626	41.46
664.748	34.46
664.87	36.46
664.992	36.46
665.115	49.46
665.237	18.46
665.359	22.46
665.481	15.46
665.603	58.46
665.725	41.46
665.847	55.46
665.97	15.46
666.092	29.46
666.214	30.46
666.336	41.46
666.458	25.46
666.58	49.46
666.702	14.46
666.825	42.46
666.947	14.46
667.069	45.46
667.191	31.46
667.313	40.46
667.435	5.46
667.557	16.46
667.68	14.46
667.802	43.46
667.924	19.46
668.046	53.46
668.168	38.46
668.29	56.46
668.412	25.46
668.535	41.46
668.657	20.46
668.779	24.46
668.901	40.46
669.023	29.46
669.145	-3.54
669.267	38.46
669.39	23.46
669.512	29.46
669.634	18.46
669.756	23.46
669.878	31.46
670	41.46
670.123	15.46
670.245	40.46
670.367	25.46
670.489	41.46
670.611	34.46
670.733	35.46
670.856	21.46
670.978	23.46
671.1	21.46
671.222	37.46
671.344	31.46
671.466	10.46
671.589	-0.54
671.711	23.46
671.833	8.46
671.955	32.46
672.077	22.46
672.199	42.46
672.322	36.46
672.444	32.46
672.566	21.46
672.688	25.46
672.81	24.46
672.932	41.46
673.055	18.46
673.177	21.46
673.299	15.46
673.421	12.46
673.543	0.46
673.665	12.46
673.788	28.46
673.91	4.46
674.032	13.46
674.154	18.46
674.276	33.46
674.399	33.46
674.521	23.46
674.643	16.46
674.765	8.46
674.887	20.46
675.009	8.46
675.132	20.46
675.254	0.46
675.376	6.46
675.498	17.46
675.62	38.46
675.743	23.46
675.865	30.46
675.987	6.46
676.109	28.46
676.231	20.46
676.354	54.46
676.476	9.46
676.598	27.46
676.72	25.46
676.842	31.46
676.965	18.46
677.087	27.46
677.209	29.46
677.331	35.46
677.453	12.46
677.576	24.46
677.698	17.46
677.82	12.46
677.942	4.46
678.064	18.46
678.187	14.46
678.309	17.46
678.431	8.46
678.553	13.46
678.675	32.46
678.798	48.46
678.92	13.46
679.042	28.46
679.164	2.46
679.286	29.46
679.409	15.46
679.531	8.46
679.653	9.46
679.775	24.46
679.898	5.46
680.02	5.46
680.142	8.46
680.264	16.46
680.386	-0.54
680.509	50.46
680.631	40.46
680.753	13.46
680.875	-4.54
680.998	10.46
681.12	7.46
681.242	24.46
681.364	17.46
681.486	24.46
681.609	-2.54
681.731	2.46
681.853	-3.54
681.975	23.46
682.098	23.46
682.22	45.46
682.342	16.46
682.464	42.46
682.587	28.46
682.709	10.46
682.831	-1.54
682.953	11.46
683.076	2.46
683.198	41.46
683.32	13.46
683.442	27.46
683.565	14.46
683.687	20.46
683.809	13.46
683.931	2.46
684.054	15.46
684.176	33.46
684.298	32.46
684.42	16.46
684.543	17.46
684.665	2.46
684.787	9.46
684.909	4.46
685.032	23.46
685.154	-3.54
685.276	5.46
685.398	-8.54
685.521	-4.54
685.643	18.46
685.765	3.46
685.887	7.46
686.01	13.46
686.132	16.46
686.254	21.46
686.377	16.46
686.499	8.46
686.621	18.46
686.743	39.46
686.866	14.46
686.988	28.46
687.11	30.46
687.232	37.46
687.355	19.46
687.477	18.46
687.599	37.46
687.722	13.46
687.844	9.46
687.966	19.46
688.088	27.46
688.211	36.46
688.333	29.46
688.455	10.46
688.578	30.46
688.7	21.46
688.822	10.46
688.944	7.46
689.067	45.46
689.189	13.46
689.311	25.46
689.434	9.46
689.556	30.46
689.678	24.46
689.801	5.46
689.923	26.46
690.045	36.46
690.167	31.46
690.29	39.46
690.412	9.46
690.534	26.46
690.657	17.46
690.779	9.46
690.901	12.46
691.024	7.46
691.146	20.46
691.268	8.46
691.391	23.46
691.513	29.46
691.635	13.46
691.758	43.46
691.88	10.46
692.002	7.46
692.125	16.46
692.247	15.46
692.369	6.46
692.492	-6.54
692.614	2.46
692.736	22.46
692.859	19.46
692.981	13.46
693.103	-4.54
693.226	7.46
693.348	30.46
693.47	22.46
693.593	21.46
693.715	22.46
693.837	10.46
693.96	-2.54
694.082	4.46
694.204	10.46
694.327	21.46
694.449	-7.54
694.571	1.46
694.694	22.46
694.816	22.46
694.938	4.46
695.061	14.46
695.183	3.46
695.305	19.46
695.428	23.46
695.55	16.46
695.672	13.46
695.795	20.46
695.917	43.46
696.04	3.46
696.162	6.46
696.284	18.46
696.407	13.46
696.529	18.46
696.651	37.46
696.774	8.46
696.896	30.46
697.019	20.46
697.141	8.46
697.263	27.46
697.386	0.46
697.508	-1.54
697.63	22.46
697.753	34.46
697.875	13.46
697.998	20.46
698.12	21.46
698.242	2.46
698.365	10.46
698.487	20.46
698.61	6.46
698.732	8.46
698.854	7.46
698.977	14.46
699.099	13.46
699.221	-5.54
699.344	17.46
699.466	19.46
699.589	19.46
699.711	0.46
699.834	19.46
699.956	26.46
700.078	18.46
700.201	4.46
700.323	32.46
700.446	8.46
700.568	-5.54
700.69	20.46
700.813	16.46
700.935	6.46
701.058	9.46
701.18	6.46
701.302	-2.54
701.425	-6.54
701.547	10.46
701.67	6.46
701.792	19.46
701.915	5.46
702.037	9.46
702.159	1.46
702.282	10.46
702.404	12.46
702.527	17.46
702.649	25.46
702.772	24.46
702.894	22.46
703.017	41.46
703.139	2.46
703.261	26.46
703.384	22.46
703.506	-3.54
703.629	-0.54
703.751	23.46
703.874	7.46
703.996	4.46
704.119	-9.54
704.241	26.46
704.364	-0.54
704.486	20.46
704.608	26.46
704.731	18.46
704.853	11.46
704.976	8.46
705.098	10.46
705.221	4.46
705.343	5.46
705.466	29.46
705.588	-4.54
705.711	14.46
705.833	21.46
705.956	-4.54
706.078	21.46
706.201	14.46
706.323	13.46
706.446	10.46
