Data from LowRes_H2_15_26_11_07_2024_HR4C61881__40__15-28-17-637.txt Node

Date: Thu Nov 07 15:28:17 EST 2024
User: crc00042
Spectrometer: HR4C6188
Trigger mode: 4
Integration Time (sec): 1.000000E-1
Scans to average: 1
Electric dark correction enabled: true
Nonlinearity correction enabled: false
Boxcar width: 0
XAxis mode: Wavelengths
Number of Pixels in Spectrum: 3648
>>>>>Begin Spectral Data<<<<<
245.66	-111.15
245.797	-111.15
245.934	-111.15
246.071	-78.15
246.208	14.85
246.344	-13.15
246.481	-2.15
246.618	-2.15
246.755	24.85
246.892	2.85
247.029	2.85
247.165	-28.15
247.302	-11.15
247.439	13.85
247.576	13.85
247.713	-4.15
247.849	9.85
247.986	-7.15
248.123	-18.15
248.26	-0.15
248.396	10.85
248.533	7.85
248.67	1.85
248.806	19.85
248.943	-3.15
249.08	-6.15
249.216	9.85
249.353	-16.15
249.49	4.85
249.626	-5.15
249.763	5.85
249.9	-15.15
250.036	-10.15
250.173	10.85
250.309	7.85
250.446	10.85
250.582	-9.15
250.719	9.85
250.856	-12.15
250.992	15.85
251.129	7.85
251.265	-7.15
251.402	-12.15
251.538	-3.15
251.675	-1.15
251.811	24.85
251.948	24.85
252.084	9.85
252.221	0.85
252.357	-2.15
252.493	33.85
252.63	-0.15
252.766	21.85
252.903	12.85
253.039	4.85
253.175	9.85
253.312	24.85
253.448	-11.15
253.585	-4.15
253.721	19.85
253.857	5.85
253.994	13.85
254.13	2.85
254.266	0.85
254.403	3.85
254.539	-5.15
254.675	15.85
254.811	-8.15
254.948	23.85
255.084	-4.15
255.22	-16.15
255.356	2.85
255.493	13.85
255.629	16.85
255.765	-10.15
255.901	28.85
256.037	11.85
256.174	14.85
256.31	2.85
256.446	-7.15
256.582	-14.15
256.718	8.85
256.854	5.85
256.991	17.85
257.127	5.85
257.263	2.85
257.399	-0.15
257.535	-11.15
257.671	-17.15
257.807	-25.15
257.943	-8.15
258.079	-9.15
258.215	-4.15
258.351	-1.15
258.487	-15.15
258.623	12.85
258.759	-9.15
258.895	-28.15
259.031	-11.15
259.167	-14.15
259.303	1.85
259.439	-2.15
259.575	-8.15
259.711	-4.15
259.847	-7.15
259.983	5.85
260.119	-5.15
260.255	-6.15
260.391	6.85
260.527	-8.15
260.663	8.85
260.799	10.85
260.934	-3.15
261.07	2.85
261.206	-20.15
261.342	4.85
261.478	12.85
261.614	9.85
261.749	-3.15
261.885	-11.15
262.021	-11.15
262.157	14.85
262.293	-6.15
262.428	-12.15
262.564	5.85
262.7	3.85
262.836	3.85
262.971	16.85
263.107	-15.15
263.243	14.85
263.378	3.85
263.514	-1.15
263.65	-4.15
263.785	-3.15
263.921	-7.15
264.057	1.85
264.192	1.85
264.328	18.85
264.464	1.85
264.599	3.85
264.735	14.85
264.871	-6.15
265.006	21.85
265.142	-17.15
265.277	1.85
265.413	21.85
265.548	33.85
265.684	26.85
265.819	-0.15
265.955	-1.15
266.091	-7.15
266.226	1.85
266.362	5.85
266.497	11.85
266.633	8.85
266.768	7.85
266.903	12.85
267.039	5.85
267.174	15.85
267.31	-8.15
267.445	-14.15
267.581	-10.15
267.716	25.85
267.851	6.85
267.987	0.85
268.122	4.85
268.258	-3.15
268.393	-12.15
268.528	-2.15
268.664	-11.15
268.799	-1.15
268.934	-2.15
269.07	9.85
269.205	3.85
269.34	11.85
269.476	4.85
269.611	-4.15
269.746	34.85
269.881	-0.15
270.017	13.85
270.152	5.85
270.287	23.85
270.422	12.85
270.558	-8.15
270.693	14.85
270.828	-15.15
270.963	2.85
271.098	9.85
271.234	4.85
271.369	16.85
271.504	7.85
271.639	-29.15
271.774	-3.15
271.909	6.85
272.045	-20.15
272.18	-11.15
272.315	-4.15
272.45	10.85
272.585	-17.15
272.72	-10.15
272.855	-6.15
272.99	26.85
273.125	-6.15
273.26	-6.15
273.395	-13.15
273.53	-3.15
273.665	6.85
273.8	-7.15
273.935	2.85
274.07	-2.15
274.205	16.85
274.34	-10.15
274.475	-9.15
274.61	17.85
274.745	-9.15
274.88	21.85
275.015	3.85
275.15	3.85
275.285	-3.15
275.42	8.85
275.555	11.85
275.69	9.85
275.825	-0.15
275.959	20.85
276.094	5.85
276.229	-2.15
276.364	-7.15
276.499	4.85
276.634	0.85
276.768	-4.15
276.903	0.85
277.038	29.85
277.173	11.85
277.308	8.85
277.442	-13.15
277.577	-13.15
277.712	-5.15
277.847	-5.15
277.981	20.85
278.116	-21.15
278.251	-6.15
278.386	5.85
278.52	16.85
278.655	-6.15
278.79	9.85
278.924	-4.15
279.059	-1.15
279.194	4.85
279.328	26.85
279.463	7.85
279.598	14.85
279.732	11.85
279.867	15.85
280.001	21.85
280.136	12.85
280.271	7.85
280.405	-6.15
280.54	4.85
280.674	-19.15
280.809	15.85
280.943	14.85
281.078	17.85
281.213	30.85
281.347	3.85
281.482	22.85
281.616	-13.15
281.751	-15.15
281.885	-21.15
282.02	-14.15
282.154	9.85
282.288	-13.15
282.423	-8.15
282.557	-2.15
282.692	25.85
282.826	4.85
282.961	10.85
283.095	3.85
283.229	21.85
283.364	-4.15
283.498	-11.15
283.633	-3.15
283.767	15.85
283.901	-6.15
284.036	-2.15
284.17	-20.15
284.304	-11.15
284.439	-2.15
284.573	-0.15
284.707	2.85
284.842	3.85
284.976	3.85
285.11	-4.15
285.244	0.85
285.379	46.85
285.513	-14.15
285.647	30.85
285.781	-9.15
285.916	11.85
286.05	8.85
286.184	30.85
286.318	22.85
286.453	1.85
286.587	-18.15
286.721	-11.15
286.855	6.85
286.989	22.85
287.123	2.85
287.258	-2.15
287.392	13.85
287.526	10.85
287.66	3.85
287.794	-0.15
287.928	-6.15
288.062	-0.15
288.196	3.85
288.33	21.85
288.464	16.85
288.598	21.85
288.733	10.85
288.867	15.85
289.001	0.85
289.135	8.85
289.269	-3.15
289.403	1.85
289.537	-12.15
289.671	19.85
289.805	-4.15
289.939	2.85
290.073	-5.15
290.207	12.85
290.34	-2.15
290.474	15.85
290.608	-0.15
290.742	3.85
290.876	-8.15
291.01	-6.15
291.144	14.85
291.278	11.85
291.412	17.85
291.546	17.85
291.679	6.85
291.813	6.85
291.947	23.85
292.081	7.85
292.215	1.85
292.349	9.85
292.482	7.85
292.616	-18.15
292.75	0.85
292.884	-3.15
293.018	-3.15
293.151	-18.15
293.285	-6.15
293.419	-3.15
293.553	-9.15
293.686	-11.15
293.82	7.85
293.954	6.85
294.088	19.85
294.221	3.85
294.355	4.85
294.489	8.85
294.622	-8.15
294.756	8.85
294.89	-8.15
295.023	-3.15
295.157	9.85
295.291	9.85
295.424	12.85
295.558	-5.15
295.691	17.85
295.825	-11.15
295.959	-0.15
296.092	-7.15
296.226	5.85
296.359	12.85
296.493	8.85
296.627	15.85
296.76	9.85
296.894	-1.15
297.027	6.85
297.161	1.85
297.294	-17.15
297.428	15.85
297.561	36.85
297.695	-18.15
297.828	-1.15
297.962	-0.15
298.095	7.85
298.229	4.85
298.362	-7.15
298.495	-8.15
298.629	-15.15
298.762	-7.15
298.896	-4.15
299.029	-12.15
299.162	-2.15
299.296	-3.15
299.429	-13.15
299.563	-3.15
299.696	-15.15
299.829	9.85
299.963	22.85
300.096	7.85
300.229	8.85
300.363	2.85
300.496	11.85
300.629	-2.15
300.763	-11.15
300.896	18.85
301.029	9.85
301.162	8.85
301.296	-14.15
301.429	-2.15
301.562	-20.15
301.695	22.85
301.829	3.85
301.962	20.85
302.095	13.85
302.228	0.85
302.362	-9.15
302.495	-21.15
302.628	7.85
302.761	-5.15
302.894	-5.15
303.027	17.85
303.161	-2.15
303.294	-13.15
303.427	16.85
303.56	7.85
303.693	-3.15
303.826	13.85
303.959	-3.15
304.092	6.85
304.225	-4.15
304.359	4.85
304.492	-6.15
304.625	15.85
304.758	21.85
304.891	-8.15
305.024	-10.15
305.157	5.85
305.29	-7.15
305.423	-12.15
305.556	5.85
305.689	38.85
305.822	5.85
305.955	4.85
306.088	-16.15
306.221	12.85
306.354	-14.15
306.487	-17.15
306.62	-21.15
306.752	-10.15
306.885	3.85
307.018	-6.15
307.151	2.85
307.284	13.85
307.417	-2.15
307.55	13.85
307.683	2.85
307.816	5.85
307.948	-3.15
308.081	12.85
308.214	-6.15
308.347	42.85
308.48	-1.15
308.613	-5.15
308.745	7.85
308.878	-14.15
309.011	-20.15
309.144	22.85
309.277	-2.15
309.409	9.85
309.542	8.85
309.675	6.85
309.808	4.85
309.94	30.85
310.073	-17.15
310.206	-12.15
310.339	12.85
310.471	-2.15
310.604	22.85
310.737	-8.15
310.869	2.85
311.002	-5.15
311.135	6.85
311.267	-7.15
311.4	-2.15
311.533	15.85
311.665	-3.15
311.798	1.85
311.93	-1.15
312.063	11.85
312.196	11.85
312.328	-3.15
312.461	-10.15
312.593	9.85
312.726	0.85
312.859	5.85
312.991	0.85
313.124	-22.15
313.256	12.85
313.389	4.85
313.521	-1.15
313.654	-11.15
313.786	-20.15
313.919	-6.15
314.051	9.85
314.184	17.85
314.316	1.85
314.449	1.85
314.581	12.85
314.714	-14.15
314.846	9.85
314.978	-7.15
315.111	1.85
315.243	2.85
315.376	4.85
315.508	-2.15
315.641	3.85
315.773	27.85
315.905	-4.15
316.038	9.85
316.17	6.85
316.302	4.85
316.435	2.85
316.567	-3.15
316.699	23.85
316.832	5.85
316.964	-16.15
317.096	4.85
317.229	-3.15
317.361	-14.15
317.493	-2.15
317.625	-15.15
317.758	11.85
317.89	21.85
318.022	6.85
318.155	-1.15
318.287	13.85
318.419	-6.15
318.551	6.85
318.683	-21.15
318.816	-26.15
318.948	-11.15
319.08	-7.15
319.212	8.85
319.344	9.85
319.477	20.85
319.609	10.85
319.741	4.85
319.873	-0.15
320.005	0.85
320.137	12.85
320.269	8.85
320.401	-10.15
320.534	-2.15
320.666	-25.15
320.798	-20.15
320.93	3.85
321.062	-19.15
321.194	-9.15
321.326	-1.15
321.458	-18.15
321.59	-23.15
321.722	-1.15
321.854	13.85
321.986	11.85
322.118	13.85
322.25	-9.15
322.382	-14.15
322.514	-14.15
322.646	-17.15
322.778	21.85
322.91	17.85
323.042	-1.15
323.174	0.85
323.306	-12.15
323.438	-15.15
323.57	4.85
323.702	13.85
323.834	-6.15
323.966	-6.15
324.097	7.85
324.229	9.85
324.361	-0.15
324.493	4.85
324.625	-6.15
324.757	17.85
324.889	8.85
325.021	-5.15
325.152	4.85
325.284	18.85
325.416	-9.15
325.548	4.85
325.68	-4.15
325.811	31.85
325.943	11.85
326.075	-19.15
326.207	3.85
326.339	25.85
326.47	11.85
326.602	16.85
326.734	5.85
326.866	5.85
326.997	-12.15
327.129	-10.15
327.261	-27.15
327.392	-1.15
327.524	2.85
327.656	5.85
327.787	20.85
327.919	11.85
328.051	8.85
328.182	26.85
328.314	23.85
328.446	8.85
328.577	11.85
328.709	1.85
328.841	-7.15
328.972	2.85
329.104	-6.15
329.235	3.85
329.367	-17.15
329.499	2.85
329.63	11.85
329.762	2.85
329.893	3.85
330.025	10.85
330.156	-23.15
330.288	25.85
330.419	22.85
330.551	10.85
330.683	-0.15
330.814	-12.15
330.946	11.85
331.077	-13.15
331.208	-7.15
331.34	-2.15
331.471	-13.15
331.603	3.85
331.734	-26.15
331.866	2.85
331.997	-1.15
332.129	-6.15
332.26	11.85
332.392	5.85
332.523	-8.15
332.654	-1.15
332.786	-2.15
332.917	-19.15
333.048	10.85
333.18	24.85
333.311	-7.15
333.443	4.85
333.574	-9.15
333.705	-5.15
333.837	-16.15
333.968	2.85
334.099	21.85
334.231	10.85
334.362	-2.15
334.493	3.85
334.624	0.85
334.756	-10.15
334.887	-0.15
335.018	15.85
335.15	8.85
335.281	10.85
335.412	30.85
335.543	2.85
335.675	-0.15
335.806	15.85
335.937	7.85
336.068	16.85
336.199	24.85
336.331	-3.15
336.462	3.85
336.593	18.85
336.724	0.85
336.855	5.85
336.986	14.85
337.118	20.85
337.249	25.85
337.38	24.85
337.511	2.85
337.642	5.85
337.773	-4.15
337.904	11.85
338.035	10.85
338.166	13.85
338.298	18.85
338.429	0.85
338.56	11.85
338.691	24.85
338.822	7.85
338.953	4.85
339.084	21.85
339.215	20.85
339.346	4.85
339.477	17.85
339.608	-3.15
339.739	-3.15
339.87	-0.15
340.001	2.85
340.132	24.85
340.263	0.85
340.394	7.85
340.525	7.85
340.656	0.85
340.787	-19.15
340.918	13.85
341.049	16.85
341.179	10.85
341.31	14.85
341.441	3.85
341.572	2.85
341.703	10.85
341.834	-1.15
341.965	15.85
342.096	-2.15
342.227	12.85
342.357	9.85
342.488	-16.15
342.619	20.85
342.75	8.85
342.881	-20.15
343.012	16.85
343.142	28.85
343.273	-28.15
343.404	3.85
343.535	47.85
343.666	8.85
343.796	12.85
343.927	11.85
344.058	25.85
344.189	23.85
344.319	10.85
344.45	0.85
344.581	-9.15
344.712	-8.15
344.842	-7.15
344.973	-5.15
345.104	20.85
345.234	-0.15
345.365	-31.15
345.496	1.85
345.626	10.85
345.757	3.85
345.888	-6.15
346.018	18.85
346.149	1.85
346.28	23.85
346.41	-2.15
346.541	23.85
346.672	11.85
346.802	8.85
346.933	35.85
347.063	8.85
347.194	-11.15
347.325	-5.15
347.455	22.85
347.586	4.85
347.716	-11.15
347.847	28.85
347.977	8.85
348.108	17.85
348.238	28.85
348.369	9.85
348.499	28.85
348.63	12.85
348.76	11.85
348.891	12.85
349.021	23.85
349.152	1.85
349.282	9.85
349.413	-14.15
349.543	4.85
349.674	10.85
349.804	28.85
349.935	8.85
350.065	2.85
350.196	13.85
350.326	15.85
350.456	-2.15
350.587	26.85
350.717	5.85
350.848	2.85
350.978	18.85
351.108	-13.15
351.239	23.85
351.369	-13.15
351.499	4.85
351.63	13.85
351.76	14.85
351.89	14.85
352.021	3.85
352.151	6.85
352.281	10.85
352.412	7.85
352.542	14.85
352.672	15.85
352.803	7.85
352.933	5.85
353.063	14.85
353.193	19.85
353.324	3.85
353.454	18.85
353.584	30.85
353.714	0.85
353.845	8.85
353.975	7.85
354.105	-1.15
354.235	3.85
354.365	10.85
354.496	-3.15
354.626	14.85
354.756	5.85
354.886	8.85
355.016	13.85
355.146	-2.15
355.277	1.85
355.407	-5.15
355.537	10.85
355.667	7.85
355.797	7.85
355.927	7.85
356.057	-6.15
356.187	4.85
356.318	8.85
356.448	22.85
356.578	12.85
356.708	17.85
356.838	-6.15
356.968	-9.15
357.098	8.85
357.228	29.85
357.358	-7.15
357.488	2.85
357.618	32.85
357.748	1.85
357.878	10.85
358.008	6.85
358.138	3.85
358.268	4.85
358.398	25.85
358.528	-5.15
358.658	11.85
358.788	-1.15
358.918	24.85
359.048	6.85
359.178	15.85
359.308	11.85
359.438	9.85
359.568	0.85
359.698	-5.15
359.827	9.85
359.957	31.85
360.087	7.85
360.217	4.85
360.347	6.85
360.477	26.85
360.607	-0.15
360.737	12.85
360.866	-10.15
360.996	-10.15
361.126	-2.15
361.256	14.85
361.386	12.85
361.516	27.85
361.645	2.85
361.775	14.85
361.905	-9.15
362.035	-2.15
362.165	1.85
362.294	10.85
362.424	22.85
362.554	17.85
362.684	-5.15
362.813	5.85
362.943	30.85
363.073	13.85
363.203	8.85
363.332	8.85
363.462	-3.15
363.592	-2.15
363.721	-11.15
363.851	6.85
363.981	31.85
364.111	-4.15
364.24	-4.15
364.37	24.85
364.5	27.85
364.629	9.85
364.759	5.85
364.888	-17.15
365.018	6.85
365.148	10.85
365.277	15.85
365.407	19.85
365.537	3.85
365.666	1.85
365.796	13.85
365.925	5.85
366.055	13.85
366.184	11.85
366.314	8.85
366.444	20.85
366.573	-11.15
366.703	5.85
366.832	22.85
366.962	-2.15
367.091	17.85
367.221	23.85
367.35	18.85
367.48	67.85
367.609	8.85
367.739	-5.15
367.868	-14.15
367.998	23.85
368.127	20.85
368.257	18.85
368.386	27.85
368.516	17.85
368.645	-5.15
368.775	18.85
368.904	-3.15
369.033	-3.15
369.163	-17.15
369.292	17.85
369.422	28.85
369.551	25.85
369.68	7.85
369.81	11.85
369.939	-8.15
370.069	27.85
370.198	18.85
370.327	-18.15
370.457	1.85
370.586	-1.15
370.715	0.85
370.845	-7.15
370.974	14.85
371.103	17.85
371.233	8.85
371.362	11.85
371.491	-15.15
371.621	-4.15
371.75	12.85
371.879	-23.15
372.008	-5.15
372.138	10.85
372.267	9.85
372.396	12.85
372.525	-10.15
372.655	-0.15
372.784	3.85
372.913	4.85
373.042	13.85
373.172	15.85
373.301	-14.15
373.43	-8.15
373.559	20.85
373.688	3.85
373.818	11.85
373.947	32.85
374.076	11.85
374.205	-16.15
374.334	-10.15
374.463	-2.15
374.593	29.85
374.722	3.85
374.851	35.85
374.98	11.85
375.109	6.85
375.238	13.85
375.367	32.85
375.496	-17.15
375.625	11.85
375.755	15.85
375.884	25.85
376.013	5.85
376.142	-1.15
376.271	-6.15
376.4	10.85
376.529	19.85
376.658	15.85
376.787	3.85
376.916	14.85
377.045	-1.15
377.174	-1.15
377.303	9.85
377.432	42.85
377.561	31.85
377.69	13.85
377.819	11.85
377.948	0.85
378.077	6.85
378.206	-2.15
378.335	0.85
378.464	18.85
378.593	13.85
378.722	2.85
378.851	6.85
378.98	25.85
379.108	16.85
379.237	-0.15
379.366	-6.15
379.495	10.85
379.624	-1.15
379.753	-1.15
379.882	0.85
380.011	1.85
380.14	8.85
380.268	9.85
380.397	-1.15
380.526	32.85
380.655	8.85
380.784	-27.15
380.913	5.85
381.041	8.85
381.17	-10.15
381.299	-7.15
381.428	14.85
381.557	19.85
381.685	0.85
381.814	15.85
381.943	-3.15
382.072	-8.15
382.2	-11.15
382.329	0.85
382.458	4.85
382.587	15.85
382.715	36.85
382.844	34.85
382.973	7.85
383.102	10.85
383.23	15.85
383.359	1.85
383.488	9.85
383.616	-1.15
383.745	-10.15
383.874	13.85
384.003	2.85
384.131	-2.15
384.26	-3.15
384.389	4.85
384.517	-19.15
384.646	-6.15
384.774	-4.15
384.903	12.85
385.032	14.85
385.16	1.85
385.289	4.85
385.418	3.85
385.546	-3.15
385.675	14.85
385.803	-4.15
385.932	8.85
386.06	5.85
386.189	12.85
386.318	4.85
386.446	-2.15
386.575	7.85
386.703	19.85
386.832	-17.15
386.96	-25.15
387.089	6.85
387.217	9.85
387.346	2.85
387.474	33.85
387.603	14.85
387.731	21.85
387.86	21.85
387.988	16.85
388.117	7.85
388.245	6.85
388.374	-0.15
388.502	10.85
388.631	-10.15
388.759	-9.15
388.888	3.85
389.016	1.85
389.144	1.85
389.273	22.85
389.401	-9.15
389.53	-19.15
389.658	10.85
389.786	-9.15
389.915	-3.15
390.043	1.85
390.172	21.85
390.3	28.85
390.428	6.85
390.557	1.85
390.685	22.85
390.813	0.85
390.942	-1.15
391.07	7.85
391.198	-3.15
391.327	7.85
391.455	-12.15
391.583	1.85
391.712	19.85
391.84	7.85
391.968	-13.15
392.096	1.85
392.225	0.85
392.353	22.85
392.481	0.85
392.609	16.85
392.738	-2.15
392.866	19.85
392.994	7.85
393.122	3.85
393.251	-16.15
393.379	-11.15
393.507	-22.15
393.635	-1.15
393.764	-14.15
393.892	28.85
394.02	0.85
394.148	5.85
394.276	4.85
394.404	30.85
394.533	14.85
394.661	7.85
394.789	14.85
394.917	15.85
395.045	-3.15
395.173	-0.15
395.302	-0.15
395.43	7.85
395.558	24.85
395.686	12.85
395.814	12.85
395.942	21.85
396.07	18.85
396.198	11.85
396.326	14.85
396.454	6.85
396.582	31.85
396.711	5.85
396.839	18.85
396.967	3.85
397.095	1.85
397.223	5.85
397.351	22.85
397.479	37.85
397.607	-5.15
397.735	22.85
397.863	4.85
397.991	11.85
398.119	7.85
398.247	9.85
398.375	-5.15
398.503	2.85
398.631	11.85
398.759	3.85
398.887	2.85
399.015	6.85
399.143	-4.15
399.271	-2.15
399.399	1.85
399.526	4.85
399.654	10.85
399.782	-15.15
399.91	24.85
400.038	23.85
400.166	-2.15
400.294	10.85
400.422	-8.15
400.55	11.85
400.678	18.85
400.805	4.85
400.933	7.85
401.061	11.85
401.189	-8.15
401.317	13.85
401.445	5.85
401.573	22.85
401.7	2.85
401.828	3.85
401.956	-8.15
402.084	8.85
402.212	25.85
402.34	7.85
402.467	2.85
402.595	24.85
402.723	5.85
402.851	26.85
402.978	23.85
403.106	30.85
403.234	21.85
403.362	29.85
403.489	41.85
403.617	14.85
403.745	16.85
403.873	-4.15
404	9.85
404.128	13.85
404.256	24.85
404.384	26.85
404.511	28.85
404.639	-4.15
404.767	-0.15
404.894	1.85
405.022	4.85
405.15	12.85
405.277	23.85
405.405	-4.15
405.533	-4.15
405.66	3.85
405.788	-16.15
405.916	-2.15
406.043	-4.15
406.171	-3.15
406.299	25.85
406.426	15.85
406.554	12.85
406.681	-2.15
406.809	-1.15
406.937	10.85
407.064	-8.15
407.192	20.85
407.319	11.85
407.447	7.85
407.574	39.85
407.702	23.85
407.83	3.85
407.957	-0.15
408.085	15.85
408.212	16.85
408.34	6.85
408.467	5.85
408.595	14.85
408.722	33.85
408.85	11.85
408.977	-0.15
409.105	-1.15
409.232	6.85
409.36	3.85
409.487	4.85
409.615	12.85
409.742	26.85
409.87	45.85
409.997	39.85
410.125	51.85
410.252	70.85
410.379	44.85
410.507	26.85
410.634	27.85
410.762	13.85
410.889	13.85
411.017	15.85
411.144	21.85
411.271	-1.15
411.399	1.85
411.526	2.85
411.653	14.85
411.781	32.85
411.908	15.85
412.036	11.85
412.163	5.85
412.29	12.85
412.418	26.85
412.545	35.85
412.672	-3.15
412.8	36.85
412.927	24.85
413.054	27.85
413.182	15.85
413.309	7.85
413.436	3.85
413.564	-1.15
413.691	11.85
413.818	25.85
413.945	-2.15
414.073	10.85
414.2	3.85
414.327	7.85
414.454	17.85
414.582	24.85
414.709	-6.15
414.836	1.85
414.963	11.85
415.091	11.85
415.218	-5.15
415.345	13.85
415.472	14.85
415.6	6.85
415.727	21.85
415.854	0.85
415.981	17.85
416.108	6.85
416.236	-3.15
416.363	18.85
416.49	9.85
416.617	-9.15
416.744	33.85
416.871	17.85
416.998	5.85
417.126	14.85
417.253	-2.15
417.38	4.85
417.507	4.85
417.634	12.85
417.761	26.85
417.888	4.85
418.015	9.85
418.143	20.85
418.27	21.85
418.397	7.85
418.524	7.85
418.651	1.85
418.778	7.85
418.905	22.85
419.032	15.85
419.159	13.85
419.286	25.85
419.413	27.85
419.54	34.85
419.667	-18.15
419.794	-14.15
419.921	26.85
420.048	21.85
420.175	26.85
420.302	17.85
420.429	7.85
420.556	14.85
420.683	-11.15
420.81	-1.15
420.937	22.85
421.064	14.85
421.191	-5.15
421.318	14.85
421.445	26.85
421.572	3.85
421.699	24.85
421.826	12.85
421.953	-2.15
422.08	12.85
422.207	-0.15
422.334	-2.15
422.461	20.85
422.588	2.85
422.714	12.85
422.841	32.85
422.968	28.85
423.095	19.85
423.222	2.85
423.349	-5.15
423.476	13.85
423.603	6.85
423.729	7.85
423.856	8.85
423.983	14.85
424.11	12.85
424.237	24.85
424.364	23.85
424.491	18.85
424.617	-14.15
424.744	0.85
424.871	12.85
424.998	17.85
425.125	-4.15
425.251	18.85
425.378	-10.15
425.505	2.85
425.632	15.85
425.758	5.85
425.885	8.85
426.012	20.85
426.139	24.85
426.266	3.85
426.392	1.85
426.519	19.85
426.646	2.85
426.772	25.85
426.899	3.85
427.026	13.85
427.153	22.85
427.279	29.85
427.406	18.85
427.533	1.85
427.659	19.85
427.786	9.85
427.913	25.85
428.039	-2.15
428.166	5.85
428.293	-1.15
428.419	10.85
428.546	5.85
428.673	-15.15
428.799	5.85
428.926	10.85
429.053	27.85
429.179	11.85
429.306	10.85
429.433	9.85
429.559	28.85
429.686	-21.15
429.812	-2.15
429.939	1.85
430.066	-7.15
430.192	-1.15
430.319	14.85
430.445	19.85
430.572	5.85
430.699	-9.15
430.825	6.85
430.952	15.85
431.078	20.85
431.205	11.85
431.331	10.85
431.458	14.85
431.584	22.85
431.711	-5.15
431.837	5.85
431.964	8.85
432.09	19.85
432.217	-7.15
432.343	-8.15
432.47	9.85
432.596	12.85
432.723	3.85
432.849	3.85
432.976	19.85
433.102	16.85
433.229	-3.15
433.355	13.85
433.482	66.85
433.608	149.85
433.735	133.85
433.861	132.85
433.987	151.85
434.114	221.85
434.24	203.85
434.367	58.85
434.493	0.85
434.62	14.85
434.746	30.85
434.872	4.85
434.999	33.85
435.125	15.85
435.252	5.85
435.378	24.85
435.504	2.85
435.631	27.85
435.757	3.85
435.883	11.85
436.01	9.85
436.136	7.85
436.262	7.85
436.389	17.85
436.515	20.85
436.641	4.85
436.768	17.85
436.894	18.85
437.02	16.85
437.147	38.85
437.273	20.85
437.399	-7.15
437.526	24.85
437.652	18.85
437.778	16.85
437.904	-10.15
438.031	6.85
438.157	11.85
438.283	15.85
438.409	4.85
438.536	-5.15
438.662	22.85
438.788	10.85
438.914	25.85
439.041	14.85
439.167	40.85
439.293	-4.15
439.419	11.85
439.546	20.85
439.672	3.85
439.798	2.85
439.924	22.85
440.05	22.85
440.177	16.85
440.303	8.85
440.429	10.85
440.555	28.85
440.681	-1.15
440.807	16.85
440.934	0.85
441.06	16.85
441.186	17.85
441.312	19.85
441.438	22.85
441.564	18.85
441.69	24.85
441.816	28.85
441.943	4.85
442.069	15.85
442.195	14.85
442.321	20.85
442.447	0.85
442.573	-5.15
442.699	-5.15
442.825	-2.15
442.951	6.85
443.077	19.85
443.203	22.85
443.33	4.85
443.456	-13.15
443.582	8.85
443.708	5.85
443.834	26.85
443.96	10.85
444.086	1.85
444.212	36.85
444.338	26.85
444.464	14.85
444.59	25.85
444.716	24.85
444.842	23.85
444.968	5.85
445.094	12.85
445.22	3.85
445.346	-13.15
445.472	-2.15
445.598	1.85
445.724	6.85
445.85	13.85
445.976	-3.15
446.102	17.85
446.228	37.85
446.354	27.85
446.48	17.85
446.605	11.85
446.731	5.85
446.857	0.85
446.983	14.85
447.109	-0.15
447.235	8.85
447.361	3.85
447.487	17.85
447.613	9.85
447.739	0.85
447.865	1.85
447.99	7.85
448.116	6.85
448.242	23.85
448.368	11.85
448.494	3.85
448.62	9.85
448.746	-7.15
448.872	7.85
448.997	13.85
449.123	7.85
449.249	36.85
449.375	22.85
449.501	14.85
449.627	9.85
449.752	29.85
449.878	-3.15
450.004	15.85
450.13	13.85
450.256	12.85
450.381	13.85
450.507	9.85
450.633	6.85
450.759	21.85
450.884	2.85
451.01	17.85
451.136	-1.15
451.262	17.85
451.388	-9.15
451.513	-6.15
451.639	7.85
451.765	6.85
451.89	4.85
452.016	21.85
452.142	-6.15
452.268	11.85
452.393	1.85
452.519	3.85
452.645	21.85
452.771	15.85
452.896	1.85
453.022	2.85
453.148	28.85
453.273	12.85
453.399	9.85
453.525	-13.15
453.65	6.85
453.776	21.85
453.902	11.85
454.027	29.85
454.153	26.85
454.279	26.85
454.404	9.85
454.53	22.85
454.656	26.85
454.781	17.85
454.907	9.85
455.032	13.85
455.158	6.85
455.284	21.85
455.409	9.85
455.535	11.85
455.66	17.85
455.786	22.85
455.912	6.85
456.037	8.85
456.163	36.85
456.288	33.85
456.414	-3.15
456.539	2.85
456.665	23.85
456.791	20.85
456.916	3.85
457.042	8.85
457.167	-6.15
457.293	1.85
457.418	12.85
457.544	15.85
457.669	20.85
457.795	0.85
457.92	-1.15
458.046	13.85
458.171	20.85
458.297	1.85
458.422	-9.15
458.548	-10.15
458.673	13.85
458.799	5.85
458.924	-11.15
459.05	8.85
459.175	-3.15
459.301	16.85
459.426	19.85
459.552	22.85
459.677	-3.15
459.803	41.85
459.928	4.85
460.053	12.85
460.179	13.85
460.304	23.85
460.43	6.85
460.555	-2.15
460.681	13.85
460.806	13.85
460.931	-4.15
461.057	16.85
461.182	4.85
461.308	32.85
461.433	5.85
461.558	-6.15
461.684	13.85
461.809	14.85
461.934	7.85
462.06	22.85
462.185	1.85
462.311	4.85
462.436	31.85
462.561	12.85
462.687	24.85
462.812	15.85
462.937	4.85
463.063	7.85
463.188	10.85
463.313	-7.15
463.439	5.85
463.564	11.85
463.689	10.85
463.814	2.85
463.94	18.85
464.065	10.85
464.19	38.85
464.316	1.85
464.441	-11.15
464.566	-2.15
464.692	22.85
464.817	20.85
464.942	4.85
465.067	0.85
465.193	-10.15
465.318	0.85
465.443	-1.15
465.568	-15.15
465.694	22.85
465.819	26.85
465.944	13.85
466.069	9.85
466.194	14.85
466.32	17.85
466.445	7.85
466.57	1.85
466.695	10.85
466.82	33.85
466.946	11.85
467.071	4.85
467.196	-3.15
467.321	-2.15
467.446	5.85
467.572	-11.15
467.697	-12.15
467.822	6.85
467.947	24.85
468.072	6.85
468.197	4.85
468.323	-2.15
468.448	15.85
468.573	11.85
468.698	18.85
468.823	15.85
468.948	43.85
469.073	3.85
469.198	17.85
469.324	24.85
469.449	8.85
469.574	21.85
469.699	38.85
469.824	25.85
469.949	20.85
470.074	26.85
470.199	43.85
470.324	26.85
470.449	27.85
470.574	11.85
470.7	10.85
470.825	25.85
470.95	39.85
471.075	5.85
471.2	15.85
471.325	20.85
471.45	10.85
471.575	10.85
471.7	-1.15
471.825	2.85
471.95	-11.15
472.075	-11.15
472.2	8.85
472.325	3.85
472.45	-13.15
472.575	5.85
472.7	10.85
472.825	-1.15
472.95	27.85
473.075	21.85
473.2	8.85
473.325	11.85
473.45	-1.15
473.575	4.85
473.7	16.85
473.825	0.85
473.95	10.85
474.075	24.85
474.2	-1.15
474.325	9.85
474.45	16.85
474.574	11.85
474.699	4.85
474.824	6.85
474.949	-1.15
475.074	4.85
475.199	15.85
475.324	30.85
475.449	18.85
475.574	30.85
475.699	13.85
475.824	5.85
475.949	6.85
476.073	24.85
476.198	18.85
476.323	24.85
476.448	7.85
476.573	2.85
476.698	25.85
476.823	4.85
476.947	8.85
477.072	25.85
477.197	17.85
477.322	-4.15
477.447	15.85
477.572	18.85
477.697	5.85
477.821	16.85
477.946	25.85
478.071	17.85
478.196	26.85
478.321	14.85
478.445	16.85
478.57	20.85
478.695	10.85
478.82	10.85
478.945	13.85
479.069	-3.15
479.194	7.85
479.319	16.85
479.444	12.85
479.569	11.85
479.693	33.85
479.818	14.85
479.943	33.85
480.068	13.85
480.192	20.85
480.317	10.85
480.442	2.85
480.567	-1.15
480.691	10.85
480.816	29.85
480.941	-4.15
481.066	37.85
481.19	26.85
481.315	13.85
481.44	11.85
481.564	17.85
481.689	13.85
481.814	15.85
481.938	18.85
482.063	7.85
482.188	10.85
482.313	27.85
482.437	6.85
482.562	32.85
482.687	29.85
482.811	34.85
482.936	30.85
483.061	22.85
483.185	13.85
483.31	27.85
483.435	29.85
483.559	17.85
483.684	17.85
483.808	34.85
483.933	9.85
484.058	16.85
484.182	4.85
484.307	24.85
484.432	13.85
484.556	21.85
484.681	26.85
484.805	15.85
484.93	35.85
485.055	33.85
485.179	64.85
485.304	109.85
485.428	382.85
485.553	1216.85
485.678	1719.85
485.802	1585.85
485.927	1800.85
486.051	2653.85
486.176	1628.85
486.3	454.85
486.425	158.85
486.549	89.85
486.674	48.85
486.799	46.85
486.923	12.85
487.048	19.85
487.172	13.85
487.297	16.85
487.421	34.85
487.546	12.85
487.67	24.85
487.795	10.85
487.919	27.85
488.044	18.85
488.168	25.85
488.293	18.85
488.417	12.85
488.542	37.85
488.666	36.85
488.791	22.85
488.915	24.85
489.04	20.85
489.164	34.85
489.289	42.85
489.413	17.85
489.538	8.85
489.662	18.85
489.786	12.85
489.911	0.85
490.035	11.85
490.16	-0.15
490.284	11.85
490.409	-11.15
490.533	19.85
490.658	29.85
490.782	9.85
490.906	12.85
491.031	20.85
491.155	22.85
491.28	14.85
491.404	13.85
491.528	27.85
491.653	13.85
491.777	33.85
491.902	4.85
492.026	16.85
492.15	11.85
492.275	30.85
492.399	29.85
492.524	16.85
492.648	26.85
492.772	35.85
492.897	28.85
493.021	12.85
493.145	32.85
493.27	21.85
493.394	2.85
493.518	-4.15
493.643	-7.15
493.767	29.85
493.891	17.85
494.016	23.85
494.14	2.85
494.264	20.85
494.389	16.85
494.513	6.85
494.637	6.85
494.762	37.85
494.886	31.85
495.01	23.85
495.134	32.85
495.259	23.85
495.383	30.85
495.507	14.85
495.632	28.85
495.756	32.85
495.88	15.85
496.004	18.85
496.129	-5.15
496.253	16.85
496.377	11.85
496.501	16.85
496.626	12.85
496.75	34.85
496.874	28.85
496.998	14.85
497.123	38.85
497.247	1.85
497.371	22.85
497.495	5.85
497.62	15.85
497.744	17.85
497.868	11.85
497.992	12.85
498.116	6.85
498.241	10.85
498.365	19.85
498.489	8.85
498.613	28.85
498.737	8.85
498.862	17.85
498.986	9.85
499.11	10.85
499.234	13.85
499.358	15.85
499.482	23.85
499.607	17.85
499.731	19.85
499.855	43.85
499.979	8.85
500.103	6.85
500.227	11.85
500.351	12.85
500.476	10.85
500.6	16.85
500.724	26.85
500.848	19.85
500.972	29.85
501.096	22.85
501.22	20.85
501.344	4.85
501.469	17.85
501.593	-3.15
501.717	2.85
501.841	0.85
501.965	3.85
502.089	8.85
502.213	16.85
502.337	10.85
502.461	7.85
502.585	21.85
502.709	8.85
502.834	16.85
502.958	14.85
503.082	21.85
503.206	21.85
503.33	23.85
503.454	36.85
503.578	32.85
503.702	34.85
503.826	27.85
503.95	39.85
504.074	29.85
504.198	14.85
504.322	-10.15
504.446	13.85
504.57	22.85
504.694	6.85
504.818	-8.15
504.942	22.85
505.066	8.85
505.19	15.85
505.314	23.85
505.438	6.85
505.562	7.85
505.686	14.85
505.81	-8.15
505.934	24.85
506.058	17.85
506.182	17.85
506.306	3.85
506.43	-6.15
506.554	9.85
506.678	6.85
506.802	10.85
506.926	11.85
507.05	9.85
507.174	17.85
507.298	18.85
507.422	16.85
507.546	34.85
507.67	43.85
507.794	-4.15
507.918	10.85
508.042	8.85
508.165	8.85
508.289	13.85
508.413	20.85
508.537	8.85
508.661	19.85
508.785	20.85
508.909	31.85
509.033	16.85
509.157	14.85
509.281	4.85
509.405	20.85
509.528	34.85
509.652	33.85
509.776	22.85
509.9	28.85
510.024	7.85
510.148	11.85
510.272	21.85
510.396	29.85
510.519	20.85
510.643	26.85
510.767	2.85
510.891	7.85
511.015	16.85
511.139	14.85
511.263	25.85
511.386	9.85
511.51	10.85
511.634	11.85
511.758	14.85
511.882	-0.15
512.006	12.85
512.129	7.85
512.253	29.85
512.377	0.85
512.501	15.85
512.625	14.85
512.748	-1.15
512.872	1.85
512.996	-24.15
513.12	11.85
513.244	5.85
513.367	17.85
513.491	25.85
513.615	25.85
513.739	14.85
513.862	12.85
513.986	-2.15
514.11	20.85
514.234	21.85
514.358	32.85
514.481	21.85
514.605	-2.15
514.729	18.85
514.853	14.85
514.976	5.85
515.1	6.85
515.224	12.85
515.348	6.85
515.471	16.85
515.595	12.85
515.719	17.85
515.842	40.85
515.966	18.85
516.09	38.85
516.214	16.85
516.337	38.85
516.461	17.85
516.585	12.85
516.708	14.85
516.832	28.85
516.956	21.85
517.08	14.85
517.203	-0.15
517.327	9.85
517.451	41.85
517.574	33.85
517.698	2.85
517.822	6.85
517.945	13.85
518.069	26.85
518.193	46.85
518.316	20.85
518.44	37.85
518.564	21.85
518.687	19.85
518.811	35.85
518.935	72.85
519.058	24.85
519.182	10.85
519.306	19.85
519.429	28.85
519.553	60.85
519.676	20.85
519.8	20.85
519.924	17.85
520.047	20.85
520.171	-5.15
520.294	7.85
520.418	17.85
520.542	10.85
520.665	36.85
520.789	3.85
520.913	2.85
521.036	-15.15
521.16	-1.15
521.283	17.85
521.407	13.85
521.53	16.85
521.654	-6.15
521.778	10.85
521.901	8.85
522.025	21.85
522.148	1.85
522.272	15.85
522.395	16.85
522.519	22.85
522.643	8.85
522.766	33.85
522.89	4.85
523.013	24.85
523.137	-8.15
523.26	1.85
523.384	5.85
523.507	11.85
523.631	20.85
523.754	18.85
523.878	28.85
524.002	22.85
524.125	9.85
524.249	-10.15
524.372	-2.15
524.496	16.85
524.619	5.85
524.743	-1.15
524.866	18.85
524.99	4.85
525.113	-1.15
525.237	25.85
525.36	22.85
525.484	1.85
525.607	15.85
525.731	16.85
525.854	10.85
525.978	28.85
526.101	7.85
526.224	4.85
526.348	19.85
526.471	14.85
526.595	10.85
526.718	8.85
526.842	4.85
526.965	19.85
527.089	-3.15
527.212	38.85
527.336	1.85
527.459	19.85
527.582	17.85
527.706	17.85
527.829	33.85
527.953	8.85
528.076	9.85
528.2	12.85
528.323	29.85
528.446	23.85
528.57	12.85
528.693	32.85
528.817	7.85
528.94	24.85
529.064	48.85
529.187	13.85
529.31	-6.15
529.434	1.85
529.557	5.85
529.68	17.85
529.804	3.85
529.927	19.85
530.051	5.85
530.174	-11.15
530.297	5.85
530.421	20.85
530.544	27.85
530.668	37.85
530.791	-3.15
530.914	18.85
531.038	-4.15
531.161	17.85
531.284	14.85
531.408	23.85
531.531	11.85
531.654	1.85
531.778	0.85
531.901	-5.15
532.024	18.85
532.148	3.85
532.271	6.85
532.394	10.85
532.518	30.85
532.641	24.85
532.764	30.85
532.888	24.85
533.011	-7.15
533.134	3.85
533.258	30.85
533.381	17.85
533.504	21.85
533.628	21.85
533.751	21.85
533.874	9.85
533.997	18.85
534.121	12.85
534.244	11.85
534.367	18.85
534.491	30.85
534.614	4.85
534.737	10.85
534.86	13.85
534.984	3.85
535.107	-7.15
535.23	8.85
535.354	14.85
535.477	-1.15
535.6	15.85
535.723	9.85
535.847	17.85
535.97	-5.15
536.093	16.85
536.216	0.85
536.34	11.85
536.463	0.85
536.586	13.85
536.709	14.85
536.833	36.85
536.956	5.85
537.079	-7.15
537.202	16.85
537.325	-12.15
537.449	-7.15
537.572	12.85
537.695	2.85
537.818	0.85
537.941	2.85
538.065	1.85
538.188	2.85
538.311	24.85
538.434	25.85
538.558	10.85
538.681	12.85
538.804	4.85
538.927	25.85
539.05	13.85
539.173	10.85
539.297	16.85
539.42	13.85
539.543	8.85
539.666	21.85
539.789	6.85
539.913	11.85
540.036	9.85
540.159	20.85
540.282	21.85
540.405	-7.15
540.528	4.85
540.651	12.85
540.775	-3.15
540.898	-1.15
541.021	5.85
541.144	13.85
541.267	11.85
541.39	24.85
541.513	15.85
541.637	16.85
541.76	15.85
541.883	-13.15
542.006	1.85
542.129	28.85
542.252	5.85
542.375	23.85
542.498	25.85
542.622	10.85
542.745	9.85
542.868	-11.15
542.991	28.85
543.114	17.85
543.237	25.85
543.36	4.85
543.483	4.85
543.606	16.85
543.73	16.85
543.853	18.85
543.976	4.85
544.099	10.85
544.222	10.85
544.345	-10.15
544.468	12.85
544.591	1.85
544.714	4.85
544.837	24.85
544.96	8.85
545.083	-2.15
545.206	9.85
545.329	12.85
545.453	12.85
545.576	3.85
545.699	-1.15
545.822	21.85
545.945	26.85
546.068	0.85
546.191	17.85
546.314	24.85
546.437	22.85
546.56	10.85
546.683	15.85
546.806	8.85
546.929	11.85
547.052	-7.15
547.175	1.85
547.298	28.85
547.421	1.85
547.544	-8.15
547.667	14.85
547.79	17.85
547.913	-9.15
548.036	-6.15
548.159	3.85
548.282	11.85
548.405	-0.15
548.528	13.85
548.651	6.85
548.774	8.85
548.897	6.85
549.02	23.85
549.143	16.85
549.266	12.85
549.389	16.85
549.512	-6.15
549.635	31.85
549.758	26.85
549.881	15.85
550.004	26.85
550.127	7.85
550.25	9.85
550.373	8.85
550.496	20.85
550.619	6.85
550.742	0.85
550.865	-6.15
550.988	25.85
551.111	36.85
551.234	12.85
551.356	2.85
551.479	7.85
551.602	7.85
551.725	18.85
551.848	9.85
551.971	26.85
552.094	6.85
552.217	0.85
552.34	10.85
552.463	-17.15
552.586	27.85
552.709	18.85
552.832	40.85
552.955	20.85
553.077	34.85
553.2	17.85
553.323	-2.15
553.446	6.85
553.569	17.85
553.692	1.85
553.815	14.85
553.938	18.85
554.061	26.85
554.184	21.85
554.306	12.85
554.429	11.85
554.552	12.85
554.675	-20.15
554.798	8.85
554.921	14.85
555.044	5.85
555.167	-14.15
555.29	-4.15
555.412	13.85
555.535	16.85
555.658	17.85
555.781	-3.15
555.904	28.85
556.027	28.85
556.15	4.85
556.272	3.85
556.395	3.85
556.518	-9.15
556.641	-2.15
556.764	24.85
556.887	5.85
557.01	-4.15
557.132	-17.15
557.255	-1.15
557.378	30.85
557.501	-10.15
557.624	1.85
557.747	20.85
557.869	14.85
557.992	29.85
558.115	20.85
558.238	18.85
558.361	13.85
558.483	14.85
558.606	7.85
558.729	7.85
558.852	26.85
558.975	30.85
559.098	18.85
559.22	6.85
559.343	22.85
559.466	8.85
559.589	-13.15
559.712	19.85
559.834	12.85
559.957	4.85
560.08	15.85
560.203	23.85
560.325	13.85
560.448	29.85
560.571	15.85
560.694	16.85
560.817	36.85
560.939	11.85
561.062	-1.15
561.185	-2.15
561.308	0.85
561.43	3.85
561.553	-6.15
561.676	-4.15
561.799	4.85
561.921	0.85
562.044	4.85
562.167	7.85
562.29	28.85
562.413	19.85
562.535	0.85
562.658	-8.15
562.781	4.85
562.903	5.85
563.026	28.85
563.149	33.85
563.272	8.85
563.394	21.85
563.517	30.85
563.64	-3.15
563.763	-0.15
563.885	20.85
564.008	24.85
564.131	25.85
564.254	-13.15
564.376	5.85
564.499	-5.15
564.622	7.85
564.744	8.85
564.867	9.85
564.99	13.85
565.113	13.85
565.235	18.85
565.358	-3.15
565.481	1.85
565.603	7.85
565.726	7.85
565.849	8.85
565.971	8.85
566.094	-3.15
566.217	18.85
566.34	22.85
566.462	8.85
566.585	29.85
566.708	30.85
566.83	-1.15
566.953	30.85
567.076	9.85
567.198	-1.15
567.321	13.85
567.444	20.85
567.566	3.85
567.689	-3.15
567.812	0.85
567.934	11.85
568.057	28.85
568.18	6.85
568.302	-2.15
568.425	-1.15
568.548	13.85
568.67	23.85
568.793	15.85
568.916	11.85
569.038	-1.15
569.161	-0.15
569.283	11.85
569.406	4.85
569.529	8.85
569.651	-18.15
569.774	-4.15
569.897	2.85
570.019	28.85
570.142	22.85
570.265	8.85
570.387	15.85
570.51	23.85
570.632	36.85
570.755	9.85
570.878	9.85
571	13.85
571.123	-4.15
571.246	17.85
571.368	8.85
571.491	-9.15
571.613	-10.15
571.736	0.85
571.859	-8.15
571.981	6.85
572.104	6.85
572.226	8.85
572.349	3.85
572.472	18.85
572.594	16.85
572.717	19.85
572.839	2.85
572.962	9.85
573.085	9.85
573.207	1.85
573.33	33.85
573.452	17.85
573.575	33.85
573.697	12.85
573.82	-5.15
573.943	12.85
574.065	10.85
574.188	9.85
574.31	20.85
574.433	16.85
574.555	19.85
574.678	9.85
574.801	8.85
574.923	-5.15
575.046	14.85
575.168	-0.15
575.291	9.85
575.413	5.85
575.536	6.85
575.659	20.85
575.781	5.85
575.904	15.85
576.026	8.85
576.149	5.85
576.271	22.85
576.394	7.85
576.516	2.85
576.639	12.85
576.761	27.85
576.884	21.85
577.007	16.85
577.129	5.85
577.252	-1.15
577.374	19.85
577.497	8.85
577.619	20.85
577.742	3.85
577.864	15.85
577.987	33.85
578.109	42.85
578.232	14.85
578.354	37.85
578.477	2.85
578.599	9.85
578.722	-8.15
578.844	-0.15
578.967	21.85
579.089	8.85
579.212	6.85
579.334	24.85
579.457	8.85
579.579	22.85
579.702	11.85
579.824	24.85
579.947	5.85
580.069	-7.15
580.192	-8.15
580.314	14.85
580.437	-1.15
580.559	44.85
580.682	8.85
580.804	29.85
580.927	29.85
581.049	41.85
581.172	9.85
581.294	28.85
581.417	27.85
581.539	5.85
581.662	12.85
581.784	9.85
581.907	25.85
582.029	7.85
582.152	7.85
582.274	17.85
582.396	9.85
582.519	14.85
582.641	-1.15
582.764	12.85
582.886	21.85
583.009	11.85
583.131	24.85
583.254	11.85
583.376	11.85
583.499	11.85
583.621	13.85
583.743	10.85
583.866	6.85
583.988	13.85
584.111	18.85
584.233	16.85
584.356	21.85
584.478	13.85
584.601	-3.15
584.723	9.85
584.845	23.85
584.968	3.85
585.09	4.85
585.213	6.85
585.335	0.85
585.458	-3.15
585.58	18.85
585.702	13.85
585.825	15.85
585.947	17.85
586.07	-4.15
586.192	-4.15
586.315	8.85
586.437	4.85
586.559	3.85
586.682	-3.15
586.804	20.85
586.927	4.85
587.049	3.85
587.171	13.85
587.294	20.85
587.416	17.85
587.539	5.85
587.661	4.85
587.783	8.85
587.906	23.85
588.028	9.85
588.151	11.85
588.273	13.85
588.395	7.85
588.518	-6.15
588.64	18.85
588.763	26.85
588.885	10.85
589.007	24.85
589.13	-1.15
589.252	-8.15
589.375	17.85
589.497	23.85
589.619	36.85
589.742	13.85
589.864	23.85
589.986	7.85
590.109	2.85
590.231	0.85
590.354	12.85
590.476	-2.15
590.598	-5.15
590.721	-2.15
590.843	13.85
590.965	21.85
591.088	19.85
591.21	18.85
591.332	29.85
591.455	-2.15
591.577	-6.15
591.7	6.85
591.822	5.85
591.944	8.85
592.067	-7.15
592.189	2.85
592.311	11.85
592.434	-1.15
592.556	-1.15
592.678	37.85
592.801	32.85
592.923	30.85
593.045	15.85
593.168	17.85
593.29	4.85
593.412	15.85
593.535	8.85
593.657	-3.15
593.779	11.85
593.902	14.85
594.024	5.85
594.146	21.85
594.269	3.85
594.391	-11.15
594.513	13.85
594.636	12.85
594.758	10.85
594.88	5.85
595.003	17.85
595.125	3.85
595.247	22.85
595.37	-5.15
595.492	-7.15
595.614	8.85
595.737	2.85
595.859	6.85
595.981	1.85
596.104	-7.15
596.226	10.85
596.348	7.85
596.471	2.85
596.593	12.85
596.715	0.85
596.838	-2.15
596.96	0.85
597.082	4.85
597.204	6.85
597.327	10.85
597.449	-9.15
597.571	37.85
597.694	23.85
597.816	19.85
597.938	5.85
598.061	0.85
598.183	15.85
598.305	22.85
598.427	14.85
598.55	30.85
598.672	37.85
598.794	7.85
598.917	2.85
599.039	8.85
599.161	13.85
599.283	-5.15
599.406	16.85
599.528	29.85
599.65	24.85
599.773	13.85
599.895	42.85
600.017	18.85
600.139	-1.15
600.262	3.85
600.384	11.85
600.506	15.85
600.628	31.85
600.751	34.85
600.873	-2.15
600.995	8.85
601.118	26.85
601.24	19.85
601.362	30.85
601.484	26.85
601.607	23.85
601.729	14.85
601.851	4.85
601.973	18.85
602.096	23.85
602.218	26.85
602.34	24.85
602.462	21.85
602.585	13.85
602.707	6.85
602.829	18.85
602.951	2.85
603.074	0.85
603.196	36.85
603.318	3.85
603.44	17.85
603.563	11.85
603.685	6.85
603.807	6.85
603.929	24.85
604.052	27.85
604.174	17.85
604.296	23.85
604.418	34.85
604.541	28.85
604.663	10.85
604.785	2.85
604.907	10.85
605.03	2.85
605.152	26.85
605.274	25.85
605.396	16.85
605.519	21.85
605.641	0.85
605.763	3.85
605.885	13.85
606.008	2.85
606.13	26.85
606.252	24.85
606.374	-6.15
606.496	5.85
606.619	0.85
606.741	15.85
606.863	31.85
606.985	27.85
607.108	17.85
607.23	15.85
607.352	10.85
607.474	17.85
607.596	16.85
607.719	3.85
607.841	24.85
607.963	12.85
608.085	-5.15
608.207	26.85
608.33	22.85
608.452	20.85
608.574	21.85
608.696	11.85
608.819	3.85
608.941	-3.15
609.063	-4.15
609.185	-2.15
609.307	20.85
609.43	23.85
609.552	19.85
609.674	-4.15
609.796	26.85
609.918	20.85
610.041	-3.15
610.163	20.85
610.285	10.85
610.407	21.85
610.529	-13.15
610.652	12.85
610.774	6.85
610.896	5.85
611.018	1.85
611.14	3.85
611.263	-11.15
611.385	-2.15
611.507	24.85
611.629	-2.15
611.751	14.85
611.873	31.85
611.996	13.85
612.118	16.85
612.24	-1.15
612.362	13.85
612.484	15.85
612.607	19.85
612.729	13.85
612.851	16.85
612.973	8.85
613.095	-10.15
613.218	14.85
613.34	32.85
613.462	20.85
613.584	9.85
613.706	-4.15
613.828	23.85
613.951	3.85
614.073	12.85
614.195	14.85
614.317	17.85
614.439	12.85
614.561	25.85
614.684	22.85
614.806	18.85
614.928	24.85
615.05	13.85
615.172	29.85
615.294	15.85
615.417	8.85
615.539	5.85
615.661	9.85
615.783	38.85
615.905	15.85
616.027	52.85
616.15	93.85
616.272	63.85
616.394	49.85
616.516	31.85
616.638	19.85
616.76	20.85
616.883	9.85
617.005	2.85
617.127	5.85
617.249	6.85
617.371	1.85
617.493	2.85
617.615	21.85
617.738	18.85
617.86	17.85
617.982	9.85
618.104	7.85
618.226	-1.15
618.348	-26.15
618.471	7.85
618.593	22.85
618.715	-12.15
618.837	12.85
618.959	15.85
619.081	29.85
619.203	14.85
619.326	16.85
619.448	10.85
619.57	26.85
619.692	11.85
619.814	24.85
619.936	14.85
620.058	24.85
620.181	1.85
620.303	1.85
620.425	13.85
620.547	9.85
620.669	3.85
620.791	16.85
620.913	23.85
621.036	7.85
621.158	4.85
621.28	17.85
621.402	-1.15
621.524	-13.15
621.646	10.85
621.768	-14.15
621.891	-11.15
622.013	7.85
622.135	1.85
622.257	9.85
622.379	6.85
622.501	17.85
622.623	15.85
622.745	2.85
622.868	4.85
622.99	21.85
623.112	-6.15
623.234	8.85
623.356	2.85
623.478	10.85
623.6	22.85
623.722	-2.15
623.845	19.85
623.967	1.85
624.089	12.85
624.211	-1.15
624.333	17.85
624.455	1.85
624.577	-1.15
624.699	12.85
624.822	10.85
624.944	16.85
625.066	17.85
625.188	11.85
625.31	2.85
625.432	29.85
625.554	17.85
625.676	23.85
625.799	13.85
625.921	21.85
626.043	14.85
626.165	10.85
626.287	1.85
626.409	27.85
626.531	4.85
626.653	15.85
626.775	8.85
626.898	23.85
627.02	11.85
627.142	7.85
627.264	8.85
627.386	1.85
627.508	2.85
627.63	4.85
627.752	22.85
627.874	8.85
627.997	10.85
628.119	29.85
628.241	21.85
628.363	23.85
628.485	-15.15
628.607	0.85
628.729	-9.15
628.851	-1.15
628.973	13.85
629.096	-6.15
629.218	4.85
629.34	3.85
629.462	-14.15
629.584	-13.15
629.706	6.85
629.828	16.85
629.95	10.85
630.072	14.85
630.195	30.85
630.317	13.85
630.439	0.85
630.561	11.85
630.683	1.85
630.805	12.85
630.927	23.85
631.049	-4.15
631.171	-5.15
631.293	0.85
631.416	20.85
631.538	6.85
631.66	15.85
631.782	27.85
631.904	27.85
632.026	8.85
632.148	17.85
632.27	9.85
632.392	16.85
632.514	4.85
632.637	0.85
632.759	0.85
632.881	2.85
633.003	-3.15
633.125	-3.15
633.247	7.85
633.369	-5.15
633.491	13.85
633.613	22.85
633.735	-1.15
633.858	19.85
633.98	-1.15
634.102	-10.15
634.224	6.85
634.346	2.85
634.468	11.85
634.59	6.85
634.712	23.85
634.834	23.85
634.956	-1.15
635.078	-13.15
635.201	0.85
635.323	11.85
635.445	2.85
635.567	-21.15
635.689	0.85
635.811	9.85
635.933	14.85
636.055	0.85
636.177	-3.15
636.299	24.85
636.421	16.85
636.544	4.85
636.666	30.85
636.788	7.85
636.91	14.85
637.032	17.85
637.154	19.85
637.276	31.85
637.398	14.85
637.52	9.85
637.642	4.85
637.764	6.85
637.887	12.85
638.009	0.85
638.131	12.85
638.253	-4.15
638.375	9.85
638.497	14.85
638.619	-1.15
638.741	12.85
638.863	-5.15
638.985	-5.15
639.107	5.85
639.23	3.85
639.352	12.85
639.474	7.85
639.596	-2.15
639.718	14.85
639.84	18.85
639.962	15.85
640.084	10.85
640.206	19.85
640.328	5.85
640.45	7.85
640.573	-1.15
640.695	-9.15
640.817	4.85
640.939	6.85
641.061	5.85
641.183	-10.15
641.305	-12.15
641.427	-12.15
641.549	6.85
641.671	5.85
641.793	4.85
641.915	19.85
642.038	18.85
642.16	25.85
642.282	-11.15
642.404	8.85
642.526	29.85
642.648	5.85
642.77	-2.15
642.892	0.85
643.014	10.85
643.136	-5.15
643.258	-4.15
643.381	20.85
643.503	44.85
643.625	25.85
643.747	8.85
643.869	24.85
643.991	24.85
644.113	7.85
644.235	2.85
644.357	-6.15
644.479	22.85
644.601	10.85
644.723	1.85
644.846	9.85
644.968	34.85
645.09	11.85
645.212	8.85
645.334	17.85
645.456	24.85
645.578	24.85
645.7	14.85
645.822	13.85
645.944	6.85
646.066	-7.15
646.188	12.85
646.311	28.85
646.433	3.85
646.555	38.85
646.677	42.85
646.799	26.85
646.921	14.85
647.043	49.85
647.165	-7.15
647.287	9.85
647.409	-6.15
647.531	25.85
647.654	-5.15
647.776	21.85
647.898	14.85
648.02	2.85
648.142	3.85
648.264	-2.15
648.386	8.85
648.508	-2.15
648.63	-7.15
648.752	18.85
648.874	20.85
648.997	9.85
649.119	27.85
649.241	4.85
649.363	25.85
649.485	24.85
649.607	-3.15
649.729	-7.15
649.851	18.85
649.973	10.85
650.095	38.85
650.217	-2.15
650.34	4.85
650.462	21.85
650.584	15.85
650.706	22.85
650.828	7.85
650.95	-5.15
651.072	8.85
651.194	-9.15
651.316	-3.15
651.438	5.85
651.56	-3.15
651.683	-7.15
651.805	14.85
651.927	7.85
652.049	4.85
652.171	-1.15
652.293	2.85
652.415	-5.15
652.537	10.85
652.659	5.85
652.781	19.85
652.903	7.85
653.026	13.85
653.148	-1.15
653.27	14.85
653.392	28.85
653.514	5.85
653.636	-1.15
653.758	22.85
653.88	13.85
654.002	-1.15
654.124	22.85
654.247	14.85
654.369	26.85
654.491	9.85
654.613	20.85
654.735	0.85
654.857	24.85
654.979	23.85
655.101	31.85
655.223	36.85
655.345	32.85
655.468	40.85
655.59	16.85
655.712	35.85
655.834	27.85
655.956	50.85
656.078	25.85
656.2	59.85
656.322	43.85
656.444	6.85
656.566	55.85
656.689	42.85
656.811	67.85
656.933	92.85
657.055	107.85
657.177	159.85
657.299	240.85
657.421	506.85
657.543	1858.85
657.665	12547.85
657.787	15174.85
657.91	15237.85
658.032	15663.85
658.154	4625.85
658.276	3435.85
658.398	1165.85
658.52	1040.85
658.642	485.85
658.764	585.85
658.886	271.85
659.009	399.85
659.131	214.85
659.253	307.85
659.375	161.85
659.497	252.85
659.619	134.85
659.741	197.85
659.863	96.85
659.985	171.85
660.108	98.85
660.23	144.85
660.352	89.85
660.474	145.85
660.596	78.85
660.718	128.85
660.84	64.85
660.962	118.85
661.084	30.85
661.207	103.85
661.329	55.85
661.451	94.85
661.573	58.85
661.695	111.85
661.817	49.85
661.939	88.85
662.061	61.85
662.184	72.85
662.306	21.85
662.428	64.85
662.55	30.85
662.672	60.85
662.794	46.85
662.916	68.85
663.038	25.85
663.161	72.85
663.283	24.85
663.405	58.85
663.527	22.85
663.649	65.85
663.771	26.85
663.893	39.85
664.015	21.85
664.138	41.85
664.26	27.85
664.382	38.85
664.504	27.85
664.626	29.85
664.748	26.85
664.87	40.85
664.992	42.85
665.115	57.85
665.237	22.85
665.359	30.85
665.481	20.85
665.603	47.85
665.725	34.85
665.847	21.85
665.97	9.85
666.092	49.85
666.214	34.85
666.336	52.85
666.458	29.85
666.58	49.85
666.702	13.85
666.825	32.85
666.947	27.85
667.069	40.85
667.191	20.85
667.313	48.85
667.435	7.85
667.557	0.85
667.68	6.85
667.802	35.85
667.924	27.85
668.046	38.85
668.168	23.85
668.29	55.85
668.412	17.85
668.535	24.85
668.657	24.85
668.779	34.85
668.901	17.85
669.023	35.85
669.145	10.85
669.267	41.85
669.39	23.85
669.512	25.85
669.634	25.85
669.756	29.85
669.878	14.85
670	39.85
670.123	8.85
670.245	36.85
670.367	13.85
670.489	31.85
670.611	16.85
670.733	12.85
670.856	-0.15
670.978	30.85
671.1	9.85
671.222	34.85
671.344	26.85
671.466	27.85
671.589	16.85
671.711	22.85
671.833	8.85
671.955	16.85
672.077	-0.15
672.199	40.85
672.322	38.85
672.444	35.85
672.566	28.85
672.688	32.85
672.81	16.85
672.932	19.85
673.055	21.85
673.177	30.85
673.299	9.85
673.421	16.85
673.543	15.85
673.665	26.85
673.788	10.85
673.91	6.85
674.032	0.85
674.154	31.85
674.276	19.85
674.399	10.85
674.521	11.85
674.643	19.85
674.765	1.85
674.887	19.85
675.009	14.85
675.132	21.85
675.254	25.85
675.376	25.85
675.498	16.85
675.62	32.85
675.743	-9.15
675.865	32.85
675.987	12.85
676.109	30.85
676.231	14.85
676.354	44.85
676.476	9.85
676.598	32.85
676.72	14.85
676.842	24.85
676.965	-5.15
677.087	33.85
677.209	12.85
677.331	26.85
677.453	17.85
677.576	33.85
677.698	18.85
677.82	20.85
677.942	9.85
678.064	4.85
678.187	26.85
678.309	18.85
678.431	12.85
678.553	20.85
678.675	23.85
678.798	12.85
678.92	13.85
679.042	13.85
679.164	6.85
679.286	20.85
679.409	17.85
679.531	-7.15
679.653	6.85
679.775	11.85
679.898	-5.15
680.02	4.85
680.142	-8.15
680.264	21.85
680.386	2.85
680.509	23.85
680.631	9.85
680.753	20.85
680.875	4.85
680.998	11.85
681.12	10.85
681.242	20.85
681.364	-4.15
681.486	22.85
681.609	5.85
681.731	-5.15
681.853	4.85
681.975	-4.15
682.098	21.85
682.22	48.85
682.342	17.85
682.464	28.85
682.587	16.85
682.709	20.85
682.831	5.85
682.953	-4.15
683.076	-5.15
683.198	23.85
683.32	10.85
683.442	10.85
683.565	-1.15
683.687	-3.15
683.809	10.85
683.931	-0.15
684.054	13.85
684.176	8.85
684.298	27.85
684.42	18.85
684.543	-1.15
684.665	3.85
684.787	9.85
684.909	13.85
685.032	16.85
685.154	-11.15
685.276	13.85
685.398	2.85
685.521	-9.15
685.643	15.85
685.765	10.85
685.887	1.85
686.01	5.85
686.132	2.85
686.254	0.85
686.377	29.85
686.499	4.85
686.621	18.85
686.743	15.85
686.866	23.85
686.988	43.85
687.11	24.85
687.232	-1.15
687.355	0.85
687.477	8.85
687.599	21.85
687.722	0.85
687.844	30.85
687.966	-1.15
688.088	13.85
688.211	37.85
688.333	23.85
688.455	7.85
688.578	15.85
688.7	17.85
688.822	6.85
688.944	0.85
689.067	40.85
689.189	14.85
689.311	-1.15
689.434	8.85
689.556	16.85
689.678	6.85
689.801	-3.15
689.923	11.85
690.045	26.85
690.167	26.85
690.29	40.85
690.412	24.85
690.534	18.85
690.657	10.85
690.779	8.85
690.901	22.85
691.024	5.85
691.146	3.85
691.268	-9.15
691.391	21.85
691.513	27.85
691.635	20.85
691.758	24.85
691.88	20.85
692.002	-4.15
692.125	-7.15
692.247	17.85
692.369	13.85
692.492	12.85
692.614	13.85
692.736	5.85
692.859	13.85
692.981	24.85
693.103	11.85
693.226	19.85
693.348	34.85
693.47	14.85
693.593	8.85
693.715	-11.15
693.837	-15.15
693.96	10.85
694.082	1.85
694.204	22.85
694.327	10.85
694.449	-5.15
694.571	7.85
694.694	5.85
694.816	13.85
694.938	2.85
695.061	13.85
695.183	10.85
695.305	-3.15
695.428	20.85
695.55	-9.15
695.672	-15.15
695.795	16.85
695.917	18.85
696.04	10.85
696.162	4.85
696.284	8.85
696.407	19.85
696.529	20.85
696.651	17.85
696.774	8.85
696.896	37.85
697.019	8.85
697.141	15.85
697.263	1.85
697.386	12.85
697.508	14.85
697.63	24.85
697.753	17.85
697.875	18.85
697.998	-0.15
698.12	16.85
698.242	22.85
698.365	12.85
698.487	25.85
698.61	22.85
698.732	12.85
698.854	41.85
698.977	17.85
699.099	17.85
699.221	0.85
699.344	6.85
699.466	5.85
699.589	8.85
699.711	-11.15
699.834	-4.15
699.956	-2.15
700.078	0.85
700.201	-24.15
700.323	18.85
700.446	6.85
700.568	-6.15
700.69	17.85
700.813	15.85
700.935	-2.15
701.058	16.85
701.18	27.85
701.302	7.85
701.425	5.85
701.547	18.85
701.67	0.85
701.792	18.85
701.915	-2.15
702.037	3.85
702.159	18.85
702.282	12.85
702.404	5.85
702.527	10.85
702.649	32.85
702.772	7.85
702.894	17.85
703.017	26.85
703.139	14.85
703.261	30.85
703.384	13.85
703.506	-5.15
703.629	-3.15
703.751	24.85
703.874	12.85
703.996	2.85
704.119	-5.15
704.241	24.85
704.364	-8.15
704.486	2.85
704.608	13.85
704.731	24.85
704.853	12.85
704.976	14.85
705.098	15.85
705.221	8.85
705.343	4.85
705.466	25.85
705.588	19.85
705.711	3.85
705.833	9.85
705.956	15.85
706.078	15.85
706.201	17.85
706.323	-2.15
706.446	-0.15
