Data from LowRes_H2_15_26_11_07_2024_HR4C61881__2__15-28-13-837.txt Node

Date: Thu Nov 07 15:28:13 EST 2024
User: crc00042
Spectrometer: HR4C6188
Trigger mode: 4
Integration Time (sec): 1.000000E-1
Scans to average: 1
Electric dark correction enabled: true
Nonlinearity correction enabled: false
Boxcar width: 0
XAxis mode: Wavelengths
Number of Pixels in Spectrum: 3648
>>>>>Begin Spectral Data<<<<<
245.66	-98.77
245.797	-98.77
245.934	-98.77
246.071	-64.77
246.208	11.23
246.344	14.23
246.481	-15.77
246.618	-5.77
246.755	23.23
246.892	-21.77
247.029	-5.77
247.165	-15.77
247.302	13.23
247.439	2.23
247.576	13.23
247.713	-11.77
247.849	20.23
247.986	-9.77
248.123	10.23
248.26	1.23
248.396	14.23
248.533	4.23
248.67	14.23
248.806	15.23
248.943	-16.77
249.08	-6.77
249.216	15.23
249.353	-11.77
249.49	-15.77
249.626	-1.77
249.763	2.23
249.9	-16.77
250.036	6.23
250.173	4.23
250.309	-1.77
250.446	0.23
250.582	-5.77
250.719	-7.77
250.856	-5.77
250.992	-17.77
251.129	-12.77
251.265	-4.77
251.402	1.23
251.538	-10.77
251.675	-9.77
251.811	21.23
251.948	22.23
252.084	0.23
252.221	-2.77
252.357	-14.77
252.493	19.23
252.63	10.23
252.766	0.23
252.903	7.23
253.039	-7.77
253.175	1.23
253.312	2.23
253.448	-3.77
253.585	-12.77
253.721	11.23
253.857	-8.77
253.994	13.23
254.13	-11.77
254.266	-13.77
254.403	-7.77
254.539	-24.77
254.675	-1.77
254.811	5.23
254.948	-0.77
255.084	-4.77
255.22	-8.77
255.356	-2.77
255.493	9.23
255.629	8.23
255.765	-5.77
255.901	14.23
256.037	5.23
256.174	0.23
256.31	-1.77
256.446	2.23
256.582	-2.77
256.718	24.23
256.854	-0.77
256.991	22.23
257.127	16.23
257.263	5.23
257.399	18.23
257.535	-11.77
257.671	7.23
257.807	-14.77
257.943	-23.77
258.079	4.23
258.215	-6.77
258.351	0.23
258.487	-2.77
258.623	24.23
258.759	-3.77
258.895	-9.77
259.031	2.23
259.167	-3.77
259.303	4.23
259.439	-12.77
259.575	-2.77
259.711	-4.77
259.847	-9.77
259.983	7.23
260.119	-19.77
260.255	-9.77
260.391	-4.77
260.527	12.23
260.663	9.23
260.799	13.23
260.934	-14.77
261.07	-20.77
261.206	-3.77
261.342	-12.77
261.478	6.23
261.614	15.23
261.749	4.23
261.885	1.23
262.021	0.23
262.157	3.23
262.293	0.23
262.428	-1.77
262.564	-6.77
262.7	-10.77
262.836	-4.77
262.971	11.23
263.107	11.23
263.243	17.23
263.378	-9.77
263.514	-12.77
263.65	-5.77
263.785	2.23
263.921	3.23
264.057	-1.77
264.192	13.23
264.328	7.23
264.464	-18.77
264.599	-3.77
264.735	10.23
264.871	-14.77
265.006	1.23
265.142	-9.77
265.277	6.23
265.413	9.23
265.548	14.23
265.684	8.23
265.819	-4.77
265.955	-8.77
266.091	-2.77
266.226	0.23
266.362	14.23
266.497	11.23
266.633	-3.77
266.768	-2.77
266.903	21.23
267.039	18.23
267.174	23.23
267.31	4.23
267.445	-10.77
267.581	-10.77
267.716	8.23
267.851	9.23
267.987	-6.77
268.122	16.23
268.258	-0.77
268.393	9.23
268.528	21.23
268.664	12.23
268.799	-13.77
268.934	1.23
269.07	-3.77
269.205	11.23
269.34	25.23
269.476	-2.77
269.611	-15.77
269.746	19.23
269.881	18.23
270.017	16.23
270.152	6.23
270.287	16.23
270.422	24.23
270.558	-6.77
270.693	-11.77
270.828	-6.77
270.963	-7.77
271.098	-2.77
271.234	6.23
271.369	21.23
271.504	11.23
271.639	-30.77
271.774	2.23
271.909	3.23
272.045	-7.77
272.18	-1.77
272.315	-14.77
272.45	3.23
272.585	-6.77
272.72	3.23
272.855	16.23
272.99	21.23
273.125	-8.77
273.26	-7.77
273.395	0.23
273.53	10.23
273.665	9.23
273.8	10.23
273.935	-7.77
274.07	0.23
274.205	-6.77
274.34	2.23
274.475	1.23
274.61	12.23
274.745	8.23
274.88	28.23
275.015	7.23
275.15	4.23
275.285	18.23
275.42	-7.77
275.555	8.23
275.69	-3.77
275.825	-7.77
275.959	13.23
276.094	3.23
276.229	12.23
276.364	-3.77
276.499	11.23
276.634	17.23
276.768	-2.77
276.903	-4.77
277.038	6.23
277.173	17.23
277.308	1.23
277.442	-3.77
277.577	-4.77
277.712	13.23
277.847	4.23
277.981	7.23
278.116	-11.77
278.251	-2.77
278.386	-6.77
278.52	21.23
278.655	8.23
278.79	11.23
278.924	6.23
279.059	9.23
279.194	-2.77
279.328	28.23
279.463	5.23
279.598	31.23
279.732	2.23
279.867	21.23
280.001	20.23
280.136	8.23
280.271	-0.77
280.405	14.23
280.54	10.23
280.674	-23.77
280.809	13.23
280.943	-5.77
281.078	-7.77
281.213	14.23
281.347	11.23
281.482	5.23
281.616	-5.77
281.751	-6.77
281.885	-15.77
282.02	11.23
282.154	10.23
282.288	-22.77
282.423	-10.77
282.557	-30.77
282.692	-2.77
282.826	23.23
282.961	6.23
283.095	11.23
283.229	8.23
283.364	-11.77
283.498	3.23
283.633	18.23
283.767	-1.77
283.901	7.23
284.036	25.23
284.17	3.23
284.304	-16.77
284.439	4.23
284.573	4.23
284.707	17.23
284.842	-0.77
284.976	-6.77
285.11	-12.77
285.244	17.23
285.379	34.23
285.513	5.23
285.647	19.23
285.781	3.23
285.916	17.23
286.05	-6.77
286.184	28.23
286.318	16.23
286.453	-15.77
286.587	1.23
286.721	-12.77
286.855	5.23
286.989	1.23
287.123	-5.77
287.258	-0.77
287.392	-1.77
287.526	8.23
287.66	-13.77
287.794	1.23
287.928	0.23
288.062	6.23
288.196	-10.77
288.33	7.23
288.464	20.23
288.598	14.23
288.733	-1.77
288.867	9.23
289.001	17.23
289.135	5.23
289.269	-15.77
289.403	0.23
289.537	-10.77
289.671	-4.77
289.805	-7.77
289.939	18.23
290.073	-15.77
290.207	-9.77
290.34	-3.77
290.474	16.23
290.608	1.23
290.742	-0.77
290.876	1.23
291.01	1.23
291.144	17.23
291.278	13.23
291.412	-2.77
291.546	-0.77
291.679	0.23
291.813	0.23
291.947	3.23
292.081	-16.77
292.215	4.23
292.349	6.23
292.482	0.23
292.616	0.23
292.75	-4.77
292.884	13.23
293.018	-7.77
293.151	-15.77
293.285	15.23
293.419	-3.77
293.553	0.23
293.686	-18.77
293.82	17.23
293.954	26.23
294.088	31.23
294.221	-8.77
294.355	-11.77
294.489	0.23
294.622	-6.77
294.756	-4.77
294.89	7.23
295.023	7.23
295.157	11.23
295.291	11.23
295.424	21.23
295.558	-4.77
295.691	12.23
295.825	-5.77
295.959	-6.77
296.092	6.23
296.226	-7.77
296.359	7.23
296.493	18.23
296.627	10.23
296.76	16.23
296.894	3.23
297.027	-13.77
297.161	0.23
297.294	-27.77
297.428	0.23
297.561	26.23
297.695	0.23
297.828	3.23
297.962	21.23
298.095	8.23
298.229	10.23
298.362	-21.77
298.495	-25.77
298.629	7.23
298.762	10.23
298.896	5.23
299.029	-11.77
299.162	0.23
299.296	4.23
299.429	-14.77
299.563	9.23
299.696	7.23
299.829	6.23
299.963	11.23
300.096	11.23
300.229	-1.77
300.363	-10.77
300.496	-0.77
300.629	-28.77
300.763	-7.77
300.896	13.23
301.029	14.23
301.162	20.23
301.296	-4.77
301.429	-3.77
301.562	-4.77
301.695	1.23
301.829	6.23
301.962	32.23
302.095	7.23
302.228	-6.77
302.362	10.23
302.495	-0.77
302.628	1.23
302.761	4.23
302.894	3.23
303.027	9.23
303.161	-7.77
303.294	-19.77
303.427	13.23
303.56	17.23
303.693	7.23
303.826	-6.77
303.959	-12.77
304.092	-0.77
304.225	-24.77
304.359	-22.77
304.492	17.23
304.625	4.23
304.758	-2.77
304.891	-14.77
305.024	-3.77
305.157	-10.77
305.29	-29.77
305.423	-4.77
305.556	13.23
305.689	24.23
305.822	-8.77
305.955	3.23
306.088	-3.77
306.221	-2.77
306.354	-5.77
306.487	-16.77
306.62	-21.77
306.752	-8.77
306.885	-1.77
307.018	7.23
307.151	3.23
307.284	21.23
307.417	-1.77
307.55	-2.77
307.683	-0.77
307.816	11.23
307.948	-3.77
308.081	8.23
308.214	6.23
308.347	18.23
308.48	-0.77
308.613	-6.77
308.745	25.23
308.878	-12.77
309.011	-0.77
309.144	-6.77
309.277	10.23
309.409	14.23
309.542	17.23
309.675	24.23
309.808	17.23
309.94	30.23
310.073	-15.77
310.206	-7.77
310.339	3.23
310.471	-28.77
310.604	17.23
310.737	-5.77
310.869	-5.77
311.002	10.23
311.135	5.23
311.267	-20.77
311.4	-7.77
311.533	28.23
311.665	3.23
311.798	11.23
311.93	9.23
312.063	-4.77
312.196	-14.77
312.328	2.23
312.461	5.23
312.593	1.23
312.726	10.23
312.859	8.23
312.991	5.23
313.124	-19.77
313.256	16.23
313.389	8.23
313.521	-4.77
313.654	-7.77
313.786	-11.77
313.919	-19.77
314.051	-11.77
314.184	-10.77
314.316	4.23
314.449	-14.77
314.581	3.23
314.714	-9.77
314.846	5.23
314.978	-14.77
315.111	-20.77
315.243	0.23
315.376	0.23
315.508	15.23
315.641	-7.77
315.773	15.23
315.905	-2.77
316.038	-2.77
316.17	-2.77
316.302	16.23
316.435	17.23
316.567	-6.77
316.699	19.23
316.832	-11.77
316.964	6.23
317.096	1.23
317.229	-2.77
317.361	-7.77
317.493	-17.77
317.625	-15.77
317.758	13.23
317.89	3.23
318.022	-6.77
318.155	6.23
318.287	12.23
318.419	10.23
318.551	-14.77
318.683	9.23
318.816	4.23
318.948	-4.77
319.08	-7.77
319.212	-4.77
319.344	-5.77
319.477	-6.77
319.609	10.23
319.741	11.23
319.873	7.23
320.005	3.23
320.137	-12.77
320.269	1.23
320.401	-7.77
320.534	0.23
320.666	-13.77
320.798	-8.77
320.93	0.23
321.062	-10.77
321.194	1.23
321.326	3.23
321.458	-11.77
321.59	-7.77
321.722	-16.77
321.854	-12.77
321.986	17.23
322.118	12.23
322.25	-9.77
322.382	-7.77
322.514	-20.77
322.646	-12.77
322.778	20.23
322.91	0.23
323.042	6.23
323.174	1.23
323.306	-3.77
323.438	-23.77
323.57	16.23
323.702	-3.77
323.834	1.23
323.966	-3.77
324.097	-5.77
324.229	7.23
324.361	8.23
324.493	10.23
324.625	-8.77
324.757	13.23
324.889	-1.77
325.021	18.23
325.152	18.23
325.284	9.23
325.416	-2.77
325.548	0.23
325.68	-7.77
325.811	35.23
325.943	7.23
326.075	-4.77
326.207	4.23
326.339	11.23
326.47	-6.77
326.602	13.23
326.734	21.23
326.866	7.23
326.997	-11.77
327.129	-0.77
327.261	-33.77
327.392	-3.77
327.524	5.23
327.656	-1.77
327.787	-2.77
327.919	-13.77
328.051	0.23
328.182	31.23
328.314	17.23
328.446	9.23
328.577	27.23
328.709	14.23
328.841	-13.77
328.972	2.23
329.104	-7.77
329.235	10.23
329.367	2.23
329.499	17.23
329.63	2.23
329.762	-12.77
329.893	-6.77
330.025	-8.77
330.156	-19.77
330.288	12.23
330.419	12.23
330.551	12.23
330.683	-4.77
330.814	-8.77
330.946	18.23
331.077	-15.77
331.208	-7.77
331.34	-3.77
331.471	-8.77
331.603	-6.77
331.734	-22.77
331.866	-2.77
331.997	-2.77
332.129	9.23
332.26	1.23
332.392	19.23
332.523	-0.77
332.654	-20.77
332.786	-10.77
332.917	-11.77
333.048	5.23
333.18	16.23
333.311	-15.77
333.443	-12.77
333.574	6.23
333.705	32.23
333.837	-6.77
333.968	4.23
334.099	14.23
334.231	21.23
334.362	4.23
334.493	3.23
334.624	16.23
334.756	10.23
334.887	7.23
335.018	13.23
335.15	12.23
335.281	-4.77
335.412	29.23
335.543	10.23
335.675	2.23
335.806	16.23
335.937	-11.77
336.068	11.23
336.199	38.23
336.331	-2.77
336.462	11.23
336.593	10.23
336.724	-12.77
336.855	5.23
336.986	0.23
337.118	8.23
337.249	14.23
337.38	17.23
337.511	9.23
337.642	24.23
337.773	-2.77
337.904	9.23
338.035	1.23
338.166	-4.77
338.298	11.23
338.429	-2.77
338.56	16.23
338.691	24.23
338.822	-0.77
338.953	6.23
339.084	17.23
339.215	18.23
339.346	13.23
339.477	-0.77
339.608	0.23
339.739	6.23
339.87	-9.77
340.001	4.23
340.132	3.23
340.263	7.23
340.394	8.23
340.525	9.23
340.656	-8.77
340.787	-26.77
340.918	12.23
341.049	7.23
341.179	1.23
341.31	4.23
341.441	1.23
341.572	23.23
341.703	10.23
341.834	-12.77
341.965	16.23
342.096	5.23
342.227	-1.77
342.357	-3.77
342.488	-5.77
342.619	2.23
342.75	-8.77
342.881	-6.77
343.012	25.23
343.142	20.23
343.273	4.23
343.404	-7.77
343.535	25.23
343.666	18.23
343.796	12.23
343.927	-3.77
344.058	32.23
344.189	11.23
344.319	15.23
344.45	5.23
344.581	6.23
344.712	-12.77
344.842	-3.77
344.973	4.23
345.104	15.23
345.234	4.23
345.365	-17.77
345.496	2.23
345.626	17.23
345.757	16.23
345.888	-9.77
346.018	3.23
346.149	-6.77
346.28	8.23
346.41	-18.77
346.541	5.23
346.672	-8.77
346.802	2.23
346.933	-6.77
347.063	2.23
347.194	-2.77
347.325	24.23
347.455	23.23
347.586	10.23
347.716	-8.77
347.847	2.23
347.977	-4.77
348.108	16.23
348.238	-2.77
348.369	6.23
348.499	-2.77
348.63	-3.77
348.76	4.23
348.891	5.23
349.021	16.23
349.152	11.23
349.282	23.23
349.413	-2.77
349.543	19.23
349.674	-12.77
349.804	11.23
349.935	0.23
350.065	-4.77
350.196	8.23
350.326	17.23
350.456	4.23
350.587	39.23
350.717	13.23
350.848	20.23
350.978	14.23
351.108	-27.77
351.239	23.23
351.369	0.23
351.499	12.23
351.63	-6.77
351.76	11.23
351.89	-13.77
352.021	7.23
352.151	-5.77
352.281	5.23
352.412	10.23
352.542	5.23
352.672	1.23
352.803	11.23
352.933	-2.77
353.063	8.23
353.193	14.23
353.324	-3.77
353.454	-1.77
353.584	25.23
353.714	-6.77
353.845	-3.77
353.975	-9.77
354.105	-4.77
354.235	-3.77
354.365	2.23
354.496	-1.77
354.626	-7.77
354.756	17.23
354.886	2.23
355.016	5.23
355.146	-12.77
355.277	4.23
355.407	-5.77
355.537	17.23
355.667	29.23
355.797	6.23
355.927	-15.77
356.057	-3.77
356.187	6.23
356.318	-8.77
356.448	-0.77
356.578	-18.77
356.708	4.23
356.838	7.23
356.968	-4.77
357.098	-2.77
357.228	5.23
357.358	-5.77
357.488	-5.77
357.618	14.23
357.748	19.23
357.878	3.23
358.008	-5.77
358.138	-1.77
358.268	6.23
358.398	16.23
358.528	-18.77
358.658	-2.77
358.788	2.23
358.918	8.23
359.048	13.23
359.178	14.23
359.308	16.23
359.438	11.23
359.568	9.23
359.698	-6.77
359.827	12.23
359.957	1.23
360.087	-11.77
360.217	-6.77
360.347	-2.77
360.477	8.23
360.607	5.23
360.737	13.23
360.866	-12.77
360.996	-20.77
361.126	-3.77
361.256	21.23
361.386	22.23
361.516	16.23
361.645	-12.77
361.775	0.23
361.905	-15.77
362.035	9.23
362.165	12.23
362.294	12.23
362.424	6.23
362.554	9.23
362.684	-8.77
362.813	9.23
362.943	37.23
363.073	7.23
363.203	5.23
363.332	-6.77
363.462	-4.77
363.592	-15.77
363.721	-21.77
363.851	-10.77
363.981	17.23
364.111	-4.77
364.24	-16.77
364.37	14.23
364.5	26.23
364.629	-2.77
364.759	-14.77
364.888	-10.77
365.018	10.23
365.148	11.23
365.277	13.23
365.407	10.23
365.537	0.23
365.666	-3.77
365.796	6.23
365.925	5.23
366.055	0.23
366.184	-11.77
366.314	-12.77
366.444	4.23
366.573	21.23
366.703	-1.77
366.832	19.23
366.962	-0.77
367.091	10.23
367.221	9.23
367.35	4.23
367.48	44.23
367.609	4.23
367.739	8.23
367.868	-24.77
367.998	11.23
368.127	13.23
368.257	14.23
368.386	25.23
368.516	6.23
368.645	12.23
368.775	-0.77
368.904	13.23
369.033	-6.77
369.163	3.23
369.292	8.23
369.422	25.23
369.551	10.23
369.68	17.23
369.81	16.23
369.939	-0.77
370.069	21.23
370.198	13.23
370.327	-5.77
370.457	-0.77
370.586	13.23
370.715	8.23
370.845	-4.77
370.974	11.23
371.103	28.23
371.233	20.23
371.362	25.23
371.491	-5.77
371.621	9.23
371.75	5.23
371.879	-13.77
372.008	16.23
372.138	3.23
372.267	27.23
372.396	13.23
372.525	12.23
372.655	-11.77
372.784	-3.77
372.913	0.23
373.042	16.23
373.172	23.23
373.301	-0.77
373.43	1.23
373.559	4.23
373.688	18.23
373.818	14.23
373.947	5.23
374.076	2.23
374.205	16.23
374.334	4.23
374.463	-3.77
374.593	12.23
374.722	22.23
374.851	17.23
374.98	4.23
375.109	-0.77
375.238	22.23
375.367	29.23
375.496	-22.77
375.625	-11.77
375.755	13.23
375.884	19.23
376.013	17.23
376.142	-7.77
376.271	-9.77
376.4	11.23
376.529	3.23
376.658	2.23
376.787	11.23
376.916	12.23
377.045	17.23
377.174	7.23
377.303	8.23
377.432	15.23
377.561	8.23
377.69	-0.77
377.819	22.23
377.948	-8.77
378.077	-10.77
378.206	2.23
378.335	-2.77
378.464	4.23
378.593	19.23
378.722	-10.77
378.851	-3.77
378.98	7.23
379.108	-9.77
379.237	-8.77
379.366	10.23
379.495	5.23
379.624	6.23
379.753	7.23
379.882	4.23
380.011	11.23
380.14	-7.77
380.268	-1.77
380.397	-2.77
380.526	24.23
380.655	-10.77
380.784	-37.77
380.913	-3.77
381.041	13.23
381.17	-11.77
381.299	-6.77
381.428	3.23
381.557	5.23
381.685	-7.77
381.814	9.23
381.943	16.23
382.072	-5.77
382.2	-8.77
382.329	6.23
382.458	6.23
382.587	35.23
382.715	19.23
382.844	23.23
382.973	12.23
383.102	19.23
383.23	-0.77
383.359	-9.77
383.488	15.23
383.616	-6.77
383.745	-21.77
383.874	17.23
384.003	4.23
384.131	-12.77
384.26	-1.77
384.389	5.23
384.517	8.23
384.646	-6.77
384.774	0.23
384.903	25.23
385.032	12.23
385.16	8.23
385.289	-7.77
385.418	2.23
385.546	8.23
385.675	18.23
385.803	-4.77
385.932	6.23
386.06	-11.77
386.189	-4.77
386.318	-16.77
386.446	-14.77
386.575	4.23
386.703	19.23
386.832	5.23
386.96	-13.77
387.089	23.23
387.217	7.23
387.346	3.23
387.474	-8.77
387.603	5.23
387.731	4.23
387.86	19.23
387.988	3.23
388.117	18.23
388.245	21.23
388.374	7.23
388.502	14.23
388.631	2.23
388.759	-10.77
388.888	20.23
389.016	-4.77
389.144	7.23
389.273	8.23
389.401	-5.77
389.53	-10.77
389.658	9.23
389.786	-23.77
389.915	-16.77
390.043	-13.77
390.172	-6.77
390.3	9.23
390.428	15.23
390.557	4.23
390.685	13.23
390.813	16.23
390.942	29.23
391.07	15.23
391.198	-5.77
391.327	-5.77
391.455	-19.77
391.583	13.23
391.712	23.23
391.84	14.23
391.968	16.23
392.096	1.23
392.225	-8.77
392.353	29.23
392.481	3.23
392.609	28.23
392.738	12.23
392.866	26.23
392.994	3.23
393.122	22.23
393.251	5.23
393.379	-3.77
393.507	10.23
393.635	0.23
393.764	1.23
393.892	9.23
394.02	-3.77
394.148	3.23
394.276	9.23
394.404	22.23
394.533	-1.77
394.661	16.23
394.789	12.23
394.917	26.23
395.045	2.23
395.173	6.23
395.302	-1.77
395.43	3.23
395.558	26.23
395.686	17.23
395.814	21.23
395.942	-3.77
396.07	0.23
396.198	0.23
396.326	1.23
396.454	12.23
396.582	6.23
396.711	-0.77
396.839	15.23
396.967	16.23
397.095	5.23
397.223	22.23
397.351	16.23
397.479	28.23
397.607	11.23
397.735	15.23
397.863	4.23
397.991	-2.77
398.119	-7.77
398.247	16.23
398.375	-6.77
398.503	0.23
398.631	20.23
398.759	3.23
398.887	11.23
399.015	-3.77
399.143	-18.77
399.271	1.23
399.399	5.23
399.526	7.23
399.654	19.23
399.782	-15.77
399.91	19.23
400.038	33.23
400.166	5.23
400.294	-3.77
400.422	-16.77
400.55	0.23
400.678	9.23
400.805	-8.77
400.933	14.23
401.061	-4.77
401.189	8.23
401.317	-2.77
401.445	25.23
401.573	15.23
401.7	12.23
401.828	-5.77
401.956	-23.77
402.084	9.23
402.212	9.23
402.34	18.23
402.467	13.23
402.595	9.23
402.723	-5.77
402.851	12.23
402.978	2.23
403.106	20.23
403.234	-2.77
403.362	26.23
403.489	-1.77
403.617	2.23
403.745	-0.77
403.873	-7.77
404	23.23
404.128	10.23
404.256	8.23
404.384	23.23
404.511	3.23
404.639	-4.77
404.767	-1.77
404.894	10.23
405.022	11.23
405.15	22.23
405.277	1.23
405.405	-4.77
405.533	8.23
405.66	8.23
405.788	-10.77
405.916	-10.77
406.043	-4.77
406.171	2.23
406.299	10.23
406.426	19.23
406.554	11.23
406.681	23.23
406.809	3.23
406.937	10.23
407.064	-8.77
407.192	16.23
407.319	2.23
407.447	10.23
407.574	35.23
407.702	-1.77
407.83	4.23
407.957	-10.77
408.085	13.23
408.212	6.23
408.34	16.23
408.467	16.23
408.595	9.23
408.722	16.23
408.85	13.23
408.977	17.23
409.105	14.23
409.232	19.23
409.36	21.23
409.487	14.23
409.615	35.23
409.742	23.23
409.87	45.23
409.997	40.23
410.125	35.23
410.252	70.23
410.379	64.23
410.507	27.23
410.634	1.23
410.762	-0.77
410.889	12.23
411.017	11.23
411.144	24.23
411.271	-6.77
411.399	7.23
411.526	9.23
411.653	24.23
411.781	21.23
411.908	26.23
412.036	16.23
412.163	22.23
412.29	19.23
412.418	8.23
412.545	19.23
412.672	-14.77
412.8	21.23
412.927	-3.77
413.054	12.23
413.182	6.23
413.309	2.23
413.436	2.23
413.564	2.23
413.691	-0.77
413.818	17.23
413.945	-14.77
414.073	4.23
414.2	8.23
414.327	13.23
414.454	23.23
414.582	32.23
414.709	-2.77
414.836	2.23
414.963	10.23
415.091	-1.77
415.218	0.23
415.345	3.23
415.472	9.23
415.6	-6.77
415.727	23.23
415.854	7.23
415.981	0.23
416.108	0.23
416.236	15.23
416.363	6.23
416.49	-5.77
416.617	21.23
416.744	27.23
416.871	3.23
416.998	-20.77
417.126	0.23
417.253	-6.77
417.38	1.23
417.507	-3.77
417.634	10.23
417.761	16.23
417.888	23.23
418.015	11.23
418.143	41.23
418.27	36.23
418.397	9.23
418.524	4.23
418.651	2.23
418.778	17.23
418.905	42.23
419.032	22.23
419.159	23.23
419.286	8.23
419.413	4.23
419.54	13.23
419.667	-4.77
419.794	-6.77
419.921	12.23
420.048	4.23
420.175	22.23
420.302	2.23
420.429	14.23
420.556	-0.77
420.683	1.23
420.81	-6.77
420.937	11.23
421.064	35.23
421.191	4.23
421.318	18.23
421.445	36.23
421.572	-8.77
421.699	12.23
421.826	11.23
421.953	13.23
422.08	3.23
422.207	-17.77
422.334	-9.77
422.461	30.23
422.588	-1.77
422.714	12.23
422.841	34.23
422.968	19.23
423.095	2.23
423.222	-0.77
423.349	6.23
423.476	15.23
423.603	1.23
423.729	-8.77
423.856	4.23
423.983	14.23
424.11	3.23
424.237	13.23
424.364	-0.77
424.491	5.23
424.617	-9.77
424.744	7.23
424.871	9.23
424.998	6.23
425.125	-6.77
425.251	5.23
425.378	-14.77
425.505	14.23
425.632	9.23
425.758	-15.77
425.885	10.23
426.012	25.23
426.139	36.23
426.266	0.23
426.392	11.23
426.519	14.23
426.646	12.23
426.772	23.23
426.899	2.23
427.026	21.23
427.153	20.23
427.279	19.23
427.406	12.23
427.533	-6.77
427.659	21.23
427.786	-0.77
427.913	25.23
428.039	21.23
428.166	8.23
428.293	18.23
428.419	23.23
428.546	7.23
428.673	-21.77
428.799	4.23
428.926	-0.77
429.053	26.23
429.179	19.23
429.306	6.23
429.433	37.23
429.559	36.23
429.686	-8.77
429.812	0.23
429.939	6.23
430.066	3.23
430.192	-3.77
430.319	12.23
430.445	4.23
430.572	13.23
430.699	7.23
430.825	-6.77
430.952	7.23
431.078	16.23
431.205	15.23
431.331	1.23
431.458	12.23
431.584	12.23
431.711	1.23
431.837	-10.77
431.964	-6.77
432.09	3.23
432.217	-21.77
432.343	3.23
432.47	19.23
432.596	11.23
432.723	-5.77
432.849	0.23
432.976	6.23
433.102	6.23
433.229	-8.77
433.355	36.23
433.482	65.23
433.608	141.23
433.735	144.23
433.861	119.23
433.987	140.23
434.114	221.23
434.24	196.23
434.367	68.23
434.493	17.23
434.62	20.23
434.746	28.23
434.872	9.23
434.999	11.23
435.125	3.23
435.252	1.23
435.378	2.23
435.504	-4.77
435.631	16.23
435.757	19.23
435.883	23.23
436.01	17.23
436.136	-0.77
436.262	21.23
436.389	-0.77
436.515	19.23
436.641	15.23
436.768	4.23
436.894	19.23
437.02	19.23
437.147	27.23
437.273	9.23
437.399	-9.77
437.526	4.23
437.652	2.23
437.778	23.23
437.904	-5.77
438.031	0.23
438.157	2.23
438.283	13.23
438.409	0.23
438.536	-11.77
438.662	10.23
438.788	11.23
438.914	15.23
439.041	15.23
439.167	23.23
439.293	15.23
439.419	22.23
439.546	31.23
439.672	29.23
439.798	14.23
439.924	16.23
440.05	19.23
440.177	8.23
440.303	12.23
440.429	10.23
440.555	16.23
440.681	7.23
440.807	23.23
440.934	28.23
441.06	19.23
441.186	1.23
441.312	11.23
441.438	25.23
441.564	29.23
441.69	19.23
441.816	26.23
441.943	0.23
442.069	8.23
442.195	12.23
442.321	20.23
442.447	4.23
442.573	-8.77
442.699	1.23
442.825	-0.77
442.951	14.23
443.077	6.23
443.203	26.23
443.33	3.23
443.456	-16.77
443.582	13.23
443.708	4.23
443.834	9.23
443.96	3.23
444.086	-7.77
444.212	14.23
444.338	23.23
444.464	28.23
444.59	28.23
444.716	0.23
444.842	-4.77
444.968	-9.77
445.094	-0.77
445.22	-2.77
445.346	14.23
445.472	16.23
445.598	7.23
445.724	10.23
445.85	24.23
445.976	9.23
446.102	11.23
446.228	27.23
446.354	23.23
446.48	19.23
446.605	9.23
446.731	-8.77
446.857	4.23
446.983	8.23
447.109	11.23
447.235	5.23
447.361	-1.77
447.487	-2.77
447.613	15.23
447.739	7.23
447.865	23.23
447.99	-10.77
448.116	12.23
448.242	2.23
448.368	6.23
448.494	3.23
448.62	20.23
448.746	9.23
448.872	16.23
448.997	7.23
449.123	23.23
449.249	17.23
449.375	27.23
449.501	-5.77
449.627	-14.77
449.752	15.23
449.878	-7.77
450.004	-15.77
450.13	2.23
450.256	15.23
450.381	6.23
450.507	17.23
450.633	5.23
450.759	5.23
450.884	-8.77
451.01	14.23
451.136	-7.77
451.262	6.23
451.388	0.23
451.513	1.23
451.639	0.23
451.765	12.23
451.89	20.23
452.016	16.23
452.142	10.23
452.268	19.23
452.393	4.23
452.519	-6.77
452.645	17.23
452.771	5.23
452.896	10.23
453.022	-21.77
453.148	16.23
453.273	17.23
453.399	22.23
453.525	3.23
453.65	9.23
453.776	18.23
453.902	10.23
454.027	28.23
454.153	11.23
454.279	22.23
454.404	9.23
454.53	28.23
454.656	30.23
454.781	9.23
454.907	10.23
455.032	19.23
455.158	21.23
455.284	36.23
455.409	22.23
455.535	12.23
455.66	35.23
455.786	-0.77
455.912	9.23
456.037	-8.77
456.163	9.23
456.288	19.23
456.414	3.23
456.539	-17.77
456.665	26.23
456.791	5.23
456.916	-7.77
457.042	2.23
457.167	9.23
457.293	15.23
457.418	15.23
457.544	6.23
457.669	-9.77
457.795	2.23
457.92	2.23
458.046	23.23
458.171	11.23
458.297	9.23
458.422	5.23
458.548	4.23
458.673	17.23
458.799	16.23
458.924	-6.77
459.05	17.23
459.175	12.23
459.301	0.23
459.426	9.23
459.552	12.23
459.677	-12.77
459.803	30.23
459.928	22.23
460.053	29.23
460.179	29.23
460.304	33.23
460.43	-15.77
460.555	-18.77
460.681	13.23
460.806	7.23
460.931	23.23
461.057	17.23
461.182	7.23
461.308	29.23
461.433	28.23
461.558	12.23
461.684	27.23
461.809	11.23
461.934	1.23
462.06	20.23
462.185	5.23
462.311	7.23
462.436	16.23
462.561	5.23
462.687	15.23
462.812	0.23
462.937	-5.77
463.063	1.23
463.188	-3.77
463.313	14.23
463.439	7.23
463.564	8.23
463.689	27.23
463.814	14.23
463.94	1.23
464.065	18.23
464.19	31.23
464.316	-8.77
464.441	1.23
464.566	-6.77
464.692	7.23
464.817	20.23
464.942	9.23
465.067	-9.77
465.193	-19.77
465.318	-2.77
465.443	-6.77
465.568	-3.77
465.694	13.23
465.819	22.23
465.944	2.23
466.069	1.23
466.194	19.23
466.32	12.23
466.445	15.23
466.57	14.23
466.695	9.23
466.82	9.23
466.946	24.23
467.071	22.23
467.196	17.23
467.321	11.23
467.446	6.23
467.572	-8.77
467.697	-6.77
467.822	15.23
467.947	24.23
468.072	8.23
468.197	3.23
468.323	6.23
468.448	3.23
468.573	19.23
468.698	6.23
468.823	11.23
468.948	-16.77
469.073	5.23
469.198	13.23
469.324	9.23
469.449	4.23
469.574	22.23
469.699	17.23
469.824	14.23
469.949	17.23
470.074	15.23
470.199	24.23
470.324	15.23
470.449	7.23
470.574	19.23
470.7	21.23
470.825	12.23
470.95	37.23
471.075	-5.77
471.2	14.23
471.325	15.23
471.45	14.23
471.575	6.23
471.7	22.23
471.825	-6.77
471.95	1.23
472.075	-4.77
472.2	-0.77
472.325	12.23
472.45	6.23
472.575	-11.77
472.7	-2.77
472.825	41.23
472.95	13.23
473.075	-0.77
473.2	6.23
473.325	-1.77
473.45	-8.77
473.575	-11.77
473.7	18.23
473.825	7.23
473.95	22.23
474.075	32.23
474.2	9.23
474.325	-7.77
474.45	11.23
474.574	-0.77
474.699	18.23
474.824	29.23
474.949	11.23
475.074	-2.77
475.199	24.23
475.324	36.23
475.449	19.23
475.574	6.23
475.699	15.23
475.824	23.23
475.949	9.23
476.073	0.23
476.198	29.23
476.323	19.23
476.448	10.23
476.573	4.23
476.698	5.23
476.823	-0.77
476.947	21.23
477.072	3.23
477.197	2.23
477.322	-10.77
477.447	8.23
477.572	8.23
477.697	9.23
477.821	9.23
477.946	24.23
478.071	11.23
478.196	17.23
478.321	8.23
478.445	-8.77
478.57	2.23
478.695	16.23
478.82	19.23
478.945	20.23
479.069	-11.77
479.194	-0.77
479.319	16.23
479.444	33.23
479.569	14.23
479.693	21.23
479.818	29.23
479.943	26.23
480.068	-0.77
480.192	17.23
480.317	25.23
480.442	21.23
480.567	8.23
480.691	6.23
480.816	16.23
480.941	9.23
481.066	10.23
481.19	22.23
481.315	36.23
481.44	3.23
481.564	-0.77
481.689	16.23
481.814	23.23
481.938	8.23
482.063	22.23
482.188	26.23
482.313	42.23
482.437	5.23
482.562	25.23
482.687	17.23
482.811	27.23
482.936	18.23
483.061	28.23
483.185	18.23
483.31	19.23
483.435	21.23
483.559	14.23
483.684	14.23
483.808	39.23
483.933	10.23
484.058	5.23
484.182	15.23
484.307	21.23
484.432	27.23
484.556	28.23
484.681	22.23
484.805	26.23
484.93	32.23
485.055	57.23
485.179	73.23
485.304	122.23
485.428	360.23
485.553	1240.23
485.678	1739.23
485.802	1644.23
485.927	1797.23
486.051	2626.23
486.176	1626.23
486.3	453.23
486.425	167.23
486.549	85.23
486.674	61.23
486.799	36.23
486.923	26.23
487.048	28.23
487.172	16.23
487.297	10.23
487.421	31.23
487.546	14.23
487.67	36.23
487.795	22.23
487.919	31.23
488.044	14.23
488.168	26.23
488.293	12.23
488.417	13.23
488.542	8.23
488.666	28.23
488.791	11.23
488.915	11.23
489.04	18.23
489.164	32.23
489.289	34.23
489.413	2.23
489.538	27.23
489.662	29.23
489.786	17.23
489.911	28.23
490.035	14.23
490.16	9.23
490.284	7.23
490.409	1.23
490.533	23.23
490.658	50.23
490.782	20.23
490.906	9.23
491.031	11.23
491.155	20.23
491.28	2.23
491.404	-3.77
491.528	32.23
491.653	10.23
491.777	20.23
491.902	-5.77
492.026	25.23
492.15	16.23
492.275	38.23
492.399	24.23
492.524	-0.77
492.648	25.23
492.772	4.23
492.897	18.23
493.021	23.23
493.145	28.23
493.27	39.23
493.394	6.23
493.518	12.23
493.643	11.23
493.767	18.23
493.891	2.23
494.016	-5.77
494.14	9.23
494.264	11.23
494.389	33.23
494.513	13.23
494.637	2.23
494.762	14.23
494.886	25.23
495.01	26.23
495.134	28.23
495.259	19.23
495.383	13.23
495.507	-2.77
495.632	32.23
495.756	27.23
495.88	28.23
496.004	15.23
496.129	21.23
496.253	16.23
496.377	13.23
496.501	24.23
496.626	-3.77
496.75	22.23
496.874	5.23
496.998	-2.77
497.123	37.23
497.247	13.23
497.371	-3.77
497.495	10.23
497.62	30.23
497.744	5.23
497.868	10.23
497.992	2.23
498.116	34.23
498.241	20.23
498.365	14.23
498.489	5.23
498.613	38.23
498.737	20.23
498.862	19.23
498.986	4.23
499.11	13.23
499.234	-0.77
499.358	12.23
499.482	-5.77
499.607	18.23
499.731	21.23
499.855	25.23
499.979	-1.77
500.103	15.23
500.227	28.23
500.351	17.23
500.476	9.23
500.6	-12.77
500.724	7.23
500.848	14.23
500.972	9.23
501.096	13.23
501.22	33.23
501.344	-4.77
501.469	14.23
501.593	19.23
501.717	25.23
501.841	32.23
501.965	26.23
502.089	-7.77
502.213	2.23
502.337	8.23
502.461	-17.77
502.585	0.23
502.709	9.23
502.834	8.23
502.958	5.23
503.082	14.23
503.206	4.23
503.33	25.23
503.454	24.23
503.578	33.23
503.702	6.23
503.826	5.23
503.95	18.23
504.074	24.23
504.198	6.23
504.322	-6.77
504.446	10.23
504.57	12.23
504.694	3.23
504.818	5.23
504.942	34.23
505.066	24.23
505.19	-2.77
505.314	8.23
505.438	18.23
505.562	17.23
505.686	17.23
505.81	5.23
505.934	31.23
506.058	17.23
506.182	21.23
506.306	28.23
506.43	13.23
506.554	9.23
506.678	1.23
506.802	12.23
506.926	16.23
507.05	17.23
507.174	10.23
507.298	21.23
507.422	15.23
507.546	22.23
507.67	12.23
507.794	-5.77
507.918	5.23
508.042	16.23
508.165	8.23
508.289	7.23
508.413	16.23
508.537	-4.77
508.661	9.23
508.785	14.23
508.909	8.23
509.033	5.23
509.157	1.23
509.281	-2.77
509.405	15.23
509.528	33.23
509.652	28.23
509.776	-1.77
509.9	42.23
510.024	18.23
510.148	4.23
510.272	33.23
510.396	22.23
510.519	10.23
510.643	9.23
510.767	11.23
510.891	19.23
511.015	15.23
511.139	9.23
511.263	30.23
511.386	16.23
511.51	-2.77
511.634	-1.77
511.758	7.23
511.882	4.23
512.006	12.23
512.129	26.23
512.253	43.23
512.377	2.23
512.501	17.23
512.625	13.23
512.748	8.23
512.872	10.23
512.996	15.23
513.12	5.23
513.244	14.23
513.367	35.23
513.491	9.23
513.615	6.23
513.739	0.23
513.862	23.23
513.986	25.23
514.11	7.23
514.234	-4.77
514.358	17.23
514.481	18.23
514.605	-2.77
514.729	13.23
514.853	36.23
514.976	6.23
515.1	17.23
515.224	17.23
515.348	-0.77
515.471	-1.77
515.595	15.23
515.719	7.23
515.842	21.23
515.966	7.23
516.09	33.23
516.214	-4.77
516.337	19.23
516.461	20.23
516.585	10.23
516.708	6.23
516.832	25.23
516.956	12.23
517.08	13.23
517.203	-6.77
517.327	36.23
517.451	22.23
517.574	47.23
517.698	13.23
517.822	29.23
517.945	20.23
518.069	20.23
518.193	47.23
518.316	17.23
518.44	16.23
518.564	33.23
518.687	11.23
518.811	17.23
518.935	68.23
519.058	26.23
519.182	34.23
519.306	32.23
519.429	27.23
519.553	49.23
519.676	34.23
519.8	5.23
519.924	4.23
520.047	1.23
520.171	6.23
520.294	1.23
520.418	18.23
520.542	23.23
520.665	29.23
520.789	18.23
520.913	-9.77
521.036	-17.77
521.16	13.23
521.283	0.23
521.407	8.23
521.53	-17.77
521.654	5.23
521.778	31.23
521.901	21.23
522.025	3.23
522.148	-5.77
522.272	12.23
522.395	10.23
522.519	18.23
522.643	2.23
522.766	-8.77
522.89	0.23
523.013	22.23
523.137	-11.77
523.26	1.23
523.384	3.23
523.507	14.23
523.631	15.23
523.754	3.23
523.878	16.23
524.002	5.23
524.125	9.23
524.249	10.23
524.372	25.23
524.496	19.23
524.619	9.23
524.743	10.23
524.866	9.23
524.99	19.23
525.113	11.23
525.237	28.23
525.36	26.23
525.484	7.23
525.607	-8.77
525.731	6.23
525.854	21.23
525.978	24.23
526.101	5.23
526.224	5.23
526.348	17.23
526.471	20.23
526.595	23.23
526.718	15.23
526.842	-2.77
526.965	24.23
527.089	-0.77
527.212	14.23
527.336	2.23
527.459	17.23
527.582	10.23
527.706	12.23
527.829	11.23
527.953	12.23
528.076	-19.77
528.2	-0.77
528.323	27.23
528.446	11.23
528.57	12.23
528.693	30.23
528.817	4.23
528.94	18.23
529.064	38.23
529.187	25.23
529.31	-2.77
529.434	-11.77
529.557	-6.77
529.68	-1.77
529.804	7.23
529.927	18.23
530.051	-6.77
530.174	3.23
530.297	15.23
530.421	19.23
530.544	13.23
530.668	0.23
530.791	6.23
530.914	4.23
531.038	6.23
531.161	4.23
531.284	13.23
531.408	-0.77
531.531	-2.77
531.654	15.23
531.778	4.23
531.901	-1.77
532.024	12.23
532.148	6.23
532.271	-4.77
532.394	0.23
532.518	34.23
532.641	19.23
532.764	31.23
532.888	29.23
533.011	-11.77
533.134	-6.77
533.258	22.23
533.381	0.23
533.504	25.23
533.628	3.23
533.751	25.23
533.874	0.23
533.997	3.23
534.121	-0.77
534.244	4.23
534.367	3.23
534.491	16.23
534.614	18.23
534.737	19.23
534.86	11.23
534.984	1.23
535.107	-2.77
535.23	18.23
535.354	10.23
535.477	-13.77
535.6	4.23
535.723	5.23
535.847	3.23
535.97	-2.77
536.093	0.23
536.216	10.23
536.34	11.23
536.463	-6.77
536.586	3.23
536.709	19.23
536.833	19.23
536.956	16.23
537.079	16.23
537.202	19.23
537.325	-4.77
537.449	3.23
537.572	18.23
537.695	7.23
537.818	10.23
537.941	-3.77
538.065	11.23
538.188	15.23
538.311	6.23
538.434	21.23
538.558	10.23
538.681	16.23
538.804	10.23
538.927	8.23
539.05	22.23
539.173	-7.77
539.297	-3.77
539.42	8.23
539.543	13.23
539.666	15.23
539.789	22.23
539.913	10.23
540.036	23.23
540.159	-0.77
540.282	-12.77
540.405	-20.77
540.528	1.23
540.651	25.23
540.775	10.23
540.898	13.23
541.021	25.23
541.144	21.23
541.267	12.23
541.39	-2.77
541.513	12.23
541.637	17.23
541.76	6.23
541.883	10.23
542.006	21.23
542.129	24.23
542.252	-0.77
542.375	-2.77
542.498	21.23
542.622	31.23
542.745	5.23
542.868	18.23
542.991	23.23
543.114	14.23
543.237	22.23
543.36	16.23
543.483	9.23
543.606	27.23
543.73	30.23
543.853	17.23
543.976	11.23
544.099	5.23
544.222	4.23
544.345	1.23
544.468	0.23
544.591	3.23
544.714	-3.77
544.837	23.23
544.96	11.23
545.083	23.23
545.206	9.23
545.329	17.23
545.453	12.23
545.576	11.23
545.699	2.23
545.822	20.23
545.945	24.23
546.068	4.23
546.191	10.23
546.314	2.23
546.437	20.23
546.56	7.23
546.683	11.23
546.806	15.23
546.929	-0.77
547.052	4.23
547.175	14.23
547.298	15.23
547.421	-3.77
547.544	19.23
547.667	17.23
547.79	0.23
547.913	-0.77
548.036	-5.77
548.159	7.23
548.282	19.23
548.405	7.23
548.528	26.23
548.651	-8.77
548.774	5.23
548.897	19.23
549.02	19.23
549.143	15.23
549.266	12.23
549.389	19.23
549.512	3.23
549.635	28.23
549.758	19.23
549.881	4.23
550.004	8.23
550.127	-0.77
550.25	5.23
550.373	-4.77
550.496	19.23
550.619	11.23
550.742	-4.77
550.865	-11.77
550.988	12.23
551.111	16.23
551.234	9.23
551.356	-12.77
551.479	-3.77
551.602	10.23
551.725	17.23
551.848	8.23
551.971	27.23
552.094	-2.77
552.217	15.23
552.34	8.23
552.463	-5.77
552.586	9.23
552.709	8.23
552.832	6.23
552.955	20.23
553.077	31.23
553.2	11.23
553.323	6.23
553.446	20.23
553.569	-2.77
553.692	5.23
553.815	4.23
553.938	14.23
554.061	19.23
554.184	-9.77
554.306	13.23
554.429	16.23
554.552	17.23
554.675	-5.77
554.798	-0.77
554.921	13.23
555.044	12.23
555.167	1.23
555.29	17.23
555.412	9.23
555.535	0.23
555.658	-5.77
555.781	8.23
555.904	17.23
556.027	7.23
556.15	7.23
556.272	10.23
556.395	18.23
556.518	8.23
556.641	14.23
556.764	27.23
556.887	26.23
557.01	-4.77
557.132	-10.77
557.255	3.23
557.378	11.23
557.501	-3.77
557.624	8.23
557.747	14.23
557.869	15.23
557.992	28.23
558.115	14.23
558.238	7.23
558.361	14.23
558.483	33.23
558.606	4.23
558.729	-1.77
558.852	28.23
558.975	17.23
559.098	8.23
559.22	-4.77
559.343	5.23
559.466	5.23
559.589	-4.77
559.712	1.23
559.834	6.23
559.957	2.23
560.08	11.23
560.203	35.23
560.325	36.23
560.448	15.23
560.571	15.23
560.694	15.23
560.817	25.23
560.939	6.23
561.062	-3.77
561.185	7.23
561.308	3.23
561.43	-2.77
561.553	1.23
561.676	8.23
561.799	20.23
561.921	12.23
562.044	7.23
562.167	-0.77
562.29	27.23
562.413	8.23
562.535	28.23
562.658	-9.77
562.781	-0.77
562.903	3.23
563.026	20.23
563.149	15.23
563.272	9.23
563.394	21.23
563.517	5.23
563.64	-2.77
563.763	-12.77
563.885	11.23
564.008	35.23
564.131	12.23
564.254	14.23
564.376	20.23
564.499	-14.77
564.622	13.23
564.744	12.23
564.867	13.23
564.99	-0.77
565.113	1.23
565.235	8.23
565.358	11.23
565.481	-7.77
565.603	11.23
565.726	-6.77
565.849	39.23
565.971	15.23
566.094	10.23
566.217	21.23
566.34	3.23
566.462	16.23
566.585	5.23
566.708	16.23
566.83	11.23
566.953	36.23
567.076	4.23
567.198	11.23
567.321	16.23
567.444	18.23
567.566	14.23
567.689	8.23
567.812	4.23
567.934	11.23
568.057	10.23
568.18	21.23
568.302	10.23
568.425	19.23
568.548	3.23
568.67	18.23
568.793	16.23
568.916	26.23
569.038	10.23
569.161	3.23
569.283	3.23
569.406	15.23
569.529	-0.77
569.651	-11.77
569.774	-4.77
569.897	-0.77
570.019	15.23
570.142	25.23
570.265	15.23
570.387	9.23
570.51	24.23
570.632	22.23
570.755	1.23
570.878	-3.77
571	13.23
571.123	-2.77
571.246	18.23
571.368	-7.77
571.491	-3.77
571.613	5.23
571.736	-1.77
571.859	18.23
571.981	-12.77
572.104	0.23
572.226	16.23
572.349	-13.77
572.472	-10.77
572.594	14.23
572.717	12.23
572.839	11.23
572.962	4.23
573.085	21.23
573.207	14.23
573.33	18.23
573.452	31.23
573.575	23.23
573.697	-9.77
573.82	13.23
573.943	0.23
574.065	12.23
574.188	20.23
574.31	26.23
574.433	26.23
574.555	26.23
574.678	9.23
574.801	17.23
574.923	8.23
575.046	7.23
575.168	2.23
575.291	8.23
575.413	2.23
575.536	6.23
575.659	13.23
575.781	-15.77
575.904	23.23
576.026	21.23
576.149	15.23
576.271	21.23
576.394	11.23
576.516	8.23
576.639	4.23
576.761	2.23
576.884	5.23
577.007	5.23
577.129	7.23
577.252	12.23
577.374	21.23
577.497	8.23
577.619	14.23
577.742	4.23
577.864	29.23
577.987	21.23
578.109	30.23
578.232	12.23
578.354	27.23
578.477	4.23
578.599	3.23
578.722	17.23
578.844	-2.77
578.967	5.23
579.089	-2.77
579.212	-9.77
579.334	5.23
579.457	9.23
579.579	12.23
579.702	8.23
579.824	10.23
579.947	26.23
580.069	-7.77
580.192	-7.77
580.314	13.23
580.437	6.23
580.559	45.23
580.682	1.23
580.804	21.23
580.927	17.23
581.049	23.23
581.172	-2.77
581.294	13.23
581.417	13.23
581.539	25.23
581.662	18.23
581.784	17.23
581.907	39.23
582.029	21.23
582.152	-1.77
582.274	16.23
582.396	15.23
582.519	5.23
582.641	11.23
582.764	8.23
582.886	23.23
583.009	-8.77
583.131	8.23
583.254	7.23
583.376	11.23
583.499	7.23
583.621	10.23
583.743	21.23
583.866	17.23
583.988	8.23
584.111	13.23
584.233	34.23
584.356	10.23
584.478	8.23
584.601	-1.77
584.723	24.23
584.845	15.23
584.968	9.23
585.09	-4.77
585.213	14.23
585.335	13.23
585.458	-0.77
585.58	14.23
585.702	31.23
585.825	7.23
585.947	17.23
586.07	11.23
586.192	-0.77
586.315	18.23
586.437	-4.77
586.559	11.23
586.682	0.23
586.804	21.23
586.927	15.23
587.049	3.23
587.171	30.23
587.294	13.23
587.416	15.23
587.539	8.23
587.661	5.23
587.783	10.23
587.906	-1.77
588.028	11.23
588.151	13.23
588.273	23.23
588.395	12.23
588.518	17.23
588.64	7.23
588.763	16.23
588.885	7.23
589.007	31.23
589.13	-11.77
589.252	-7.77
589.375	14.23
589.497	19.23
589.619	21.23
589.742	3.23
589.864	11.23
589.986	16.23
590.109	-10.77
590.231	-9.77
590.354	10.23
590.476	-1.77
590.598	10.23
590.721	12.23
590.843	10.23
590.965	-8.77
591.088	15.23
591.21	18.23
591.332	19.23
591.455	6.23
591.577	4.23
591.7	8.23
591.822	23.23
591.944	5.23
592.067	11.23
592.189	26.23
592.311	39.23
592.434	9.23
592.556	23.23
592.678	24.23
592.801	30.23
592.923	6.23
593.045	-7.77
593.168	14.23
593.29	3.23
593.412	29.23
593.535	9.23
593.657	2.23
593.779	-4.77
593.902	28.23
594.024	19.23
594.146	0.23
594.269	9.23
594.391	-1.77
594.513	19.23
594.636	2.23
594.758	7.23
594.88	8.23
595.003	26.23
595.125	18.23
595.247	14.23
595.37	10.23
595.492	3.23
595.614	31.23
595.737	10.23
595.859	14.23
595.981	25.23
596.104	22.23
596.226	4.23
596.348	6.23
596.471	14.23
596.593	4.23
596.715	9.23
596.838	5.23
596.96	-4.77
597.082	15.23
597.204	7.23
597.327	-5.77
597.449	11.23
597.571	18.23
597.694	25.23
597.816	16.23
597.938	3.23
598.061	7.23
598.183	-7.77
598.305	17.23
598.427	7.23
598.55	8.23
598.672	23.23
598.794	4.23
598.917	-0.77
599.039	-0.77
599.161	14.23
599.283	8.23
599.406	13.23
599.528	16.23
599.65	20.23
599.773	15.23
599.895	41.23
600.017	25.23
600.139	15.23
600.262	-11.77
600.384	15.23
600.506	18.23
600.628	22.23
600.751	7.23
600.873	5.23
600.995	7.23
601.118	15.23
601.24	5.23
601.362	13.23
601.484	9.23
601.607	31.23
601.729	9.23
601.851	-4.77
601.973	11.23
602.096	9.23
602.218	10.23
602.34	9.23
602.462	18.23
602.585	2.23
602.707	-5.77
602.829	16.23
602.951	10.23
603.074	-15.77
603.196	16.23
603.318	2.23
603.44	14.23
603.563	7.23
603.685	3.23
603.807	14.23
603.929	19.23
604.052	8.23
604.174	4.23
604.296	26.23
604.418	39.23
604.541	32.23
604.663	11.23
604.785	5.23
604.907	12.23
605.03	13.23
605.152	47.23
605.274	17.23
605.396	21.23
605.519	9.23
605.641	20.23
605.763	24.23
605.885	4.23
606.008	-2.77
606.13	8.23
606.252	7.23
606.374	-12.77
606.496	-5.77
606.619	21.23
606.741	4.23
606.863	24.23
606.985	19.23
607.108	21.23
607.23	31.23
607.352	15.23
607.474	19.23
607.596	12.23
607.719	11.23
607.841	21.23
607.963	3.23
608.085	8.23
608.207	47.23
608.33	25.23
608.452	8.23
608.574	7.23
608.696	26.23
608.819	-0.77
608.941	20.23
609.063	13.23
609.185	10.23
609.307	11.23
609.43	38.23
609.552	30.23
609.674	-9.77
609.796	5.23
609.918	11.23
610.041	16.23
610.163	5.23
610.285	1.23
610.407	28.23
610.529	-11.77
610.652	5.23
610.774	7.23
610.896	-0.77
611.018	7.23
611.14	-3.77
611.263	-11.77
611.385	2.23
611.507	23.23
611.629	7.23
611.751	18.23
611.873	39.23
611.996	21.23
612.118	15.23
612.24	2.23
612.362	17.23
612.484	16.23
612.607	13.23
612.729	17.23
612.851	1.23
612.973	-0.77
613.095	-7.77
613.218	16.23
613.34	22.23
613.462	11.23
613.584	11.23
613.706	5.23
613.828	29.23
613.951	3.23
614.073	2.23
614.195	-11.77
614.317	34.23
614.439	15.23
614.561	21.23
614.684	22.23
614.806	21.23
614.928	17.23
615.05	9.23
615.172	34.23
615.294	26.23
615.417	2.23
615.539	2.23
615.661	15.23
615.783	13.23
615.905	39.23
616.027	64.23
616.15	105.23
616.272	96.23
616.394	47.23
616.516	35.23
616.638	15.23
616.76	22.23
616.883	-2.77
617.005	10.23
617.127	11.23
617.249	11.23
617.371	16.23
617.493	9.23
617.615	12.23
617.738	5.23
617.86	19.23
617.982	14.23
618.104	12.23
618.226	4.23
618.348	-3.77
618.471	9.23
618.593	14.23
618.715	1.23
618.837	15.23
618.959	14.23
619.081	17.23
619.203	7.23
619.326	18.23
619.448	18.23
619.57	4.23
619.692	20.23
619.814	7.23
619.936	1.23
620.058	18.23
620.181	35.23
620.303	24.23
620.425	10.23
620.547	11.23
620.669	0.23
620.791	10.23
620.913	11.23
621.036	5.23
621.158	-4.77
621.28	8.23
621.402	-4.77
621.524	9.23
621.646	15.23
621.768	-19.77
621.891	-18.77
622.013	12.23
622.135	1.23
622.257	3.23
622.379	4.23
622.501	13.23
622.623	15.23
622.745	17.23
622.868	12.23
622.99	21.23
623.112	18.23
623.234	14.23
623.356	31.23
623.478	4.23
623.6	8.23
623.722	11.23
623.845	13.23
623.967	13.23
624.089	14.23
624.211	19.23
624.333	15.23
624.455	16.23
624.577	-0.77
624.699	21.23
624.822	13.23
624.944	10.23
625.066	5.23
625.188	14.23
625.31	13.23
625.432	28.23
625.554	8.23
625.676	25.23
625.799	5.23
625.921	16.23
626.043	11.23
626.165	18.23
626.287	-0.77
626.409	21.23
626.531	15.23
626.653	15.23
626.775	14.23
626.898	12.23
627.02	16.23
627.142	31.23
627.264	18.23
627.386	14.23
627.508	21.23
627.63	4.23
627.752	26.23
627.874	1.23
627.997	24.23
628.119	16.23
628.241	7.23
628.363	9.23
628.485	-5.77
628.607	4.23
628.729	-4.77
628.851	9.23
628.973	13.23
629.096	-13.77
629.218	-1.77
629.34	23.23
629.462	-1.77
629.584	11.23
629.706	14.23
629.828	31.23
629.95	16.23
630.072	1.23
630.195	0.23
630.317	18.23
630.439	8.23
630.561	15.23
630.683	16.23
630.805	8.23
630.927	14.23
631.049	16.23
631.171	2.23
631.293	16.23
631.416	10.23
631.538	16.23
631.66	4.23
631.782	16.23
631.904	12.23
632.026	12.23
632.148	7.23
632.27	-4.77
632.392	15.23
632.514	25.23
632.637	15.23
632.759	21.23
632.881	-5.77
633.003	11.23
633.125	3.23
633.247	15.23
633.369	2.23
633.491	10.23
633.613	31.23
633.735	17.23
633.858	20.23
633.98	17.23
634.102	-0.77
634.224	2.23
634.346	8.23
634.468	10.23
634.59	4.23
634.712	7.23
634.834	23.23
634.956	10.23
635.078	9.23
635.201	-0.77
635.323	7.23
635.445	2.23
635.567	-2.77
635.689	17.23
635.811	19.23
635.933	1.23
636.055	6.23
636.177	12.23
636.299	4.23
636.421	-2.77
636.544	-23.77
636.666	4.23
636.788	0.23
636.91	21.23
637.032	9.23
637.154	8.23
637.276	31.23
637.398	23.23
637.52	21.23
637.642	18.23
637.764	22.23
637.887	15.23
638.009	4.23
638.131	2.23
638.253	-0.77
638.375	9.23
638.497	6.23
638.619	-19.77
638.741	3.23
638.863	-5.77
638.985	3.23
639.107	7.23
639.23	-0.77
639.352	20.23
639.474	-1.77
639.596	-3.77
639.718	6.23
639.84	13.23
639.962	-7.77
640.084	20.23
640.206	7.23
640.328	11.23
640.45	11.23
640.573	13.23
640.695	0.23
640.817	-5.77
640.939	32.23
641.061	6.23
641.183	15.23
641.305	5.23
641.427	-3.77
641.549	-9.77
641.671	7.23
641.793	9.23
641.915	23.23
642.038	-0.77
642.16	3.23
642.282	9.23
642.404	7.23
642.526	21.23
642.648	2.23
642.77	-0.77
642.892	15.23
643.014	0.23
643.136	10.23
643.258	14.23
643.381	26.23
643.503	33.23
643.625	2.23
643.747	-10.77
643.869	-3.77
643.991	19.23
644.113	10.23
644.235	1.23
644.357	5.23
644.479	15.23
644.601	11.23
644.723	19.23
644.846	12.23
644.968	8.23
645.09	1.23
645.212	1.23
645.334	16.23
645.456	9.23
645.578	17.23
645.7	19.23
645.822	6.23
645.944	8.23
646.066	17.23
646.188	-0.77
646.311	27.23
646.433	-8.77
646.555	51.23
646.677	39.23
646.799	38.23
646.921	15.23
647.043	37.23
647.165	-0.77
647.287	15.23
647.409	9.23
647.531	6.23
647.654	1.23
647.776	24.23
647.898	20.23
648.02	2.23
648.142	13.23
648.264	6.23
648.386	15.23
648.508	-15.77
648.63	7.23
648.752	9.23
648.874	16.23
648.997	21.23
649.119	20.23
649.241	0.23
649.363	28.23
649.485	27.23
649.607	9.23
649.729	-2.77
649.851	-4.77
649.973	5.23
650.095	25.23
650.217	12.23
650.34	-2.77
650.462	16.23
650.584	28.23
650.706	25.23
650.828	15.23
650.95	4.23
651.072	25.23
651.194	-11.77
651.316	8.23
651.438	1.23
651.56	-2.77
651.683	-3.77
651.805	11.23
651.927	-0.77
652.049	-4.77
652.171	21.23
652.293	6.23
652.415	-2.77
652.537	7.23
652.659	-1.77
652.781	9.23
652.903	9.23
653.026	21.23
653.148	15.23
653.27	8.23
653.392	7.23
653.514	4.23
653.636	14.23
653.758	12.23
653.88	0.23
654.002	1.23
654.124	6.23
654.247	8.23
654.369	22.23
654.491	5.23
654.613	4.23
654.735	-7.77
654.857	36.23
654.979	6.23
655.101	10.23
655.223	24.23
655.345	11.23
655.468	24.23
655.59	9.23
655.712	23.23
655.834	33.23
655.956	28.23
656.078	45.23
656.2	45.23
656.322	32.23
656.444	20.23
656.566	63.23
656.689	47.23
656.811	51.23
656.933	89.23
657.055	80.23
657.177	153.23
657.299	254.23
657.421	503.23
657.543	1880.23
657.665	12486.23
657.787	15165.23
657.91	15229.23
658.032	15662.23
658.154	4579.23
658.276	3335.23
658.398	1141.23
658.52	1011.23
658.642	470.23
658.764	598.23
658.886	275.23
659.009	394.23
659.131	205.23
659.253	309.23
659.375	171.23
659.497	247.23
659.619	108.23
659.741	184.23
659.863	114.23
659.985	132.23
660.108	78.23
660.23	140.23
660.352	84.23
660.474	131.23
660.596	65.23
660.718	124.23
660.84	52.23
660.962	129.23
661.084	61.23
661.207	126.23
661.329	61.23
661.451	82.23
661.573	23.23
661.695	87.23
661.817	51.23
661.939	89.23
662.061	61.23
662.184	68.23
662.306	25.23
662.428	71.23
662.55	67.23
662.672	74.23
662.794	25.23
662.916	68.23
663.038	20.23
663.161	76.23
663.283	31.23
663.405	57.23
663.527	9.23
663.649	67.23
663.771	32.23
663.893	59.23
664.015	25.23
664.138	57.23
664.26	27.23
664.382	72.23
664.504	13.23
664.626	22.23
664.748	19.23
664.87	17.23
664.992	28.23
665.115	67.23
665.237	32.23
665.359	35.23
665.481	21.23
665.603	41.23
665.725	29.23
665.847	18.23
665.97	22.23
666.092	44.23
666.214	27.23
666.336	37.23
666.458	28.23
666.58	31.23
666.702	9.23
666.825	36.23
666.947	9.23
667.069	47.23
667.191	16.23
667.313	40.23
667.435	0.23
667.557	26.23
667.68	-3.77
667.802	17.23
667.924	14.23
668.046	35.23
668.168	19.23
668.29	44.23
668.412	12.23
668.535	30.23
668.657	19.23
668.779	34.23
668.901	16.23
669.023	36.23
669.145	1.23
669.267	33.23
669.39	10.23
669.512	47.23
669.634	29.23
669.756	12.23
669.878	15.23
670	31.23
670.123	16.23
670.245	29.23
670.367	36.23
670.489	24.23
670.611	4.23
670.733	19.23
670.856	13.23
670.978	32.23
671.1	26.23
671.222	22.23
671.344	17.23
671.466	11.23
671.589	-3.77
671.711	1.23
671.833	10.23
671.955	29.23
672.077	20.23
672.199	40.23
672.322	17.23
672.444	8.23
672.566	20.23
672.688	36.23
672.81	23.23
672.932	23.23
673.055	9.23
673.177	16.23
673.299	27.23
673.421	8.23
673.543	4.23
673.665	25.23
673.788	27.23
673.91	16.23
674.032	4.23
674.154	12.23
674.276	18.23
674.399	12.23
674.521	-6.77
674.643	22.23
674.765	10.23
674.887	16.23
675.009	12.23
675.132	6.23
675.254	-2.77
675.376	8.23
675.498	21.23
675.62	41.23
675.743	8.23
675.865	8.23
675.987	8.23
676.109	19.23
676.231	25.23
676.354	49.23
676.476	18.23
676.598	16.23
676.72	7.23
676.842	17.23
676.965	9.23
677.087	12.23
677.209	5.23
677.331	23.23
677.453	3.23
677.576	1.23
677.698	13.23
677.82	29.23
677.942	-3.77
678.064	15.23
678.187	9.23
678.309	6.23
678.431	13.23
678.553	-1.77
678.675	32.23
678.798	24.23
678.92	3.23
679.042	24.23
679.164	7.23
679.286	27.23
679.409	11.23
679.531	4.23
679.653	4.23
679.775	4.23
679.898	-4.77
680.02	9.23
680.142	-1.77
680.264	12.23
680.386	-0.77
680.509	18.23
680.631	4.23
680.753	25.23
680.875	-6.77
680.998	29.23
681.12	4.23
681.242	34.23
681.364	-5.77
681.486	17.23
681.609	-5.77
681.731	-8.77
681.853	-7.77
681.975	4.23
682.098	12.23
682.22	40.23
682.342	5.23
682.464	34.23
682.587	18.23
682.709	17.23
682.831	-7.77
682.953	1.23
683.076	5.23
683.198	15.23
683.32	11.23
683.442	14.23
683.565	13.23
683.687	9.23
683.809	-14.77
683.931	-4.77
684.054	19.23
684.176	12.23
684.298	19.23
684.42	-3.77
684.543	0.23
684.665	17.23
684.787	-2.77
684.909	6.23
685.032	16.23
685.154	-7.77
685.276	10.23
685.398	7.23
685.521	-10.77
685.643	7.23
685.765	13.23
685.887	15.23
686.01	12.23
686.132	19.23
686.254	28.23
686.377	27.23
686.499	15.23
686.621	22.23
686.743	0.23
686.866	15.23
686.988	41.23
687.11	24.23
687.232	-2.77
687.355	1.23
687.477	-1.77
687.599	28.23
687.722	-3.77
687.844	-1.77
687.966	2.23
688.088	15.23
688.211	27.23
688.333	21.23
688.455	5.23
688.578	24.23
688.7	10.23
688.822	24.23
688.944	-11.77
689.067	48.23
689.189	7.23
689.311	0.23
689.434	1.23
689.556	12.23
689.678	11.23
689.801	0.23
689.923	3.23
690.045	27.23
690.167	24.23
690.29	30.23
690.412	6.23
690.534	1.23
690.657	10.23
690.779	11.23
690.901	10.23
691.024	1.23
691.146	-2.77
691.268	-2.77
691.391	24.23
691.513	15.23
691.635	15.23
691.758	28.23
691.88	0.23
692.002	-4.77
692.125	9.23
692.247	11.23
692.369	2.23
692.492	-6.77
692.614	23.23
692.736	23.23
692.859	-13.77
692.981	-0.77
693.103	0.23
693.226	7.23
693.348	37.23
693.47	13.23
693.593	2.23
693.715	-3.77
693.837	1.23
693.96	-2.77
694.082	-10.77
694.204	8.23
694.327	4.23
694.449	7.23
694.571	9.23
694.694	19.23
694.816	1.23
694.938	-7.77
695.061	19.23
695.183	23.23
695.305	14.23
695.428	29.23
695.55	-15.77
695.672	0.23
695.795	19.23
695.917	20.23
696.04	4.23
696.162	11.23
696.284	9.23
696.407	-0.77
696.529	5.23
696.651	20.23
696.774	-13.77
696.896	21.23
697.019	8.23
697.141	5.23
697.263	4.23
697.386	-8.77
697.508	1.23
697.63	27.23
697.753	17.23
697.875	19.23
697.998	4.23
698.12	22.23
698.242	4.23
698.365	5.23
698.487	11.23
698.61	5.23
698.732	13.23
698.854	-5.77
698.977	16.23
699.099	26.23
699.221	-4.77
699.344	13.23
699.466	9.23
699.589	14.23
699.711	-10.77
699.834	15.23
699.956	3.23
700.078	17.23
700.201	10.23
700.323	27.23
700.446	13.23
700.568	15.23
700.69	10.23
700.813	5.23
700.935	-0.77
701.058	12.23
701.18	13.23
701.302	8.23
701.425	8.23
701.547	4.23
701.67	5.23
701.792	3.23
701.915	-5.77
702.037	1.23
702.159	1.23
702.282	20.23
702.404	4.23
702.527	15.23
702.649	24.23
702.772	12.23
702.894	3.23
703.017	19.23
703.139	8.23
703.261	17.23
703.384	3.23
703.506	-11.77
703.629	4.23
703.751	0.23
703.874	4.23
703.996	13.23
704.119	-2.77
704.241	20.23
704.364	-10.77
704.486	-4.77
704.608	6.23
704.731	20.23
704.853	19.23
704.976	3.23
705.098	5.23
705.221	4.23
705.343	-3.77
705.466	14.23
705.588	16.23
705.711	27.23
705.833	18.23
705.956	24.23
706.078	24.23
706.201	5.23
706.323	4.23
706.446	8.23
