Data from LowRes_H2_15_26_11_07_2024_HR4C61881__98__15-28-23-436.txt Node

Date: Thu Nov 07 15:28:23 EST 2024
User: crc00042
Spectrometer: HR4C6188
Trigger mode: 4
Integration Time (sec): 1.000000E-1
Scans to average: 1
Electric dark correction enabled: true
Nonlinearity correction enabled: false
Boxcar width: 0
XAxis mode: Wavelengths
Number of Pixels in Spectrum: 3648
>>>>>Begin Spectral Data<<<<<
245.66	-82.69
245.797	-82.69
245.934	-82.69
246.071	-77.69
246.208	-2.69
246.344	11.31
246.481	0.31
246.618	-13.69
246.755	-1.69
246.892	-16.69
247.029	-10.69
247.165	-14.69
247.302	8.31
247.439	10.31
247.576	17.31
247.713	-11.69
247.849	33.31
247.986	-11.69
248.123	-0.69
248.26	-20.69
248.396	7.31
248.533	4.31
248.67	-1.69
248.806	5.31
248.943	-15.69
249.08	1.31
249.216	2.31
249.353	-7.69
249.49	-13.69
249.626	-6.69
249.763	-17.69
249.9	-7.69
250.036	-5.69
250.173	11.31
250.309	9.31
250.446	-8.69
250.582	0.31
250.719	-13.69
250.856	-4.69
250.992	-5.69
251.129	-6.69
251.265	-5.69
251.402	1.31
251.538	-5.69
251.675	-1.69
251.811	15.31
251.948	15.31
252.084	4.31
252.221	4.31
252.357	-0.69
252.493	19.31
252.63	4.31
252.766	13.31
252.903	-0.69
253.039	-13.69
253.175	-4.69
253.312	2.31
253.448	-28.69
253.585	-27.69
253.721	8.31
253.857	7.31
253.994	1.31
254.13	-1.69
254.266	4.31
254.403	8.31
254.539	17.31
254.675	2.31
254.811	7.31
254.948	5.31
255.084	-4.69
255.22	-23.69
255.356	-9.69
255.493	-5.69
255.629	12.31
255.765	-10.69
255.901	14.31
256.037	2.31
256.174	11.31
256.31	0.31
256.446	-14.69
256.582	9.31
256.718	21.31
256.854	27.31
256.991	12.31
257.127	29.31
257.263	2.31
257.399	-8.69
257.535	-6.69
257.671	-9.69
257.807	-12.69
257.943	-10.69
258.079	-12.69
258.215	-7.69
258.351	7.31
258.487	3.31
258.623	18.31
258.759	0.31
258.895	-2.69
259.031	-6.69
259.167	-21.69
259.303	6.31
259.439	-1.69
259.575	-20.69
259.711	-8.69
259.847	-3.69
259.983	2.31
260.119	-11.69
260.255	-1.69
260.391	4.31
260.527	11.31
260.663	19.31
260.799	11.31
260.934	-7.69
261.07	-12.69
261.206	-8.69
261.342	-6.69
261.478	16.31
261.614	10.31
261.749	6.31
261.885	-13.69
262.021	10.31
262.157	18.31
262.293	10.31
262.428	-3.69
262.564	-4.69
262.7	16.31
262.836	-1.69
262.971	6.31
263.107	12.31
263.243	9.31
263.378	-13.69
263.514	-2.69
263.65	-2.69
263.785	-10.69
263.921	-4.69
264.057	3.31
264.192	-3.69
264.328	26.31
264.464	-9.69
264.599	6.31
264.735	17.31
264.871	-6.69
265.006	19.31
265.142	-5.69
265.277	-3.69
265.413	7.31
265.548	-7.69
265.684	28.31
265.819	-0.69
265.955	-9.69
266.091	-14.69
266.226	-12.69
266.362	1.31
266.497	16.31
266.633	-2.69
266.768	-8.69
266.903	14.31
267.039	9.31
267.174	12.31
267.31	-2.69
267.445	-7.69
267.581	-1.69
267.716	23.31
267.851	15.31
267.987	-0.69
268.122	16.31
268.258	7.31
268.393	-2.69
268.528	8.31
268.664	-28.69
268.799	-10.69
268.934	4.31
269.07	-22.69
269.205	-4.69
269.34	24.31
269.476	-8.69
269.611	-13.69
269.746	17.31
269.881	7.31
270.017	12.31
270.152	0.31
270.287	13.31
270.422	4.31
270.558	-6.69
270.693	7.31
270.828	1.31
270.963	1.31
271.098	-10.69
271.234	4.31
271.369	9.31
271.504	-11.69
271.639	-24.69
271.774	-10.69
271.909	-0.69
272.045	-27.69
272.18	-0.69
272.315	-6.69
272.45	16.31
272.585	0.31
272.72	-4.69
272.855	6.31
272.99	27.31
273.125	-11.69
273.26	-22.69
273.395	-1.69
273.53	-6.69
273.665	18.31
273.8	1.31
273.935	8.31
274.07	7.31
274.205	22.31
274.34	7.31
274.475	-3.69
274.61	15.31
274.745	-3.69
274.88	17.31
275.015	-6.69
275.15	-9.69
275.285	5.31
275.42	-15.69
275.555	18.31
275.69	3.31
275.825	-27.69
275.959	11.31
276.094	-7.69
276.229	-0.69
276.364	-13.69
276.499	-0.69
276.634	0.31
276.768	-7.69
276.903	8.31
277.038	11.31
277.173	-23.69
277.308	1.31
277.442	-3.69
277.577	-23.69
277.712	6.31
277.847	3.31
277.981	2.31
278.116	-29.69
278.251	1.31
278.386	8.31
278.52	9.31
278.655	-8.69
278.79	18.31
278.924	25.31
279.059	20.31
279.194	-20.69
279.328	44.31
279.463	13.31
279.598	32.31
279.732	11.31
279.867	-6.69
280.001	-3.69
280.136	-16.69
280.271	9.31
280.405	4.31
280.54	12.31
280.674	-10.69
280.809	18.31
280.943	11.31
281.078	-0.69
281.213	12.31
281.347	-1.69
281.482	-0.69
281.616	-2.69
281.751	-3.69
281.885	-27.69
282.02	-2.69
282.154	12.31
282.288	-9.69
282.423	-1.69
282.557	-14.69
282.692	2.31
282.826	-7.69
282.961	20.31
283.095	-5.69
283.229	-8.69
283.364	-17.69
283.498	-2.69
283.633	0.31
283.767	-1.69
283.901	-1.69
284.036	-4.69
284.17	7.31
284.304	-27.69
284.439	-8.69
284.573	-10.69
284.707	17.31
284.842	-14.69
284.976	-24.69
285.11	-32.69
285.244	5.31
285.379	44.31
285.513	-2.69
285.647	-7.69
285.781	-17.69
285.916	23.31
286.05	-12.69
286.184	10.31
286.318	11.31
286.453	-21.69
286.587	-24.69
286.721	-11.69
286.855	-6.69
286.989	-2.69
287.123	2.31
287.258	-6.69
287.392	0.31
287.526	14.31
287.66	-10.69
287.794	-11.69
287.928	-22.69
288.062	13.31
288.196	11.31
288.33	5.31
288.464	1.31
288.598	18.31
288.733	7.31
288.867	11.31
289.001	14.31
289.135	10.31
289.269	-17.69
289.403	2.31
289.537	-6.69
289.671	8.31
289.805	-9.69
289.939	5.31
290.073	-5.69
290.207	5.31
290.34	-13.69
290.474	14.31
290.608	1.31
290.742	3.31
290.876	2.31
291.01	-4.69
291.144	9.31
291.278	4.31
291.412	4.31
291.546	-11.69
291.679	-13.69
291.813	-4.69
291.947	2.31
292.081	6.31
292.215	6.31
292.349	9.31
292.482	-0.69
292.616	-12.69
292.75	-2.69
292.884	-1.69
293.018	-2.69
293.151	-8.69
293.285	14.31
293.419	2.31
293.553	-10.69
293.686	-2.69
293.82	-2.69
293.954	21.31
294.088	30.31
294.221	-4.69
294.355	-6.69
294.489	-0.69
294.622	-1.69
294.756	4.31
294.89	3.31
295.023	-1.69
295.157	3.31
295.291	17.31
295.424	9.31
295.558	-15.69
295.691	10.31
295.825	-9.69
295.959	10.31
296.092	1.31
296.226	2.31
296.359	8.31
296.493	-0.69
296.627	0.31
296.76	3.31
296.894	-1.69
297.027	-4.69
297.161	-5.69
297.294	-7.69
297.428	-10.69
297.561	15.31
297.695	-3.69
297.828	-9.69
297.962	-4.69
298.095	-7.69
298.229	3.31
298.362	8.31
298.495	-12.69
298.629	-5.69
298.762	6.31
298.896	-3.69
299.029	-16.69
299.162	-3.69
299.296	7.31
299.429	2.31
299.563	8.31
299.696	2.31
299.829	1.31
299.963	7.31
300.096	6.31
300.229	15.31
300.363	16.31
300.496	2.31
300.629	-27.69
300.763	-1.69
300.896	-7.69
301.029	9.31
301.162	-3.69
301.296	-11.69
301.429	5.31
301.562	-30.69
301.695	-1.69
301.829	2.31
301.962	16.31
302.095	-4.69
302.228	-15.69
302.362	-6.69
302.495	-15.69
302.628	1.31
302.761	-1.69
302.894	1.31
303.027	34.31
303.161	-18.69
303.294	-6.69
303.427	21.31
303.56	-9.69
303.693	-18.69
303.826	-6.69
303.959	-6.69
304.092	12.31
304.225	-4.69
304.359	1.31
304.492	13.31
304.625	-1.69
304.758	14.31
304.891	-16.69
305.024	2.31
305.157	6.31
305.29	-14.69
305.423	-16.69
305.556	15.31
305.689	14.31
305.822	2.31
305.955	-0.69
306.088	4.31
306.221	12.31
306.354	-14.69
306.487	-19.69
306.62	-8.69
306.752	-7.69
306.885	10.31
307.018	-2.69
307.151	2.31
307.284	12.31
307.417	5.31
307.55	10.31
307.683	6.31
307.816	4.31
307.948	8.31
308.081	5.31
308.214	0.31
308.347	4.31
308.48	-25.69
308.613	-7.69
308.745	8.31
308.878	-15.69
309.011	-4.69
309.144	5.31
309.277	5.31
309.409	-6.69
309.542	-2.69
309.675	19.31
309.808	5.31
309.94	19.31
310.073	-13.69
310.206	1.31
310.339	2.31
310.471	-16.69
310.604	19.31
310.737	5.31
310.869	-5.69
311.002	2.31
311.135	3.31
311.267	4.31
311.4	-5.69
311.533	22.31
311.665	-6.69
311.798	8.31
311.93	-1.69
312.063	12.31
312.196	9.31
312.328	2.31
312.461	-6.69
312.593	-10.69
312.726	0.31
312.859	12.31
312.991	3.31
313.124	-9.69
313.256	-10.69
313.389	7.31
313.521	0.31
313.654	3.31
313.786	-10.69
313.919	-14.69
314.051	4.31
314.184	13.31
314.316	-3.69
314.449	-14.69
314.581	-6.69
314.714	-3.69
314.846	2.31
314.978	-11.69
315.111	-13.69
315.243	-1.69
315.376	5.31
315.508	-6.69
315.641	7.31
315.773	25.31
315.905	9.31
316.038	19.31
316.17	35.31
316.302	9.31
316.435	-8.69
316.567	-1.69
316.699	10.31
316.832	0.31
316.964	-1.69
317.096	-17.69
317.229	-19.69
317.361	-27.69
317.493	-2.69
317.625	-3.69
317.758	12.31
317.89	19.31
318.022	6.31
318.155	-3.69
318.287	0.31
318.419	-2.69
318.551	-6.69
318.683	-1.69
318.816	4.31
318.948	2.31
319.08	-9.69
319.212	18.31
319.344	-5.69
319.477	-2.69
319.609	16.31
319.741	21.31
319.873	12.31
320.005	-7.69
320.137	-19.69
320.269	-0.69
320.401	27.31
320.534	-0.69
320.666	-15.69
320.798	-19.69
320.93	-6.69
321.062	3.31
321.194	11.31
321.326	-7.69
321.458	11.31
321.59	5.31
321.722	-28.69
321.854	-2.69
321.986	6.31
322.118	12.31
322.25	-17.69
322.382	-0.69
322.514	-7.69
322.646	-12.69
322.778	14.31
322.91	-13.69
323.042	7.31
323.174	14.31
323.306	-0.69
323.438	-26.69
323.57	-7.69
323.702	3.31
323.834	-0.69
323.966	-29.69
324.097	9.31
324.229	24.31
324.361	-3.69
324.493	1.31
324.625	-5.69
324.757	2.31
324.889	-3.69
325.021	11.31
325.152	16.31
325.284	8.31
325.416	-1.69
325.548	5.31
325.68	-8.69
325.811	13.31
325.943	18.31
326.075	-11.69
326.207	2.31
326.339	22.31
326.47	-9.69
326.602	4.31
326.734	18.31
326.866	9.31
326.997	-6.69
327.129	-5.69
327.261	-21.69
327.392	1.31
327.524	-12.69
327.656	11.31
327.787	9.31
327.919	14.31
328.051	13.31
328.182	15.31
328.314	18.31
328.446	7.31
328.577	27.31
328.709	7.31
328.841	-9.69
328.972	-0.69
329.104	-7.69
329.235	-8.69
329.367	5.31
329.499	4.31
329.63	4.31
329.762	6.31
329.893	15.31
330.025	-7.69
330.156	-17.69
330.288	9.31
330.419	14.31
330.551	1.31
330.683	-9.69
330.814	7.31
330.946	5.31
331.077	-12.69
331.208	2.31
331.34	4.31
331.471	-7.69
331.603	7.31
331.734	-14.69
331.866	1.31
331.997	3.31
332.129	8.31
332.26	-9.69
332.392	-3.69
332.523	15.31
332.654	4.31
332.786	-8.69
332.917	-23.69
333.048	13.31
333.18	6.31
333.311	-0.69
333.443	11.31
333.574	-2.69
333.705	10.31
333.837	-13.69
333.968	-13.69
334.099	21.31
334.231	18.31
334.362	-1.69
334.493	-1.69
334.624	1.31
334.756	7.31
334.887	1.31
335.018	-6.69
335.15	3.31
335.281	10.31
335.412	7.31
335.543	1.31
335.675	-4.69
335.806	7.31
335.937	-17.69
336.068	1.31
336.199	22.31
336.331	-4.69
336.462	-6.69
336.593	26.31
336.724	-12.69
336.855	-5.69
336.986	10.31
337.118	10.31
337.249	4.31
337.38	4.31
337.511	2.31
337.642	1.31
337.773	-2.69
337.904	17.31
338.035	7.31
338.166	-12.69
338.298	17.31
338.429	-1.69
338.56	18.31
338.691	25.31
338.822	23.31
338.953	1.31
339.084	5.31
339.215	-1.69
339.346	-5.69
339.477	-1.69
339.608	5.31
339.739	4.31
339.87	-6.69
340.001	7.31
340.132	10.31
340.263	17.31
340.394	19.31
340.525	10.31
340.656	-3.69
340.787	-10.69
340.918	20.31
341.049	18.31
341.179	1.31
341.31	0.31
341.441	-7.69
341.572	-0.69
341.703	3.31
341.834	-4.69
341.965	7.31
342.096	-12.69
342.227	-9.69
342.357	3.31
342.488	-11.69
342.619	-7.69
342.75	-19.69
342.881	-22.69
343.012	20.31
343.142	25.31
343.273	-16.69
343.404	-3.69
343.535	21.31
343.666	-0.69
343.796	12.31
343.927	21.31
344.058	7.31
344.189	13.31
344.319	12.31
344.45	17.31
344.581	-10.69
344.712	-16.69
344.842	-6.69
344.973	4.31
345.104	19.31
345.234	-10.69
345.365	-14.69
345.496	-11.69
345.626	-2.69
345.757	11.31
345.888	-11.69
346.018	4.31
346.149	-2.69
346.28	18.31
346.41	0.31
346.541	-0.69
346.672	-24.69
346.802	16.31
346.933	27.31
347.063	3.31
347.194	-10.69
347.325	-5.69
347.455	31.31
347.586	-0.69
347.716	-5.69
347.847	-5.69
347.977	4.31
348.108	11.31
348.238	8.31
348.369	-14.69
348.499	-12.69
348.63	-2.69
348.76	-5.69
348.891	11.31
349.021	-0.69
349.152	15.31
349.282	5.31
349.413	-5.69
349.543	8.31
349.674	6.31
349.804	15.31
349.935	-5.69
350.065	5.31
350.196	-11.69
350.326	11.31
350.456	-15.69
350.587	-12.69
350.717	11.31
350.848	7.31
350.978	16.31
351.108	-8.69
351.239	5.31
351.369	-4.69
351.499	-10.69
351.63	10.31
351.76	13.31
351.89	7.31
352.021	17.31
352.151	-4.69
352.281	-3.69
352.412	3.31
352.542	-11.69
352.672	21.31
352.803	-5.69
352.933	9.31
353.063	9.31
353.193	-12.69
353.324	3.31
353.454	3.31
353.584	21.31
353.714	3.31
353.845	1.31
353.975	14.31
354.105	-4.69
354.235	5.31
354.365	5.31
354.496	0.31
354.626	17.31
354.756	8.31
354.886	3.31
355.016	20.31
355.146	-11.69
355.277	-5.69
355.407	-4.69
355.537	2.31
355.667	-8.69
355.797	3.31
355.927	-15.69
356.057	6.31
356.187	-3.69
356.318	-0.69
356.448	6.31
356.578	24.31
356.708	9.31
356.838	24.31
356.968	1.31
357.098	5.31
357.228	26.31
357.358	-15.69
357.488	-7.69
357.618	14.31
357.748	25.31
357.878	6.31
358.008	14.31
358.138	-0.69
358.268	-0.69
358.398	21.31
358.528	3.31
358.658	11.31
358.788	0.31
358.918	13.31
359.048	6.31
359.178	18.31
359.308	0.31
359.438	29.31
359.568	21.31
359.698	2.31
359.827	-6.69
359.957	7.31
360.087	8.31
360.217	-7.69
360.347	7.31
360.477	13.31
360.607	4.31
360.737	20.31
360.866	1.31
360.996	-3.69
361.126	-18.69
361.256	26.31
361.386	12.31
361.516	5.31
361.645	-3.69
361.775	5.31
361.905	-7.69
362.035	1.31
362.165	2.31
362.294	1.31
362.424	34.31
362.554	8.31
362.684	-0.69
362.813	2.31
362.943	8.31
363.073	-3.69
363.203	-6.69
363.332	-4.69
363.462	-7.69
363.592	-5.69
363.721	-9.69
363.851	-16.69
363.981	0.31
364.111	0.31
364.24	-12.69
364.37	6.31
364.5	6.31
364.629	-15.69
364.759	-17.69
364.888	-30.69
365.018	-4.69
365.148	11.31
365.277	7.31
365.407	13.31
365.537	-4.69
365.666	20.31
365.796	12.31
365.925	-2.69
366.055	6.31
366.184	14.31
366.314	-5.69
366.444	-0.69
366.573	-0.69
366.703	-8.69
366.832	16.31
366.962	14.31
367.091	14.31
367.221	7.31
367.35	-10.69
367.48	35.31
367.609	19.31
367.739	1.31
367.868	-29.69
367.998	9.31
368.127	37.31
368.257	21.31
368.386	18.31
368.516	27.31
368.645	20.31
368.775	9.31
368.904	21.31
369.033	-10.69
369.163	4.31
369.292	15.31
369.422	8.31
369.551	7.31
369.68	13.31
369.81	2.31
369.939	-10.69
370.069	23.31
370.198	14.31
370.327	3.31
370.457	-0.69
370.586	26.31
370.715	-2.69
370.845	-10.69
370.974	11.31
371.103	3.31
371.233	-2.69
371.362	13.31
371.491	-4.69
371.621	4.31
371.75	3.31
371.879	0.31
372.008	8.31
372.138	-2.69
372.267	16.31
372.396	-3.69
372.525	8.31
372.655	10.31
372.784	2.31
372.913	-1.69
373.042	-1.69
373.172	13.31
373.301	-24.69
373.43	-17.69
373.559	-5.69
373.688	8.31
373.818	12.31
373.947	16.31
374.076	-8.69
374.205	23.31
374.334	-1.69
374.463	-19.69
374.593	22.31
374.722	11.31
374.851	15.31
374.98	17.31
375.109	2.31
375.238	7.31
375.367	23.31
375.496	-11.69
375.625	-26.69
375.755	-0.69
375.884	29.31
376.013	-0.69
376.142	-16.69
376.271	-16.69
376.4	10.31
376.529	6.31
376.658	7.31
376.787	10.31
376.916	-0.69
377.045	-16.69
377.174	3.31
377.303	1.31
377.432	25.31
377.561	7.31
377.69	5.31
377.819	27.31
377.948	-0.69
378.077	-9.69
378.206	-5.69
378.335	5.31
378.464	21.31
378.593	13.31
378.722	-2.69
378.851	2.31
378.98	22.31
379.108	-20.69
379.237	-16.69
379.366	8.31
379.495	14.31
379.624	-4.69
379.753	7.31
379.882	-1.69
380.011	14.31
380.14	-1.69
380.268	13.31
380.397	-2.69
380.526	28.31
380.655	-6.69
380.784	-12.69
380.913	-14.69
381.041	3.31
381.17	4.31
381.299	-0.69
381.428	8.31
381.557	0.31
381.685	-8.69
381.814	15.31
381.943	-17.69
382.072	-7.69
382.2	-4.69
382.329	-13.69
382.458	5.31
382.587	17.31
382.715	28.31
382.844	2.31
382.973	9.31
383.102	-0.69
383.23	-11.69
383.359	-10.69
383.488	0.31
383.616	0.31
383.745	-15.69
383.874	-6.69
384.003	12.31
384.131	-7.69
384.26	-15.69
384.389	-2.69
384.517	-4.69
384.646	-7.69
384.774	4.31
384.903	28.31
385.032	26.31
385.16	2.31
385.289	10.31
385.418	1.31
385.546	13.31
385.675	8.31
385.803	2.31
385.932	-1.69
386.06	-3.69
386.189	10.31
386.318	-5.69
386.446	8.31
386.575	2.31
386.703	0.31
386.832	18.31
386.96	-9.69
387.089	1.31
387.217	-0.69
387.346	-5.69
387.474	8.31
387.603	1.31
387.731	10.31
387.86	10.31
387.988	7.31
388.117	14.31
388.245	18.31
388.374	-11.69
388.502	9.31
388.631	1.31
388.759	-4.69
388.888	2.31
389.016	-16.69
389.144	-1.69
389.273	2.31
389.401	-4.69
389.53	-5.69
389.658	2.31
389.786	-9.69
389.915	-27.69
390.043	-20.69
390.172	2.31
390.3	19.31
390.428	28.31
390.557	6.31
390.685	28.31
390.813	-1.69
390.942	5.31
391.07	-5.69
391.198	-1.69
391.327	-5.69
391.455	-27.69
391.583	14.31
391.712	12.31
391.84	5.31
391.968	1.31
392.096	0.31
392.225	11.31
392.353	22.31
392.481	11.31
392.609	16.31
392.738	3.31
392.866	7.31
392.994	-15.69
393.122	23.31
393.251	6.31
393.379	-3.69
393.507	-25.69
393.635	-1.69
393.764	16.31
393.892	31.31
394.02	-2.69
394.148	-8.69
394.276	-0.69
394.404	26.31
394.533	2.31
394.661	21.31
394.789	14.31
394.917	30.31
395.045	7.31
395.173	0.31
395.302	-1.69
395.43	22.31
395.558	9.31
395.686	-8.69
395.814	18.31
395.942	5.31
396.07	2.31
396.198	13.31
396.326	13.31
396.454	12.31
396.582	20.31
396.711	18.31
396.839	11.31
396.967	-7.69
397.095	3.31
397.223	17.31
397.351	15.31
397.479	19.31
397.607	16.31
397.735	20.31
397.863	17.31
397.991	15.31
398.119	2.31
398.247	-9.69
398.375	17.31
398.503	16.31
398.631	14.31
398.759	-8.69
398.887	-7.69
399.015	17.31
399.143	-0.69
399.271	4.31
399.399	15.31
399.526	23.31
399.654	18.31
399.782	-12.69
399.91	39.31
400.038	29.31
400.166	5.31
400.294	21.31
400.422	-6.69
400.55	-1.69
400.678	-10.69
400.805	-3.69
400.933	-5.69
401.061	6.31
401.189	6.31
401.317	23.31
401.445	6.31
401.573	34.31
401.7	9.31
401.828	-2.69
401.956	5.31
402.084	9.31
402.212	4.31
402.34	2.31
402.467	19.31
402.595	11.31
402.723	6.31
402.851	20.31
402.978	14.31
403.106	23.31
403.234	17.31
403.362	16.31
403.489	12.31
403.617	12.31
403.745	20.31
403.873	-8.69
404	11.31
404.128	2.31
404.256	13.31
404.384	23.31
404.511	38.31
404.639	-2.69
404.767	-14.69
404.894	-1.69
405.022	18.31
405.15	10.31
405.277	-14.69
405.405	-7.69
405.533	12.31
405.66	-5.69
405.788	-10.69
405.916	-9.69
406.043	-0.69
406.171	-0.69
406.299	20.31
406.426	11.31
406.554	4.31
406.681	9.31
406.809	13.31
406.937	-12.69
407.064	-15.69
407.192	10.31
407.319	7.31
407.447	-0.69
407.574	32.31
407.702	2.31
407.83	-18.69
407.957	-12.69
408.085	14.31
408.212	11.31
408.34	8.31
408.467	-2.69
408.595	15.31
408.722	29.31
408.85	22.31
408.977	-4.69
409.105	-3.69
409.232	7.31
409.36	3.31
409.487	22.31
409.615	2.31
409.742	18.31
409.87	19.31
409.997	38.31
410.125	41.31
410.252	42.31
410.379	52.31
410.507	24.31
410.634	-7.69
410.762	9.31
410.889	32.31
411.017	-6.69
411.144	19.31
411.271	-5.69
411.399	5.31
411.526	2.31
411.653	16.31
411.781	21.31
411.908	-1.69
412.036	5.31
412.163	28.31
412.29	22.31
412.418	-3.69
412.545	34.31
412.672	15.31
412.8	17.31
412.927	17.31
413.054	11.31
413.182	13.31
413.309	6.31
413.436	-5.69
413.564	-2.69
413.691	2.31
413.818	23.31
413.945	0.31
414.073	5.31
414.2	7.31
414.327	7.31
414.454	28.31
414.582	14.31
414.709	4.31
414.836	-13.69
414.963	3.31
415.091	15.31
415.218	15.31
415.345	12.31
415.472	4.31
415.6	6.31
415.727	8.31
415.854	-20.69
415.981	3.31
416.108	11.31
416.236	4.31
416.363	15.31
416.49	9.31
416.617	8.31
416.744	15.31
416.871	17.31
416.998	2.31
417.126	14.31
417.253	9.31
417.38	10.31
417.507	2.31
417.634	-4.69
417.761	14.31
417.888	11.31
418.015	18.31
418.143	-0.69
418.27	26.31
418.397	1.31
418.524	10.31
418.651	-1.69
418.778	9.31
418.905	33.31
419.032	12.31
419.159	17.31
419.286	28.31
419.413	10.31
419.54	9.31
419.667	-14.69
419.794	-8.69
419.921	1.31
420.048	16.31
420.175	15.31
420.302	-17.69
420.429	17.31
420.556	15.31
420.683	-3.69
420.81	13.31
420.937	31.31
421.064	18.31
421.191	11.31
421.318	11.31
421.445	23.31
421.572	10.31
421.699	0.31
421.826	18.31
421.953	20.31
422.08	15.31
422.207	3.31
422.334	-2.69
422.461	19.31
422.588	15.31
422.714	-3.69
422.841	14.31
422.968	22.31
423.095	26.31
423.222	-22.69
423.349	15.31
423.476	9.31
423.603	3.31
423.729	7.31
423.856	9.31
423.983	20.31
424.11	-2.69
424.237	3.31
424.364	3.31
424.491	6.31
424.617	-4.69
424.744	4.31
424.871	11.31
424.998	2.31
425.125	-6.69
425.251	9.31
425.378	0.31
425.505	-1.69
425.632	-6.69
425.758	-8.69
425.885	-1.69
426.012	16.31
426.139	28.31
426.266	-4.69
426.392	4.31
426.519	11.31
426.646	5.31
426.772	14.31
426.899	21.31
427.026	7.31
427.153	17.31
427.279	20.31
427.406	-5.69
427.533	-8.69
427.659	3.31
427.786	0.31
427.913	27.31
428.039	-8.69
428.166	-11.69
428.293	12.31
428.419	15.31
428.546	12.31
428.673	-16.69
428.799	-13.69
428.926	3.31
429.053	16.31
429.179	15.31
429.306	-17.69
429.433	16.31
429.559	18.31
429.686	3.31
429.812	-24.69
429.939	4.31
430.066	8.31
430.192	-10.69
430.319	10.31
430.445	-6.69
430.572	-4.69
430.699	-14.69
430.825	-0.69
430.952	11.31
431.078	-3.69
431.205	1.31
431.331	-9.69
431.458	10.31
431.584	7.31
431.711	-1.69
431.837	12.31
431.964	-1.69
432.09	-2.69
432.217	-9.69
432.343	-5.69
432.47	22.31
432.596	-1.69
432.723	-2.69
432.849	-8.69
432.976	20.31
433.102	7.31
433.229	16.31
433.355	31.31
433.482	64.31
433.608	177.31
433.735	161.31
433.861	137.31
433.987	167.31
434.114	265.31
434.24	201.31
434.367	71.31
434.493	9.31
434.62	36.31
434.746	22.31
434.872	14.31
434.999	17.31
435.125	20.31
435.252	-1.69
435.378	-2.69
435.504	-9.69
435.631	17.31
435.757	-0.69
435.883	8.31
436.01	7.31
436.136	-9.69
436.262	-2.69
436.389	-1.69
436.515	11.31
436.641	7.31
436.768	-1.69
436.894	2.31
437.02	17.31
437.147	25.31
437.273	5.31
437.399	22.31
437.526	26.31
437.652	20.31
437.778	6.31
437.904	-8.69
438.031	7.31
438.157	4.31
438.283	-1.69
438.409	-4.69
438.536	3.31
438.662	20.31
438.788	4.31
438.914	18.31
439.041	4.31
439.167	42.31
439.293	6.31
439.419	19.31
439.546	11.31
439.672	13.31
439.798	1.31
439.924	-5.69
440.05	26.31
440.177	24.31
440.303	12.31
440.429	-5.69
440.555	9.31
440.681	3.31
440.807	13.31
440.934	15.31
441.06	15.31
441.186	10.31
441.312	-0.69
441.438	20.31
441.564	3.31
441.69	2.31
441.816	-3.69
441.943	-7.69
442.069	6.31
442.195	5.31
442.321	11.31
442.447	-10.69
442.573	-3.69
442.699	-17.69
442.825	-0.69
442.951	24.31
443.077	25.31
443.203	25.31
443.33	-12.69
443.456	-7.69
443.582	9.31
443.708	11.31
443.834	12.31
443.96	16.31
444.086	-2.69
444.212	18.31
444.338	19.31
444.464	18.31
444.59	23.31
444.716	5.31
444.842	2.31
444.968	7.31
445.094	-7.69
445.22	-2.69
445.346	-22.69
445.472	9.31
445.598	7.31
445.724	6.31
445.85	-7.69
445.976	-10.69
446.102	22.31
446.228	11.31
446.354	15.31
446.48	7.31
446.605	-0.69
446.731	0.31
446.857	2.31
446.983	23.31
447.109	17.31
447.235	18.31
447.361	-6.69
447.487	6.31
447.613	1.31
447.739	-6.69
447.865	3.31
447.99	7.31
448.116	19.31
448.242	12.31
448.368	9.31
448.494	0.31
448.62	27.31
448.746	16.31
448.872	17.31
448.997	-6.69
449.123	14.31
449.249	18.31
449.375	13.31
449.501	0.31
449.627	-13.69
449.752	30.31
449.878	1.31
450.004	6.31
450.13	23.31
450.256	11.31
450.381	14.31
450.507	12.31
450.633	2.31
450.759	19.31
450.884	3.31
451.01	14.31
451.136	1.31
451.262	23.31
451.388	2.31
451.513	-4.69
451.639	-1.69
451.765	-5.69
451.89	5.31
452.016	7.31
452.142	9.31
452.268	19.31
452.393	16.31
452.519	1.31
452.645	8.31
452.771	11.31
452.896	-0.69
453.022	4.31
453.148	23.31
453.273	10.31
453.399	13.31
453.525	-4.69
453.65	5.31
453.776	30.31
453.902	20.31
454.027	12.31
454.153	11.31
454.279	22.31
454.404	-1.69
454.53	23.31
454.656	24.31
454.781	7.31
454.907	8.31
455.032	5.31
455.158	6.31
455.284	21.31
455.409	9.31
455.535	9.31
455.66	8.31
455.786	13.31
455.912	11.31
456.037	7.31
456.163	2.31
456.288	25.31
456.414	-9.69
456.539	-15.69
456.665	7.31
456.791	-4.69
456.916	3.31
457.042	-7.69
457.167	-3.69
457.293	15.31
457.418	16.31
457.544	1.31
457.669	-5.69
457.795	13.31
457.92	-5.69
458.046	5.31
458.171	4.31
458.297	10.31
458.422	-0.69
458.548	-0.69
458.673	-1.69
458.799	25.31
458.924	5.31
459.05	9.31
459.175	-2.69
459.301	15.31
459.426	14.31
459.552	8.31
459.677	2.31
459.803	18.31
459.928	4.31
460.053	0.31
460.179	-2.69
460.304	31.31
460.43	8.31
460.555	-2.69
460.681	2.31
460.806	22.31
460.931	13.31
461.057	12.31
461.182	5.31
461.308	5.31
461.433	19.31
461.558	1.31
461.684	25.31
461.809	25.31
461.934	19.31
462.06	10.31
462.185	0.31
462.311	14.31
462.436	8.31
462.561	3.31
462.687	-5.69
462.812	7.31
462.937	-9.69
463.063	-10.69
463.188	3.31
463.313	26.31
463.439	10.31
463.564	-7.69
463.689	19.31
463.814	10.31
463.94	-1.69
464.065	24.31
464.19	35.31
464.316	8.31
464.441	-0.69
464.566	-5.69
464.692	-2.69
464.817	6.31
464.942	-0.69
465.067	3.31
465.193	-10.69
465.318	11.31
465.443	-0.69
465.568	7.31
465.694	-8.69
465.819	45.31
465.944	14.31
466.069	5.31
466.194	13.31
466.32	6.31
466.445	5.31
466.57	3.31
466.695	1.31
466.82	13.31
466.946	17.31
467.071	15.31
467.196	2.31
467.321	11.31
467.446	4.31
467.572	14.31
467.697	-18.69
467.822	18.31
467.947	-3.69
468.072	-12.69
468.197	-13.69
468.323	-5.69
468.448	-11.69
468.573	-0.69
468.698	-0.69
468.823	7.31
468.948	6.31
469.073	22.31
469.198	18.31
469.324	22.31
469.449	9.31
469.574	18.31
469.699	7.31
469.824	15.31
469.949	28.31
470.074	23.31
470.199	39.31
470.324	27.31
470.449	20.31
470.574	9.31
470.7	15.31
470.825	30.31
470.95	9.31
471.075	-8.69
471.2	12.31
471.325	14.31
471.45	-3.69
471.575	-9.69
471.7	20.31
471.825	10.31
471.95	26.31
472.075	-5.69
472.2	11.31
472.325	10.31
472.45	9.31
472.575	6.31
472.7	6.31
472.825	13.31
472.95	14.31
473.075	20.31
473.2	3.31
473.325	11.31
473.45	-0.69
473.575	6.31
473.7	16.31
473.825	5.31
473.95	16.31
474.075	7.31
474.2	3.31
474.325	7.31
474.45	38.31
474.574	18.31
474.699	15.31
474.824	16.31
474.949	-1.69
475.074	-17.69
475.199	25.31
475.324	11.31
475.449	-1.69
475.574	22.31
475.699	19.31
475.824	9.31
475.949	-12.69
476.073	10.31
476.198	7.31
476.323	14.31
476.448	5.31
476.573	6.31
476.698	11.31
476.823	5.31
476.947	8.31
477.072	7.31
477.197	14.31
477.322	13.31
477.447	10.31
477.572	6.31
477.697	15.31
477.821	14.31
477.946	6.31
478.071	10.31
478.196	16.31
478.321	30.31
478.445	4.31
478.57	-0.69
478.695	-2.69
478.82	8.31
478.945	12.31
479.069	4.31
479.194	19.31
479.319	21.31
479.444	19.31
479.569	1.31
479.693	16.31
479.818	2.31
479.943	20.31
480.068	9.31
480.192	15.31
480.317	11.31
480.442	10.31
480.567	-1.69
480.691	1.31
480.816	-2.69
480.941	6.31
481.066	3.31
481.19	13.31
481.315	7.31
481.44	3.31
481.564	9.31
481.689	23.31
481.814	14.31
481.938	11.31
482.063	5.31
482.188	13.31
482.313	21.31
482.437	5.31
482.562	26.31
482.687	26.31
482.811	21.31
482.936	25.31
483.061	30.31
483.185	6.31
483.31	35.31
483.435	22.31
483.559	20.31
483.684	12.31
483.808	39.31
483.933	15.31
484.058	7.31
484.182	-8.69
484.307	16.31
484.432	17.31
484.556	19.31
484.681	36.31
484.805	41.31
484.93	32.31
485.055	46.31
485.179	74.31
485.304	132.31
485.428	390.31
485.553	1278.31
485.678	1790.31
485.802	1676.31
485.927	1880.31
486.051	2773.31
486.176	1659.31
486.3	460.31
486.425	146.31
486.549	89.31
486.674	65.31
486.799	51.31
486.923	5.31
487.048	20.31
487.172	24.31
487.297	24.31
487.421	21.31
487.546	16.31
487.67	31.31
487.795	10.31
487.919	15.31
488.044	35.31
488.168	21.31
488.293	15.31
488.417	1.31
488.542	26.31
488.666	20.31
488.791	33.31
488.915	8.31
489.04	24.31
489.164	20.31
489.289	31.31
489.413	1.31
489.538	17.31
489.662	26.31
489.786	13.31
489.911	21.31
490.035	5.31
490.16	-5.69
490.284	3.31
490.409	-1.69
490.533	17.31
490.658	28.31
490.782	8.31
490.906	9.31
491.031	15.31
491.155	9.31
491.28	11.31
491.404	11.31
491.528	26.31
491.653	15.31
491.777	6.31
491.902	-12.69
492.026	19.31
492.15	14.31
492.275	43.31
492.399	9.31
492.524	-3.69
492.648	22.31
492.772	20.31
492.897	29.31
493.021	33.31
493.145	15.31
493.27	27.31
493.394	2.31
493.518	2.31
493.643	2.31
493.767	32.31
493.891	-7.69
494.016	23.31
494.14	16.31
494.264	6.31
494.389	11.31
494.513	5.31
494.637	13.31
494.762	26.31
494.886	-3.69
495.01	7.31
495.134	15.31
495.259	25.31
495.383	6.31
495.507	10.31
495.632	19.31
495.756	33.31
495.88	26.31
496.004	30.31
496.129	3.31
496.253	26.31
496.377	26.31
496.501	18.31
496.626	7.31
496.75	30.31
496.874	26.31
496.998	-12.69
497.123	5.31
497.247	8.31
497.371	5.31
497.495	20.31
497.62	15.31
497.744	-8.69
497.868	3.31
497.992	10.31
498.116	7.31
498.241	10.31
498.365	15.31
498.489	3.31
498.613	35.31
498.737	25.31
498.862	-0.69
498.986	-1.69
499.11	7.31
499.234	14.31
499.358	6.31
499.482	6.31
499.607	23.31
499.731	26.31
499.855	11.31
499.979	20.31
500.103	7.31
500.227	25.31
500.351	10.31
500.476	17.31
500.6	7.31
500.724	22.31
500.848	10.31
500.972	23.31
501.096	23.31
501.22	29.31
501.344	15.31
501.469	9.31
501.593	25.31
501.717	22.31
501.841	10.31
501.965	9.31
502.089	-2.69
502.213	19.31
502.337	0.31
502.461	-0.69
502.585	-10.69
502.709	-3.69
502.834	2.31
502.958	0.31
503.082	3.31
503.206	11.31
503.33	10.31
503.454	14.31
503.578	15.31
503.702	-0.69
503.826	10.31
503.95	13.31
504.074	7.31
504.198	18.31
504.322	-2.69
504.446	1.31
504.57	3.31
504.694	9.31
504.818	4.31
504.942	31.31
505.066	19.31
505.19	-1.69
505.314	19.31
505.438	11.31
505.562	16.31
505.686	11.31
505.81	12.31
505.934	10.31
506.058	-2.69
506.182	10.31
506.306	27.31
506.43	17.31
506.554	8.31
506.678	8.31
506.802	9.31
506.926	13.31
507.05	17.31
507.174	25.31
507.298	10.31
507.422	18.31
507.546	21.31
507.67	15.31
507.794	-7.69
507.918	-12.69
508.042	13.31
508.165	-4.69
508.289	3.31
508.413	8.31
508.537	-11.69
508.661	11.31
508.785	31.31
508.909	22.31
509.033	5.31
509.157	13.31
509.281	16.31
509.405	8.31
509.528	17.31
509.652	27.31
509.776	11.31
509.9	28.31
510.024	19.31
510.148	21.31
510.272	0.31
510.396	5.31
510.519	-1.69
510.643	20.31
510.767	6.31
510.891	12.31
511.015	5.31
511.139	19.31
511.263	26.31
511.386	2.31
511.51	13.31
511.634	9.31
511.758	-4.69
511.882	-16.69
512.006	28.31
512.129	32.31
512.253	31.31
512.377	0.31
512.501	14.31
512.625	8.31
512.748	-20.69
512.872	3.31
512.996	4.31
513.12	19.31
513.244	-2.69
513.367	24.31
513.491	8.31
513.615	12.31
513.739	11.31
513.862	15.31
513.986	-1.69
514.11	16.31
514.234	-1.69
514.358	28.31
514.481	18.31
514.605	5.31
514.729	18.31
514.853	20.31
514.976	-6.69
515.1	0.31
515.224	41.31
515.348	1.31
515.471	7.31
515.595	7.31
515.719	25.31
515.842	23.31
515.966	-17.69
516.09	43.31
516.214	9.31
516.337	24.31
516.461	11.31
516.585	7.31
516.708	33.31
516.832	8.31
516.956	13.31
517.08	10.31
517.203	-3.69
517.327	17.31
517.451	30.31
517.574	31.31
517.698	-6.69
517.822	20.31
517.945	21.31
518.069	33.31
518.193	37.31
518.316	32.31
518.44	18.31
518.564	22.31
518.687	15.31
518.811	35.31
518.935	48.31
519.058	25.31
519.182	15.31
519.306	41.31
519.429	21.31
519.553	47.31
519.676	14.31
519.8	9.31
519.924	10.31
520.047	11.31
520.171	-4.69
520.294	22.31
520.418	19.31
520.542	23.31
520.665	20.31
520.789	14.31
520.913	-4.69
521.036	-18.69
521.16	-3.69
521.283	4.31
521.407	-7.69
521.53	0.31
521.654	-1.69
521.778	25.31
521.901	27.31
522.025	21.31
522.148	14.31
522.272	13.31
522.395	-2.69
522.519	18.31
522.643	19.31
522.766	16.31
522.89	0.31
523.013	19.31
523.137	-21.69
523.26	4.31
523.384	5.31
523.507	13.31
523.631	13.31
523.754	19.31
523.878	13.31
524.002	18.31
524.125	2.31
524.249	-5.69
524.372	11.31
524.496	16.31
524.619	17.31
524.743	19.31
524.866	20.31
524.99	10.31
525.113	-14.69
525.237	8.31
525.36	6.31
525.484	5.31
525.607	0.31
525.731	-9.69
525.854	4.31
525.978	26.31
526.101	-2.69
526.224	5.31
526.348	4.31
526.471	7.31
526.595	-2.69
526.718	0.31
526.842	-0.69
526.965	24.31
527.089	-4.69
527.212	4.31
527.336	5.31
527.459	19.31
527.582	7.31
527.706	15.31
527.829	-4.69
527.953	23.31
528.076	-9.69
528.2	0.31
528.323	22.31
528.446	21.31
528.57	-8.69
528.693	16.31
528.817	17.31
528.94	19.31
529.064	28.31
529.187	6.31
529.31	14.31
529.434	28.31
529.557	5.31
529.68	17.31
529.804	16.31
529.927	-6.69
530.051	7.31
530.174	7.31
530.297	6.31
530.421	18.31
530.544	21.31
530.668	9.31
530.791	-8.69
530.914	15.31
531.038	4.31
531.161	1.31
531.284	6.31
531.408	12.31
531.531	-5.69
531.654	-1.69
531.778	11.31
531.901	18.31
532.024	13.31
532.148	-18.69
532.271	-1.69
532.394	16.31
532.518	43.31
532.641	11.31
532.764	5.31
532.888	27.31
533.011	9.31
533.134	-3.69
533.258	31.31
533.381	23.31
533.504	17.31
533.628	16.31
533.751	6.31
533.874	12.31
533.997	16.31
534.121	3.31
534.244	2.31
534.367	10.31
534.491	16.31
534.614	-1.69
534.737	18.31
534.86	14.31
534.984	5.31
535.107	-0.69
535.23	18.31
535.354	13.31
535.477	-1.69
535.6	7.31
535.723	9.31
535.847	8.31
535.97	17.31
536.093	8.31
536.216	-3.69
536.34	8.31
536.463	-4.69
536.586	8.31
536.709	3.31
536.833	9.31
536.956	8.31
537.079	6.31
537.202	-3.69
537.325	8.31
537.449	-8.69
537.572	14.31
537.695	-1.69
537.818	3.31
537.941	7.31
538.065	13.31
538.188	17.31
538.311	25.31
538.434	5.31
538.558	23.31
538.681	13.31
538.804	2.31
538.927	7.31
539.05	14.31
539.173	11.31
539.297	6.31
539.42	4.31
539.543	19.31
539.666	10.31
539.789	14.31
539.913	-4.69
540.036	11.31
540.159	23.31
540.282	0.31
540.405	-12.69
540.528	3.31
540.651	12.31
540.775	2.31
540.898	4.31
541.021	19.31
541.144	27.31
541.267	10.31
541.39	13.31
541.513	17.31
541.637	8.31
541.76	2.31
541.883	-1.69
542.006	21.31
542.129	26.31
542.252	18.31
542.375	-0.69
542.498	19.31
542.622	18.31
542.745	17.31
542.868	20.31
542.991	17.31
543.114	18.31
543.237	29.31
543.36	10.31
543.483	7.31
543.606	21.31
543.73	13.31
543.853	0.31
543.976	5.31
544.099	12.31
544.222	3.31
544.345	-15.69
544.468	6.31
544.591	14.31
544.714	-1.69
544.837	15.31
544.96	13.31
545.083	10.31
545.206	26.31
545.329	25.31
545.453	2.31
545.576	20.31
545.699	3.31
545.822	17.31
545.945	19.31
546.068	-1.69
546.191	14.31
546.314	6.31
546.437	8.31
546.56	-0.69
546.683	6.31
546.806	27.31
546.929	3.31
547.052	-8.69
547.175	18.31
547.298	21.31
547.421	5.31
547.544	-6.69
547.667	15.31
547.79	17.31
547.913	-17.69
548.036	0.31
548.159	-7.69
548.282	8.31
548.405	5.31
548.528	5.31
548.651	0.31
548.774	5.31
548.897	20.31
549.02	16.31
549.143	16.31
549.266	27.31
549.389	32.31
549.512	8.31
549.635	20.31
549.758	14.31
549.881	10.31
550.004	-0.69
550.127	6.31
550.25	-1.69
550.373	6.31
550.496	22.31
550.619	9.31
550.742	-0.69
550.865	-8.69
550.988	-2.69
551.111	-4.69
551.234	9.31
551.356	1.31
551.479	4.31
551.602	8.31
551.725	23.31
551.848	20.31
551.971	19.31
552.094	18.31
552.217	9.31
552.34	15.31
552.463	-2.69
552.586	13.31
552.709	9.31
552.832	5.31
552.955	25.31
553.077	30.31
553.2	11.31
553.323	2.31
553.446	3.31
553.569	4.31
553.692	14.31
553.815	16.31
553.938	35.31
554.061	19.31
554.184	7.31
554.306	1.31
554.429	6.31
554.552	5.31
554.675	-0.69
554.798	4.31
554.921	8.31
555.044	11.31
555.167	-2.69
555.29	-5.69
555.412	6.31
555.535	2.31
555.658	8.31
555.781	6.31
555.904	15.31
556.027	27.31
556.15	2.31
556.272	1.31
556.395	9.31
556.518	11.31
556.641	11.31
556.764	23.31
556.887	21.31
557.01	9.31
557.132	-8.69
557.255	3.31
557.378	9.31
557.501	-0.69
557.624	37.31
557.747	25.31
557.869	17.31
557.992	7.31
558.115	5.31
558.238	0.31
558.361	13.31
558.483	27.31
558.606	17.31
558.729	8.31
558.852	31.31
558.975	31.31
559.098	15.31
559.22	14.31
559.343	12.31
559.466	16.31
559.589	-3.69
559.712	21.31
559.834	15.31
559.957	14.31
560.08	3.31
560.203	11.31
560.325	27.31
560.448	35.31
560.571	9.31
560.694	9.31
560.817	17.31
560.939	5.31
561.062	-14.69
561.185	6.31
561.308	7.31
561.43	-7.69
561.553	-7.69
561.676	5.31
561.799	19.31
561.921	3.31
562.044	19.31
562.167	1.31
562.29	27.31
562.413	25.31
562.535	2.31
562.658	-5.69
562.781	-1.69
562.903	9.31
563.026	12.31
563.149	38.31
563.272	14.31
563.394	16.31
563.517	11.31
563.64	-8.69
563.763	15.31
563.885	21.31
564.008	24.31
564.131	9.31
564.254	-4.69
564.376	16.31
564.499	-7.69
564.622	-5.69
564.744	30.31
564.867	13.31
564.99	-5.69
565.113	9.31
565.235	8.31
565.358	1.31
565.481	-3.69
565.603	11.31
565.726	19.31
565.849	29.31
565.971	21.31
566.094	10.31
566.217	3.31
566.34	-2.69
566.462	9.31
566.585	23.31
566.708	43.31
566.83	30.31
566.953	22.31
567.076	27.31
567.198	24.31
567.321	8.31
567.444	13.31
567.566	9.31
567.689	-17.69
567.812	-0.69
567.934	18.31
568.057	17.31
568.18	14.31
568.302	-16.69
568.425	3.31
568.548	15.31
568.67	22.31
568.793	22.31
568.916	-4.69
569.038	-12.69
569.161	3.31
569.283	15.31
569.406	3.31
569.529	6.31
569.651	2.31
569.774	15.31
569.897	-3.69
570.019	16.31
570.142	10.31
570.265	19.31
570.387	9.31
570.51	9.31
570.632	6.31
570.755	3.31
570.878	-2.69
571	14.31
571.123	10.31
571.246	7.31
571.368	2.31
571.491	-0.69
571.613	-17.69
571.736	-4.69
571.859	4.31
571.981	0.31
572.104	-18.69
572.226	29.31
572.349	5.31
572.472	12.31
572.594	21.31
572.717	19.31
572.839	-12.69
572.962	12.31
573.085	24.31
573.207	3.31
573.33	24.31
573.452	10.31
573.575	18.31
573.697	10.31
573.82	5.31
573.943	1.31
574.065	15.31
574.188	9.31
574.31	24.31
574.433	31.31
574.555	28.31
574.678	17.31
574.801	23.31
574.923	6.31
575.046	7.31
575.168	-0.69
575.291	6.31
575.413	5.31
575.536	-1.69
575.659	26.31
575.781	-1.69
575.904	-1.69
576.026	23.31
576.149	13.31
576.271	5.31
576.394	7.31
576.516	1.31
576.639	33.31
576.761	5.31
576.884	-1.69
577.007	-7.69
577.129	11.31
577.252	3.31
577.374	36.31
577.497	13.31
577.619	5.31
577.742	-1.69
577.864	16.31
577.987	24.31
578.109	23.31
578.232	16.31
578.354	23.31
578.477	7.31
578.599	6.31
578.722	5.31
578.844	-2.69
578.967	18.31
579.089	-2.69
579.212	-8.69
579.334	18.31
579.457	-0.69
579.579	23.31
579.702	1.31
579.824	-1.69
579.947	-16.69
580.069	0.31
580.192	-1.69
580.314	1.31
580.437	2.31
580.559	42.31
580.682	14.31
580.804	5.31
580.927	14.31
581.049	39.31
581.172	8.31
581.294	8.31
581.417	8.31
581.539	5.31
581.662	19.31
581.784	13.31
581.907	10.31
582.029	19.31
582.152	7.31
582.274	13.31
582.396	14.31
582.519	9.31
582.641	-4.69
582.764	5.31
582.886	28.31
583.009	-0.69
583.131	11.31
583.254	9.31
583.376	14.31
583.499	6.31
583.621	20.31
583.743	24.31
583.866	2.31
583.988	16.31
584.111	20.31
584.233	34.31
584.356	33.31
584.478	14.31
584.601	-3.69
584.723	4.31
584.845	13.31
584.968	22.31
585.09	-4.69
585.213	9.31
585.335	-0.69
585.458	20.31
585.58	3.31
585.702	27.31
585.825	4.31
585.947	4.31
586.07	-22.69
586.192	-5.69
586.315	10.31
586.437	6.31
586.559	14.31
586.682	-6.69
586.804	7.31
586.927	6.31
587.049	0.31
587.171	13.31
587.294	24.31
587.416	13.31
587.539	4.31
587.661	22.31
587.783	0.31
587.906	2.31
588.028	12.31
588.151	23.31
588.273	23.31
588.395	8.31
588.518	-5.69
588.64	-14.69
588.763	10.31
588.885	19.31
589.007	18.31
589.13	11.31
589.252	8.31
589.375	5.31
589.497	14.31
589.619	1.31
589.742	14.31
589.864	29.31
589.986	6.31
590.109	-6.69
590.231	6.31
590.354	14.31
590.476	6.31
590.598	5.31
590.721	1.31
590.843	9.31
590.965	-1.69
591.088	23.31
591.21	8.31
591.332	-0.69
591.455	-11.69
591.577	-2.69
591.7	1.31
591.822	1.31
591.944	12.31
592.067	11.31
592.189	2.31
592.311	-0.69
592.434	-4.69
592.556	14.31
592.678	8.31
592.801	12.31
592.923	3.31
593.045	-12.69
593.168	12.31
593.29	-2.69
593.412	5.31
593.535	4.31
593.657	10.31
593.779	-2.69
593.902	20.31
594.024	13.31
594.146	18.31
594.269	-2.69
594.391	-9.69
594.513	5.31
594.636	-2.69
594.758	11.31
594.88	11.31
595.003	23.31
595.125	13.31
595.247	6.31
595.37	12.31
595.492	14.31
595.614	38.31
595.737	11.31
595.859	11.31
595.981	7.31
596.104	13.31
596.226	4.31
596.348	-15.69
596.471	-1.69
596.593	-1.69
596.715	12.31
596.838	4.31
596.96	-1.69
597.082	4.31
597.204	6.31
597.327	3.31
597.449	-8.69
597.571	18.31
597.694	19.31
597.816	17.31
597.938	10.31
598.061	1.31
598.183	3.31
598.305	23.31
598.427	27.31
598.55	19.31
598.672	29.31
598.794	26.31
598.917	1.31
599.039	10.31
599.161	3.31
599.283	12.31
599.406	14.31
599.528	22.31
599.65	22.31
599.773	16.31
599.895	25.31
600.017	21.31
600.139	11.31
600.262	3.31
600.384	-4.69
600.506	1.31
600.628	9.31
600.751	19.31
600.873	7.31
600.995	-9.69
601.118	6.31
601.24	-0.69
601.362	28.31
601.484	1.31
601.607	24.31
601.729	6.31
601.851	-1.69
601.973	-0.69
602.096	13.31
602.218	19.31
602.34	17.31
602.462	18.31
602.585	25.31
602.707	-8.69
602.829	18.31
602.951	11.31
603.074	-6.69
603.196	11.31
603.318	7.31
603.44	12.31
603.563	22.31
603.685	-0.69
603.807	16.31
603.929	15.31
604.052	6.31
604.174	26.31
604.296	14.31
604.418	9.31
604.541	18.31
604.663	15.31
604.785	12.31
604.907	3.31
605.03	3.31
605.152	38.31
605.274	0.31
605.396	14.31
605.519	10.31
605.641	0.31
605.763	11.31
605.885	7.31
606.008	5.31
606.13	7.31
606.252	29.31
606.374	-4.69
606.496	-11.69
606.619	7.31
606.741	9.31
606.863	39.31
606.985	28.31
607.108	18.31
607.23	9.31
607.352	0.31
607.474	1.31
607.596	-3.69
607.719	1.31
607.841	8.31
607.963	18.31
608.085	15.31
608.207	36.31
608.33	9.31
608.452	1.31
608.574	-1.69
608.696	14.31
608.819	14.31
608.941	10.31
609.063	-0.69
609.185	-12.69
609.307	16.31
609.43	19.31
609.552	1.31
609.674	-10.69
609.796	12.31
609.918	13.31
610.041	8.31
610.163	15.31
610.285	15.31
610.407	11.31
610.529	-6.69
610.652	17.31
610.774	5.31
610.896	-3.69
611.018	3.31
611.14	8.31
611.263	2.31
611.385	9.31
611.507	10.31
611.629	-4.69
611.751	-5.69
611.873	24.31
611.996	7.31
612.118	9.31
612.24	-11.69
612.362	23.31
612.484	34.31
612.607	26.31
612.729	31.31
612.851	8.31
612.973	-4.69
613.095	6.31
613.218	12.31
613.34	16.31
613.462	18.31
613.584	16.31
613.706	19.31
613.828	29.31
613.951	-3.69
614.073	12.31
614.195	-10.69
614.317	28.31
614.439	17.31
614.561	19.31
614.684	13.31
614.806	10.31
614.928	15.31
615.05	25.31
615.172	18.31
615.294	22.31
615.417	9.31
615.539	4.31
615.661	21.31
615.783	35.31
615.905	37.31
616.027	78.31
616.15	109.31
616.272	85.31
616.394	50.31
616.516	25.31
616.638	34.31
616.76	27.31
616.883	17.31
617.005	8.31
617.127	11.31
617.249	11.31
617.371	-7.69
617.493	2.31
617.615	28.31
617.738	22.31
617.86	6.31
617.982	17.31
618.104	3.31
618.226	0.31
618.348	9.31
618.471	12.31
618.593	24.31
618.715	16.31
618.837	4.31
618.959	3.31
619.081	2.31
619.203	12.31
619.326	6.31
619.448	13.31
619.57	19.31
619.692	1.31
619.814	16.31
619.936	11.31
620.058	17.31
620.181	3.31
620.303	1.31
620.425	9.31
620.547	-11.69
620.669	18.31
620.791	2.31
620.913	3.31
621.036	-14.69
621.158	9.31
621.28	6.31
621.402	-4.69
621.524	15.31
621.646	9.31
621.768	4.31
621.891	0.31
622.013	10.31
622.135	0.31
622.257	15.31
622.379	10.31
622.501	-8.69
622.623	-4.69
622.745	16.31
622.868	18.31
622.99	-3.69
623.112	13.31
623.234	6.31
623.356	13.31
623.478	3.31
623.6	10.31
623.722	-2.69
623.845	5.31
623.967	6.31
624.089	26.31
624.211	3.31
624.333	23.31
624.455	14.31
624.577	4.31
624.699	18.31
624.822	7.31
624.944	10.31
625.066	7.31
625.188	1.31
625.31	14.31
625.432	15.31
625.554	4.31
625.676	20.31
625.799	15.31
625.921	12.31
626.043	13.31
626.165	7.31
626.287	-17.69
626.409	-0.69
626.531	-1.69
626.653	11.31
626.775	6.31
626.898	5.31
627.02	7.31
627.142	11.31
627.264	17.31
627.386	2.31
627.508	10.31
627.63	-16.69
627.752	4.31
627.874	7.31
627.997	17.31
628.119	-6.69
628.241	11.31
628.363	30.31
628.485	23.31
628.607	-8.69
628.729	6.31
628.851	-11.69
628.973	14.31
629.096	-6.69
629.218	4.31
629.34	10.31
629.462	11.31
629.584	4.31
629.706	17.31
629.828	26.31
629.95	9.31
630.072	-10.69
630.195	-1.69
630.317	0.31
630.439	1.31
630.561	-4.69
630.683	-12.69
630.805	19.31
630.927	20.31
631.049	6.31
631.171	-3.69
631.293	4.31
631.416	7.31
631.538	-6.69
631.66	7.31
631.782	24.31
631.904	30.31
632.026	3.31
632.148	1.31
632.27	3.31
632.392	12.31
632.514	6.31
632.637	14.31
632.759	10.31
632.881	-11.69
633.003	-5.69
633.125	2.31
633.247	3.31
633.369	-6.69
633.491	-2.69
633.613	12.31
633.735	9.31
633.858	6.31
633.98	12.31
634.102	0.31
634.224	-6.69
634.346	5.31
634.468	13.31
634.59	-2.69
634.712	-6.69
634.834	-6.69
634.956	-7.69
635.078	-9.69
635.201	-13.69
635.323	9.31
635.445	-1.69
635.567	-7.69
635.689	15.31
635.811	-5.69
635.933	-10.69
636.055	15.31
636.177	3.31
636.299	28.31
636.421	-2.69
636.544	6.31
636.666	8.31
636.788	13.31
636.91	12.31
637.032	3.31
637.154	-0.69
637.276	44.31
637.398	15.31
637.52	17.31
637.642	8.31
637.764	12.31
637.887	15.31
638.009	0.31
638.131	5.31
638.253	4.31
638.375	1.31
638.497	14.31
638.619	-1.69
638.741	-0.69
638.863	-9.69
638.985	-4.69
639.107	-12.69
639.23	14.31
639.352	-1.69
639.474	4.31
639.596	9.31
639.718	9.31
639.84	1.31
639.962	-6.69
640.084	5.31
640.206	29.31
640.328	13.31
640.45	5.31
640.573	9.31
640.695	10.31
640.817	13.31
640.939	14.31
641.061	0.31
641.183	7.31
641.305	11.31
641.427	6.31
641.549	-11.69
641.671	6.31
641.793	12.31
641.915	19.31
642.038	3.31
642.16	1.31
642.282	4.31
642.404	-2.69
642.526	3.31
642.648	-6.69
642.77	-4.69
642.892	-2.69
643.014	32.31
643.136	27.31
643.258	9.31
643.381	23.31
643.503	38.31
643.625	13.31
643.747	-16.69
643.869	-5.69
643.991	17.31
644.113	8.31
644.235	15.31
644.357	10.31
644.479	16.31
644.601	15.31
644.723	12.31
644.846	6.31
644.968	12.31
645.09	10.31
645.212	4.31
645.334	-0.69
645.456	30.31
645.578	37.31
645.7	6.31
645.822	25.31
645.944	13.31
646.066	-8.69
646.188	-7.69
646.311	27.31
646.433	5.31
646.555	42.31
646.677	48.31
646.799	28.31
646.921	6.31
647.043	21.31
647.165	-2.69
647.287	10.31
647.409	14.31
647.531	6.31
647.654	-8.69
647.776	23.31
647.898	15.31
648.02	-5.69
648.142	1.31
648.264	9.31
648.386	7.31
648.508	-12.69
648.63	-0.69
648.752	12.31
648.874	2.31
648.997	-10.69
649.119	26.31
649.241	17.31
649.363	11.31
649.485	21.31
649.607	19.31
649.729	8.31
649.851	18.31
649.973	4.31
650.095	26.31
650.217	10.31
650.34	12.31
650.462	21.31
650.584	3.31
650.706	22.31
650.828	17.31
650.95	-16.69
651.072	17.31
651.194	-4.69
651.316	-0.69
651.438	37.31
651.56	-0.69
651.683	-0.69
651.805	19.31
651.927	-9.69
652.049	15.31
652.171	5.31
652.293	6.31
652.415	7.31
652.537	-1.69
652.659	6.31
652.781	14.31
652.903	-2.69
653.026	31.31
653.148	12.31
653.27	4.31
653.392	-2.69
653.514	1.31
653.636	-6.69
653.758	11.31
653.88	-1.69
654.002	1.31
654.124	-1.69
654.247	10.31
654.369	26.31
654.491	9.31
654.613	3.31
654.735	-9.69
654.857	25.31
654.979	26.31
655.101	25.31
655.223	45.31
655.345	13.31
655.468	22.31
655.59	14.31
655.712	40.31
655.834	30.31
655.956	41.31
656.078	31.31
656.2	32.31
656.322	37.31
656.444	15.31
656.566	43.31
656.689	74.31
656.811	64.31
656.933	93.31
657.055	94.31
657.177	159.31
657.299	260.31
657.421	529.31
657.543	1971.31
657.665	12750.31
657.787	15207.31
657.91	15373.31
658.032	15660.31
658.154	4796.31
658.276	4956.31
658.398	1443.31
658.52	1127.31
658.642	512.31
658.764	633.31
658.886	292.31
659.009	411.31
659.131	229.31
659.253	312.31
659.375	161.31
659.497	254.31
659.619	159.31
659.741	229.31
659.863	117.31
659.985	181.31
660.108	104.31
660.23	148.31
660.352	81.31
660.474	149.31
660.596	79.31
660.718	145.31
660.84	67.31
660.962	121.31
661.084	54.31
661.207	87.31
661.329	61.31
661.451	81.31
661.573	49.31
661.695	104.31
661.817	65.31
661.939	114.31
662.061	65.31
662.184	84.31
662.306	38.31
662.428	84.31
662.55	48.31
662.672	56.31
662.794	60.31
662.916	71.31
663.038	45.31
663.161	67.31
663.283	48.31
663.405	89.31
663.527	43.31
663.649	61.31
663.771	23.31
663.893	49.31
664.015	31.31
664.138	39.31
664.26	38.31
664.382	63.31
664.504	18.31
664.626	31.31
664.748	15.31
664.87	25.31
664.992	31.31
665.115	50.31
665.237	27.31
665.359	29.31
665.481	23.31
665.603	51.31
665.725	27.31
665.847	32.31
665.97	18.31
666.092	27.31
666.214	33.31
666.336	35.31
666.458	23.31
666.58	49.31
666.702	10.31
666.825	43.31
666.947	15.31
667.069	30.31
667.191	17.31
667.313	44.31
667.435	13.31
667.557	22.31
667.68	1.31
667.802	33.31
667.924	39.31
668.046	36.31
668.168	25.31
668.29	52.31
668.412	19.31
668.535	34.31
668.657	2.31
668.779	26.31
668.901	26.31
669.023	41.31
669.145	4.31
669.267	50.31
669.39	29.31
669.512	29.31
669.634	16.31
669.756	17.31
669.878	16.31
670	39.31
670.123	6.31
670.245	23.31
670.367	13.31
670.489	23.31
670.611	20.31
670.733	18.31
670.856	1.31
670.978	46.31
671.1	22.31
671.222	35.31
671.344	10.31
671.466	20.31
671.589	3.31
671.711	9.31
671.833	4.31
671.955	16.31
672.077	-1.69
672.199	30.31
672.322	27.31
672.444	26.31
672.566	33.31
672.688	8.31
672.81	21.31
672.932	35.31
673.055	9.31
673.177	2.31
673.299	13.31
673.421	9.31
673.543	19.31
673.665	18.31
673.788	12.31
673.91	14.31
674.032	-2.69
674.154	15.31
674.276	18.31
674.399	-1.69
674.521	-2.69
674.643	17.31
674.765	25.31
674.887	25.31
675.009	8.31
675.132	25.31
675.254	15.31
675.376	15.31
675.498	3.31
675.62	35.31
675.743	8.31
675.865	29.31
675.987	19.31
676.109	35.31
676.231	10.31
676.354	33.31
676.476	-1.69
676.598	33.31
676.72	11.31
676.842	35.31
676.965	16.31
677.087	16.31
677.209	40.31
677.331	17.31
677.453	21.31
677.576	32.31
677.698	10.31
677.82	18.31
677.942	3.31
678.064	13.31
678.187	12.31
678.309	10.31
678.431	5.31
678.553	13.31
678.675	28.31
678.798	28.31
678.92	1.31
679.042	7.31
679.164	10.31
679.286	22.31
679.409	6.31
679.531	-6.69
679.653	9.31
679.775	6.31
679.898	26.31
680.02	9.31
680.142	5.31
680.264	21.31
680.386	-3.69
680.509	29.31
680.631	-4.69
680.753	19.31
680.875	6.31
680.998	7.31
681.12	15.31
681.242	10.31
681.364	7.31
681.486	18.31
681.609	12.31
681.731	1.31
681.853	-16.69
681.975	2.31
682.098	13.31
682.22	21.31
682.342	20.31
682.464	33.31
682.587	10.31
682.709	4.31
682.831	-11.69
682.953	-2.69
683.076	0.31
683.198	19.31
683.32	5.31
683.442	41.31
683.565	28.31
683.687	1.31
683.809	-10.69
683.931	5.31
684.054	-10.69
684.176	5.31
684.298	11.31
684.42	1.31
684.543	9.31
684.665	2.31
684.787	-2.69
684.909	-8.69
685.032	2.31
685.154	-1.69
685.276	-0.69
685.398	11.31
685.521	-13.69
685.643	15.31
685.765	16.31
685.887	10.31
686.01	-3.69
686.132	-7.69
686.254	11.31
686.377	9.31
686.499	8.31
686.621	26.31
686.743	16.31
686.866	12.31
686.988	31.31
687.11	25.31
687.232	-2.69
687.355	-17.69
687.477	7.31
687.599	33.31
687.722	-1.69
687.844	7.31
687.966	0.31
688.088	9.31
688.211	38.31
688.333	21.31
688.455	25.31
688.578	20.31
688.7	14.31
688.822	15.31
688.944	-11.69
689.067	44.31
689.189	1.31
689.311	-3.69
689.434	7.31
689.556	8.31
689.678	2.31
689.801	5.31
689.923	10.31
690.045	35.31
690.167	23.31
690.29	10.31
690.412	11.31
690.534	26.31
690.657	5.31
690.779	11.31
690.901	21.31
691.024	6.31
691.146	5.31
691.268	-4.69
691.391	5.31
691.513	36.31
691.635	7.31
691.758	12.31
691.88	-2.69
692.002	5.31
692.125	15.31
692.247	11.31
692.369	11.31
692.492	-4.69
692.614	-1.69
692.736	21.31
692.859	15.31
692.981	3.31
693.103	-4.69
693.226	9.31
693.348	38.31
693.47	8.31
693.593	5.31
693.715	-18.69
693.837	0.31
693.96	5.31
694.082	1.31
694.204	8.31
694.327	9.31
694.449	7.31
694.571	12.31
694.694	33.31
694.816	14.31
694.938	-1.69
695.061	3.31
695.183	17.31
695.305	-0.69
695.428	1.31
695.55	-4.69
695.672	11.31
695.795	21.31
695.917	13.31
696.04	6.31
696.162	-0.69
696.284	-2.69
696.407	0.31
696.529	9.31
696.651	35.31
696.774	3.31
696.896	11.31
697.019	2.31
697.141	16.31
697.263	9.31
697.386	7.31
697.508	3.31
697.63	6.31
697.753	18.31
697.875	16.31
697.998	-4.69
698.12	22.31
698.242	7.31
698.365	7.31
698.487	24.31
698.61	22.31
698.732	12.31
698.854	35.31
698.977	16.31
699.099	13.31
699.221	-4.69
699.344	4.31
699.466	10.31
699.589	-1.69
699.711	-8.69
699.834	3.31
699.956	12.31
700.078	13.31
700.201	-13.69
700.323	22.31
700.446	-2.69
700.568	-12.69
700.69	-0.69
700.813	10.31
700.935	-5.69
701.058	-2.69
701.18	7.31
701.302	8.31
701.425	-6.69
701.547	11.31
701.67	9.31
701.792	18.31
701.915	-0.69
702.037	-9.69
702.159	0.31
702.282	25.31
702.404	2.31
702.527	19.31
702.649	30.31
702.772	18.31
702.894	13.31
703.017	-0.69
703.139	16.31
703.261	24.31
703.384	25.31
703.506	-6.69
703.629	-1.69
703.751	15.31
703.874	-12.69
703.996	-17.69
704.119	-5.69
704.241	6.31
704.364	-16.69
704.486	-2.69
704.608	13.31
704.731	21.31
704.853	7.31
704.976	-0.69
705.098	21.31
705.221	6.31
705.343	8.31
705.466	3.31
705.588	2.31
705.711	9.31
705.833	11.31
705.956	3.31
706.078	5.31
706.201	8.31
706.323	-2.69
706.446	11.31
