Data from LowRes_H2_15_26_11_07_2024_HR4C61881__5__15-28-14-137.txt Node

Date: Thu Nov 07 15:28:14 EST 2024
User: crc00042
Spectrometer: HR4C6188
Trigger mode: 4
Integration Time (sec): 1.000000E-1
Scans to average: 1
Electric dark correction enabled: true
Nonlinearity correction enabled: false
Boxcar width: 0
XAxis mode: Wavelengths
Number of Pixels in Spectrum: 3648
>>>>>Begin Spectral Data<<<<<
245.66	-79.69
245.797	-79.69
245.934	-79.69
246.071	-82.69
246.208	-9.69
246.344	6.31
246.481	-3.69
246.618	-4.69
246.755	27.31
246.892	-10.69
247.029	-1.69
247.165	-16.69
247.302	20.31
247.439	-2.69
247.576	-7.69
247.713	-6.69
247.849	19.31
247.986	-18.69
248.123	0.31
248.26	-2.69
248.396	7.31
248.533	-3.69
248.67	-3.69
248.806	8.31
248.943	-19.69
249.08	3.31
249.216	17.31
249.353	-1.69
249.49	8.31
249.626	13.31
249.763	5.31
249.9	-10.69
250.036	-6.69
250.173	-1.69
250.309	2.31
250.446	-0.69
250.582	-1.69
250.719	-1.69
250.856	-21.69
250.992	-6.69
251.129	-2.69
251.265	-10.69
251.402	-5.69
251.538	2.31
251.675	-7.69
251.811	32.31
251.948	42.31
252.084	-4.69
252.221	0.31
252.357	-26.69
252.493	33.31
252.63	-5.69
252.766	16.31
252.903	2.31
253.039	13.31
253.175	2.31
253.312	21.31
253.448	-6.69
253.585	-14.69
253.721	10.31
253.857	-1.69
253.994	26.31
254.13	18.31
254.266	17.31
254.403	7.31
254.539	9.31
254.675	14.31
254.811	-16.69
254.948	-11.69
255.084	7.31
255.22	-14.69
255.356	1.31
255.493	25.31
255.629	10.31
255.765	0.31
255.901	5.31
256.037	6.31
256.174	11.31
256.31	-4.69
256.446	-2.69
256.582	-1.69
256.718	0.31
256.854	3.31
256.991	-2.69
257.127	16.31
257.263	-7.69
257.399	9.31
257.535	-8.69
257.671	-8.69
257.807	-10.69
257.943	-17.69
258.079	-30.69
258.215	2.31
258.351	23.31
258.487	7.31
258.623	28.31
258.759	3.31
258.895	-5.69
259.031	-8.69
259.167	-12.69
259.303	13.31
259.439	-2.69
259.575	-1.69
259.711	-7.69
259.847	-13.69
259.983	15.31
260.119	11.31
260.255	2.31
260.391	14.31
260.527	7.31
260.663	28.31
260.799	25.31
260.934	-7.69
261.07	3.31
261.206	-8.69
261.342	0.31
261.478	15.31
261.614	7.31
261.749	28.31
261.885	2.31
262.021	-5.69
262.157	13.31
262.293	-4.69
262.428	-9.69
262.564	4.31
262.7	-2.69
262.836	0.31
262.971	25.31
263.107	13.31
263.243	21.31
263.378	-4.69
263.514	-11.69
263.65	-7.69
263.785	-23.69
263.921	8.31
264.057	-2.69
264.192	1.31
264.328	18.31
264.464	0.31
264.599	21.31
264.735	20.31
264.871	6.31
265.006	9.31
265.142	3.31
265.277	-1.69
265.413	11.31
265.548	19.31
265.684	23.31
265.819	5.31
265.955	-32.69
266.091	-13.69
266.226	-7.69
266.362	8.31
266.497	6.31
266.633	5.31
266.768	-7.69
266.903	15.31
267.039	19.31
267.174	45.31
267.31	4.31
267.445	5.31
267.581	7.31
267.716	20.31
267.851	12.31
267.987	21.31
268.122	18.31
268.258	1.31
268.393	-9.69
268.528	2.31
268.664	-9.69
268.799	-4.69
268.934	1.31
269.07	4.31
269.205	13.31
269.34	18.31
269.476	5.31
269.611	-11.69
269.746	31.31
269.881	2.31
270.017	16.31
270.152	10.31
270.287	-0.69
270.422	-2.69
270.558	-14.69
270.693	17.31
270.828	6.31
270.963	-13.69
271.098	-2.69
271.234	11.31
271.369	13.31
271.504	-5.69
271.639	-4.69
271.774	5.31
271.909	4.31
272.045	-20.69
272.18	1.31
272.315	-6.69
272.45	2.31
272.585	-4.69
272.72	3.31
272.855	17.31
272.99	8.31
273.125	-3.69
273.26	-25.69
273.395	-15.69
273.53	8.31
273.665	6.31
273.8	-2.69
273.935	6.31
274.07	-5.69
274.205	17.31
274.34	12.31
274.475	6.31
274.61	28.31
274.745	-4.69
274.88	29.31
275.015	-3.69
275.15	-1.69
275.285	8.31
275.42	6.31
275.555	22.31
275.69	-2.69
275.825	0.31
275.959	24.31
276.094	-1.69
276.229	-0.69
276.364	2.31
276.499	-12.69
276.634	-3.69
276.768	1.31
276.903	24.31
277.038	29.31
277.173	14.31
277.308	-3.69
277.442	2.31
277.577	-2.69
277.712	1.31
277.847	7.31
277.981	11.31
278.116	-25.69
278.251	11.31
278.386	-2.69
278.52	-6.69
278.655	2.31
278.79	8.31
278.924	-6.69
279.059	-2.69
279.194	0.31
279.328	35.31
279.463	11.31
279.598	28.31
279.732	13.31
279.867	-0.69
280.001	2.31
280.136	5.31
280.271	-1.69
280.405	-0.69
280.54	6.31
280.674	3.31
280.809	33.31
280.943	3.31
281.078	14.31
281.213	34.31
281.347	28.31
281.482	5.31
281.616	1.31
281.751	-1.69
281.885	-5.69
282.02	4.31
282.154	25.31
282.288	0.31
282.423	3.31
282.557	-8.69
282.692	-7.69
282.826	-8.69
282.961	9.31
283.095	-5.69
283.229	-7.69
283.364	-4.69
283.498	-9.69
283.633	-6.69
283.767	5.31
283.901	-2.69
284.036	0.31
284.17	2.31
284.304	-19.69
284.439	9.31
284.573	-13.69
284.707	23.31
284.842	-0.69
284.976	11.31
285.11	-10.69
285.244	-2.69
285.379	46.31
285.513	0.31
285.647	-9.69
285.781	-9.69
285.916	15.31
286.05	-8.69
286.184	17.31
286.318	34.31
286.453	-10.69
286.587	-2.69
286.721	-24.69
286.855	-1.69
286.989	27.31
287.123	9.31
287.258	-6.69
287.392	12.31
287.526	7.31
287.66	14.31
287.794	-3.69
287.928	-15.69
288.062	9.31
288.196	-3.69
288.33	-11.69
288.464	-0.69
288.598	16.31
288.733	1.31
288.867	33.31
289.001	16.31
289.135	3.31
289.269	3.31
289.403	-11.69
289.537	10.31
289.671	9.31
289.805	-9.69
289.939	-8.69
290.073	3.31
290.207	13.31
290.34	7.31
290.474	14.31
290.608	6.31
290.742	-7.69
290.876	-9.69
291.01	2.31
291.144	15.31
291.278	11.31
291.412	8.31
291.546	6.31
291.679	9.31
291.813	5.31
291.947	10.31
292.081	6.31
292.215	2.31
292.349	0.31
292.482	19.31
292.616	10.31
292.75	-2.69
292.884	6.31
293.018	1.31
293.151	-37.69
293.285	10.31
293.419	4.31
293.553	-8.69
293.686	-15.69
293.82	5.31
293.954	-2.69
294.088	21.31
294.221	-23.69
294.355	0.31
294.489	9.31
294.622	-4.69
294.756	4.31
294.89	15.31
295.023	-4.69
295.157	6.31
295.291	18.31
295.424	26.31
295.558	3.31
295.691	-10.69
295.825	-6.69
295.959	5.31
296.092	10.31
296.226	17.31
296.359	9.31
296.493	16.31
296.627	-1.69
296.76	-0.69
296.894	5.31
297.027	2.31
297.161	7.31
297.294	-12.69
297.428	-9.69
297.561	8.31
297.695	-2.69
297.828	-9.69
297.962	-3.69
298.095	-11.69
298.229	-17.69
298.362	-11.69
298.495	-12.69
298.629	-0.69
298.762	-10.69
298.896	-10.69
299.029	-7.69
299.162	0.31
299.296	7.31
299.429	-6.69
299.563	15.31
299.696	6.31
299.829	6.31
299.963	24.31
300.096	12.31
300.229	6.31
300.363	3.31
300.496	4.31
300.629	-19.69
300.763	-4.69
300.896	-1.69
301.029	9.31
301.162	14.31
301.296	-19.69
301.429	-18.69
301.562	-14.69
301.695	19.31
301.829	25.31
301.962	23.31
302.095	10.31
302.228	9.31
302.362	4.31
302.495	-14.69
302.628	2.31
302.761	7.31
302.894	7.31
303.027	14.31
303.161	-11.69
303.294	-9.69
303.427	2.31
303.56	1.31
303.693	1.31
303.826	4.31
303.959	-0.69
304.092	4.31
304.225	8.31
304.359	-3.69
304.492	20.31
304.625	-9.69
304.758	10.31
304.891	-6.69
305.024	21.31
305.157	-17.69
305.29	4.31
305.423	-11.69
305.556	-2.69
305.689	36.31
305.822	-5.69
305.955	-9.69
306.088	-13.69
306.221	3.31
306.354	-2.69
306.487	8.31
306.62	-9.69
306.752	1.31
306.885	8.31
307.018	13.31
307.151	8.31
307.284	11.31
307.417	4.31
307.55	24.31
307.683	-3.69
307.816	27.31
307.948	19.31
308.081	8.31
308.214	21.31
308.347	19.31
308.48	8.31
308.613	-23.69
308.745	8.31
308.878	-22.69
309.011	-5.69
309.144	12.31
309.277	-2.69
309.409	10.31
309.542	4.31
309.675	6.31
309.808	14.31
309.94	17.31
310.073	-15.69
310.206	-8.69
310.339	8.31
310.471	-17.69
310.604	29.31
310.737	-11.69
310.869	5.31
311.002	6.31
311.135	-2.69
311.267	-11.69
311.4	19.31
311.533	26.31
311.665	0.31
311.798	-19.69
311.93	6.31
312.063	24.31
312.196	4.31
312.328	12.31
312.461	-6.69
312.593	-0.69
312.726	23.31
312.859	-1.69
312.991	5.31
313.124	-20.69
313.256	16.31
313.389	10.31
313.521	-22.69
313.654	-11.69
313.786	-1.69
313.919	-7.69
314.051	-9.69
314.184	10.31
314.316	-2.69
314.449	-13.69
314.581	-4.69
314.714	2.31
314.846	8.31
314.978	-8.69
315.111	-11.69
315.243	16.31
315.376	3.31
315.508	6.31
315.641	2.31
315.773	16.31
315.905	9.31
316.038	4.31
316.17	7.31
316.302	6.31
316.435	-4.69
316.567	-10.69
316.699	28.31
316.832	-5.69
316.964	5.31
317.096	2.31
317.229	-11.69
317.361	-29.69
317.493	-6.69
317.625	-9.69
317.758	-1.69
317.89	2.31
318.022	-1.69
318.155	-4.69
318.287	-1.69
318.419	-8.69
318.551	-3.69
318.683	-2.69
318.816	-6.69
318.948	-6.69
319.08	3.31
319.212	8.31
319.344	8.31
319.477	3.31
319.609	12.31
319.741	30.31
319.873	9.31
320.005	4.31
320.137	3.31
320.269	3.31
320.401	9.31
320.534	7.31
320.666	-5.69
320.798	-7.69
320.93	13.31
321.062	-5.69
321.194	-7.69
321.326	20.31
321.458	13.31
321.59	8.31
321.722	13.31
321.854	15.31
321.986	-4.69
322.118	-7.69
322.25	-1.69
322.382	4.31
322.514	-9.69
322.646	1.31
322.778	26.31
322.91	-15.69
323.042	-3.69
323.174	-6.69
323.306	-10.69
323.438	-11.69
323.57	9.31
323.702	19.31
323.834	-3.69
323.966	-26.69
324.097	13.31
324.229	9.31
324.361	7.31
324.493	-6.69
324.625	-26.69
324.757	-3.69
324.889	0.31
325.021	-9.69
325.152	9.31
325.284	16.31
325.416	-5.69
325.548	17.31
325.68	-19.69
325.811	9.31
325.943	3.31
326.075	-0.69
326.207	7.31
326.339	21.31
326.47	-12.69
326.602	14.31
326.734	12.31
326.866	22.31
326.997	-1.69
327.129	-6.69
327.261	-12.69
327.392	-4.69
327.524	12.31
327.656	-2.69
327.787	-12.69
327.919	-4.69
328.051	-4.69
328.182	3.31
328.314	9.31
328.446	9.31
328.577	21.31
328.709	-3.69
328.841	-7.69
328.972	-0.69
329.104	4.31
329.235	11.31
329.367	-18.69
329.499	-8.69
329.63	5.31
329.762	6.31
329.893	39.31
330.025	7.31
330.156	-12.69
330.288	8.31
330.419	22.31
330.551	19.31
330.683	0.31
330.814	-9.69
330.946	24.31
331.077	-11.69
331.208	-14.69
331.34	5.31
331.471	-1.69
331.603	9.31
331.734	-4.69
331.866	-14.69
331.997	13.31
332.129	2.31
332.26	7.31
332.392	12.31
332.523	19.31
332.654	-2.69
332.786	1.31
332.917	-13.69
333.048	19.31
333.18	24.31
333.311	-8.69
333.443	3.31
333.574	-9.69
333.705	-3.69
333.837	-13.69
333.968	7.31
334.099	7.31
334.231	25.31
334.362	5.31
334.493	11.31
334.624	6.31
334.756	-0.69
334.887	4.31
335.018	20.31
335.15	19.31
335.281	-1.69
335.412	13.31
335.543	11.31
335.675	3.31
335.806	1.31
335.937	-0.69
336.068	14.31
336.199	25.31
336.331	10.31
336.462	4.31
336.593	10.31
336.724	0.31
336.855	2.31
336.986	8.31
337.118	6.31
337.249	13.31
337.38	13.31
337.511	-1.69
337.642	1.31
337.773	6.31
337.904	-3.69
338.035	6.31
338.166	-10.69
338.298	8.31
338.429	5.31
338.56	4.31
338.691	9.31
338.822	2.31
338.953	-0.69
339.084	13.31
339.215	15.31
339.346	13.31
339.477	-4.69
339.608	-0.69
339.739	1.31
339.87	-10.69
340.001	-5.69
340.132	16.31
340.263	9.31
340.394	1.31
340.525	6.31
340.656	-12.69
340.787	-7.69
340.918	24.31
341.049	1.31
341.179	9.31
341.31	-2.69
341.441	9.31
341.572	12.31
341.703	-5.69
341.834	-6.69
341.965	20.31
342.096	-0.69
342.227	-9.69
342.357	1.31
342.488	19.31
342.619	12.31
342.75	3.31
342.881	-7.69
343.012	22.31
343.142	33.31
343.273	1.31
343.404	5.31
343.535	43.31
343.666	6.31
343.796	23.31
343.927	13.31
344.058	17.31
344.189	10.31
344.319	3.31
344.45	-3.69
344.581	-2.69
344.712	-8.69
344.842	18.31
344.973	6.31
345.104	3.31
345.234	-8.69
345.365	-5.69
345.496	0.31
345.626	13.31
345.757	26.31
345.888	2.31
346.018	22.31
346.149	10.31
346.28	14.31
346.41	-11.69
346.541	16.31
346.672	2.31
346.802	6.31
346.933	18.31
347.063	8.31
347.194	6.31
347.325	-5.69
347.455	24.31
347.586	8.31
347.716	1.31
347.847	4.31
347.977	-11.69
348.108	6.31
348.238	3.31
348.369	-5.69
348.499	-1.69
348.63	10.31
348.76	9.31
348.891	11.31
349.021	8.31
349.152	21.31
349.282	4.31
349.413	3.31
349.543	2.31
349.674	-2.69
349.804	5.31
349.935	7.31
350.065	14.31
350.196	-8.69
350.326	-2.69
350.456	3.31
350.587	27.31
350.717	-6.69
350.848	6.31
350.978	9.31
351.108	-0.69
351.239	-3.69
351.369	-5.69
351.499	4.31
351.63	-2.69
351.76	-15.69
351.89	7.31
352.021	21.31
352.151	-14.69
352.281	-4.69
352.412	5.31
352.542	13.31
352.672	-9.69
352.803	16.31
352.933	2.31
353.063	14.31
353.193	3.31
353.324	5.31
353.454	5.31
353.584	9.31
353.714	-9.69
353.845	14.31
353.975	-2.69
354.105	3.31
354.235	2.31
354.365	-1.69
354.496	-3.69
354.626	-0.69
354.756	12.31
354.886	-11.69
355.016	9.31
355.146	-1.69
355.277	-11.69
355.407	0.31
355.537	6.31
355.667	-9.69
355.797	-14.69
355.927	-23.69
356.057	2.31
356.187	-4.69
356.318	0.31
356.448	-14.69
356.578	-3.69
356.708	5.31
356.838	8.31
356.968	-6.69
357.098	5.31
357.228	16.31
357.358	2.31
357.488	5.31
357.618	38.31
357.748	24.31
357.878	13.31
358.008	-12.69
358.138	1.31
358.268	-1.69
358.398	10.31
358.528	-15.69
358.658	0.31
358.788	5.31
358.918	5.31
359.048	15.31
359.178	16.31
359.308	-10.69
359.438	33.31
359.568	11.31
359.698	17.31
359.827	17.31
359.957	1.31
360.087	13.31
360.217	12.31
360.347	11.31
360.477	12.31
360.607	-6.69
360.737	12.31
360.866	1.31
360.996	-26.69
361.126	-2.69
361.256	24.31
361.386	12.31
361.516	7.31
361.645	-13.69
361.775	6.31
361.905	-11.69
362.035	5.31
362.165	5.31
362.294	21.31
362.424	43.31
362.554	13.31
362.684	-11.69
362.813	27.31
362.943	5.31
363.073	-5.69
363.203	8.31
363.332	-3.69
363.462	5.31
363.592	8.31
363.721	-12.69
363.851	-3.69
363.981	-1.69
364.111	-4.69
364.24	-7.69
364.37	12.31
364.5	23.31
364.629	-0.69
364.759	-4.69
364.888	-3.69
365.018	11.31
365.148	-2.69
365.277	-0.69
365.407	11.31
365.537	6.31
365.666	10.31
365.796	-1.69
365.925	2.31
366.055	21.31
366.184	12.31
366.314	-4.69
366.444	16.31
366.573	-1.69
366.703	-4.69
366.832	0.31
366.962	22.31
367.091	10.31
367.221	1.31
367.35	5.31
367.48	28.31
367.609	6.31
367.739	3.31
367.868	-2.69
367.998	1.31
368.127	15.31
368.257	20.31
368.386	18.31
368.516	18.31
368.645	-8.69
368.775	2.31
368.904	3.31
369.033	-9.69
369.163	-5.69
369.292	15.31
369.422	12.31
369.551	8.31
369.68	25.31
369.81	18.31
369.939	-10.69
370.069	17.31
370.198	25.31
370.327	-8.69
370.457	15.31
370.586	24.31
370.715	3.31
370.845	-9.69
370.974	17.31
371.103	14.31
371.233	-4.69
371.362	8.31
371.491	0.31
371.621	0.31
371.75	-1.69
371.879	-3.69
372.008	5.31
372.138	7.31
372.267	22.31
372.396	16.31
372.525	18.31
372.655	25.31
372.784	17.31
372.913	4.31
373.042	10.31
373.172	15.31
373.301	-12.69
373.43	-23.69
373.559	4.31
373.688	-7.69
373.818	22.31
373.947	18.31
374.076	-5.69
374.205	28.31
374.334	16.31
374.463	-7.69
374.593	8.31
374.722	21.31
374.851	10.31
374.98	-3.69
375.109	17.31
375.238	9.31
375.367	33.31
375.496	-8.69
375.625	-0.69
375.755	18.31
375.884	31.31
376.013	11.31
376.142	-9.69
376.271	3.31
376.4	-6.69
376.529	19.31
376.658	12.31
376.787	17.31
376.916	9.31
377.045	5.31
377.174	12.31
377.303	24.31
377.432	26.31
377.561	11.31
377.69	-13.69
377.819	14.31
377.948	-8.69
378.077	-7.69
378.206	-9.69
378.335	20.31
378.464	-0.69
378.593	26.31
378.722	6.31
378.851	2.31
378.98	25.31
379.108	-0.69
379.237	-5.69
379.366	7.31
379.495	24.31
379.624	13.31
379.753	-4.69
379.882	-4.69
380.011	-5.69
380.14	-19.69
380.268	10.31
380.397	9.31
380.526	14.31
380.655	-7.69
380.784	-13.69
380.913	22.31
381.041	22.31
381.17	-4.69
381.299	-6.69
381.428	13.31
381.557	5.31
381.685	-11.69
381.814	14.31
381.943	3.31
382.072	-0.69
382.2	-7.69
382.329	-7.69
382.458	9.31
382.587	32.31
382.715	24.31
382.844	21.31
382.973	8.31
383.102	3.31
383.23	0.31
383.359	-11.69
383.488	22.31
383.616	2.31
383.745	4.31
383.874	-2.69
384.003	-1.69
384.131	12.31
384.26	8.31
384.389	13.31
384.517	3.31
384.646	-14.69
384.774	-4.69
384.903	20.31
385.032	26.31
385.16	0.31
385.289	-3.69
385.418	1.31
385.546	1.31
385.675	23.31
385.803	21.31
385.932	35.31
386.06	-6.69
386.189	4.31
386.318	4.31
386.446	12.31
386.575	-13.69
386.703	12.31
386.832	-10.69
386.96	-12.69
387.089	21.31
387.217	2.31
387.346	-14.69
387.474	10.31
387.603	8.31
387.731	-11.69
387.86	18.31
387.988	22.31
388.117	18.31
388.245	11.31
388.374	-2.69
388.502	9.31
388.631	4.31
388.759	10.31
388.888	2.31
389.016	-3.69
389.144	-4.69
389.273	10.31
389.401	0.31
389.53	-5.69
389.658	20.31
389.786	-23.69
389.915	-25.69
390.043	-13.69
390.172	0.31
390.3	14.31
390.428	4.31
390.557	2.31
390.685	5.31
390.813	18.31
390.942	6.31
391.07	12.31
391.198	0.31
391.327	6.31
391.455	-5.69
391.583	35.31
391.712	32.31
391.84	17.31
391.968	-8.69
392.096	-2.69
392.225	-6.69
392.353	3.31
392.481	-2.69
392.609	22.31
392.738	14.31
392.866	-7.69
392.994	-11.69
393.122	28.31
393.251	-14.69
393.379	5.31
393.507	1.31
393.635	3.31
393.764	13.31
393.892	11.31
394.02	0.31
394.148	11.31
394.276	-6.69
394.404	17.31
394.533	4.31
394.661	3.31
394.789	9.31
394.917	12.31
395.045	-13.69
395.173	-9.69
395.302	13.31
395.43	2.31
395.558	2.31
395.686	17.31
395.814	18.31
395.942	1.31
396.07	4.31
396.198	10.31
396.326	6.31
396.454	4.31
396.582	-3.69
396.711	-7.69
396.839	9.31
396.967	20.31
397.095	1.31
397.223	20.31
397.351	20.31
397.479	18.31
397.607	12.31
397.735	11.31
397.863	5.31
397.991	-4.69
398.119	-14.69
398.247	-2.69
398.375	2.31
398.503	9.31
398.631	-3.69
398.759	8.31
398.887	0.31
399.015	0.31
399.143	0.31
399.271	13.31
399.399	23.31
399.526	27.31
399.654	2.31
399.782	5.31
399.91	21.31
400.038	21.31
400.166	22.31
400.294	17.31
400.422	-5.69
400.55	-10.69
400.678	-7.69
400.805	4.31
400.933	16.31
401.061	5.31
401.189	-4.69
401.317	4.31
401.445	15.31
401.573	18.31
401.7	-1.69
401.828	-21.69
401.956	-2.69
402.084	9.31
402.212	28.31
402.34	7.31
402.467	19.31
402.595	27.31
402.723	13.31
402.851	42.31
402.978	7.31
403.106	15.31
403.234	21.31
403.362	19.31
403.489	14.31
403.617	15.31
403.745	12.31
403.873	0.31
404	19.31
404.128	8.31
404.256	24.31
404.384	16.31
404.511	13.31
404.639	-2.69
404.767	10.31
404.894	20.31
405.022	11.31
405.15	14.31
405.277	-6.69
405.405	6.31
405.533	12.31
405.66	6.31
405.788	-20.69
405.916	-10.69
406.043	5.31
406.171	3.31
406.299	21.31
406.426	17.31
406.554	12.31
406.681	13.31
406.809	14.31
406.937	-4.69
407.064	-5.69
407.192	8.31
407.319	4.31
407.447	-20.69
407.574	21.31
407.702	1.31
407.83	-11.69
407.957	-8.69
408.085	19.31
408.212	17.31
408.34	9.31
408.467	-12.69
408.595	0.31
408.722	14.31
408.85	32.31
408.977	2.31
409.105	-4.69
409.232	18.31
409.36	-2.69
409.487	-14.69
409.615	15.31
409.742	33.31
409.87	58.31
409.997	40.31
410.125	36.31
410.252	57.31
410.379	40.31
410.507	31.31
410.634	21.31
410.762	13.31
410.889	18.31
411.017	7.31
411.144	37.31
411.271	-13.69
411.399	7.31
411.526	-0.69
411.653	16.31
411.781	34.31
411.908	18.31
412.036	-2.69
412.163	30.31
412.29	22.31
412.418	7.31
412.545	-4.69
412.672	-6.69
412.8	50.31
412.927	9.31
413.054	13.31
413.182	10.31
413.309	-11.69
413.436	7.31
413.564	4.31
413.691	19.31
413.818	21.31
413.945	-4.69
414.073	-3.69
414.2	41.31
414.327	21.31
414.454	11.31
414.582	5.31
414.709	-22.69
414.836	-10.69
414.963	15.31
415.091	26.31
415.218	8.31
415.345	3.31
415.472	4.31
415.6	10.31
415.727	3.31
415.854	4.31
415.981	12.31
416.108	4.31
416.236	0.31
416.363	15.31
416.49	-10.69
416.617	0.31
416.744	9.31
416.871	0.31
416.998	4.31
417.126	2.31
417.253	13.31
417.38	12.31
417.507	8.31
417.634	13.31
417.761	24.31
417.888	6.31
418.015	11.31
418.143	-2.69
418.27	27.31
418.397	1.31
418.524	8.31
418.651	10.31
418.778	16.31
418.905	28.31
419.032	17.31
419.159	3.31
419.286	15.31
419.413	11.31
419.54	19.31
419.667	3.31
419.794	-17.69
419.921	2.31
420.048	16.31
420.175	6.31
420.302	10.31
420.429	4.31
420.556	0.31
420.683	-21.69
420.81	-1.69
420.937	10.31
421.064	20.31
421.191	-1.69
421.318	25.31
421.445	27.31
421.572	-5.69
421.699	20.31
421.826	22.31
421.953	-1.69
422.08	19.31
422.207	-9.69
422.334	-10.69
422.461	20.31
422.588	1.31
422.714	21.31
422.841	19.31
422.968	16.31
423.095	2.31
423.222	-7.69
423.349	13.31
423.476	22.31
423.603	0.31
423.729	-16.69
423.856	-1.69
423.983	22.31
424.11	-7.69
424.237	-1.69
424.364	5.31
424.491	13.31
424.617	-0.69
424.744	10.31
424.871	9.31
424.998	6.31
425.125	-14.69
425.251	17.31
425.378	5.31
425.505	11.31
425.632	7.31
425.758	6.31
425.885	24.31
426.012	4.31
426.139	20.31
426.266	6.31
426.392	21.31
426.519	8.31
426.646	0.31
426.772	16.31
426.899	8.31
427.026	15.31
427.153	8.31
427.279	21.31
427.406	14.31
427.533	2.31
427.659	13.31
427.786	-3.69
427.913	14.31
428.039	6.31
428.166	9.31
428.293	12.31
428.419	7.31
428.546	20.31
428.673	6.31
428.799	-5.69
428.926	-7.69
429.053	33.31
429.179	20.31
429.306	-1.69
429.433	41.31
429.559	20.31
429.686	4.31
429.812	10.31
429.939	11.31
430.066	24.31
430.192	27.31
430.319	11.31
430.445	-4.69
430.572	6.31
430.699	4.31
430.825	4.31
430.952	1.31
431.078	13.31
431.205	20.31
431.331	14.31
431.458	12.31
431.584	25.31
431.711	1.31
431.837	7.31
431.964	8.31
432.09	16.31
432.217	-2.69
432.343	6.31
432.47	27.31
432.596	22.31
432.723	0.31
432.849	3.31
432.976	19.31
433.102	9.31
433.229	7.31
433.355	33.31
433.482	67.31
433.608	141.31
433.735	138.31
433.861	126.31
433.987	146.31
434.114	225.31
434.24	194.31
434.367	72.31
434.493	7.31
434.62	26.31
434.746	13.31
434.872	8.31
434.999	15.31
435.125	9.31
435.252	8.31
435.378	18.31
435.504	8.31
435.631	25.31
435.757	14.31
435.883	34.31
436.01	32.31
436.136	1.31
436.262	-6.69
436.389	3.31
436.515	21.31
436.641	16.31
436.768	21.31
436.894	28.31
437.02	16.31
437.147	7.31
437.273	29.31
437.399	-5.69
437.526	35.31
437.652	8.31
437.778	11.31
437.904	-9.69
438.031	-5.69
438.157	-2.69
438.283	19.31
438.409	-4.69
438.536	-1.69
438.662	27.31
438.788	25.31
438.914	10.31
439.041	13.31
439.167	35.31
439.293	14.31
439.419	2.31
439.546	5.31
439.672	-2.69
439.798	17.31
439.924	20.31
440.05	28.31
440.177	25.31
440.303	17.31
440.429	-0.69
440.555	27.31
440.681	10.31
440.807	3.31
440.934	10.31
441.06	0.31
441.186	8.31
441.312	2.31
441.438	12.31
441.564	11.31
441.69	28.31
441.816	10.31
441.943	12.31
442.069	14.31
442.195	15.31
442.321	9.31
442.447	4.31
442.573	-7.69
442.699	5.31
442.825	-2.69
442.951	19.31
443.077	8.31
443.203	15.31
443.33	-7.69
443.456	5.31
443.582	19.31
443.708	0.31
443.834	41.31
443.96	26.31
444.086	15.31
444.212	18.31
444.338	33.31
444.464	15.31
444.59	25.31
444.716	3.31
444.842	20.31
444.968	-4.69
445.094	14.31
445.22	-8.69
445.346	-7.69
445.472	9.31
445.598	8.31
445.724	-13.69
445.85	6.31
445.976	24.31
446.102	25.31
446.228	9.31
446.354	10.31
446.48	-2.69
446.605	13.31
446.731	0.31
446.857	7.31
446.983	8.31
447.109	22.31
447.235	17.31
447.361	-3.69
447.487	16.31
447.613	10.31
447.739	-13.69
447.865	8.31
447.99	18.31
448.116	17.31
448.242	21.31
448.368	20.31
448.494	7.31
448.62	17.31
448.746	16.31
448.872	7.31
448.997	3.31
449.123	-1.69
449.249	39.31
449.375	16.31
449.501	-3.69
449.627	-2.69
449.752	19.31
449.878	-4.69
450.004	-5.69
450.13	12.31
450.256	-3.69
450.381	16.31
450.507	9.31
450.633	9.31
450.759	24.31
450.884	9.31
451.01	11.31
451.136	-2.69
451.262	4.31
451.388	17.31
451.513	-1.69
451.639	23.31
451.765	21.31
451.89	29.31
452.016	24.31
452.142	12.31
452.268	19.31
452.393	17.31
452.519	12.31
452.645	22.31
452.771	14.31
452.896	-2.69
453.022	-4.69
453.148	21.31
453.273	30.31
453.399	22.31
453.525	-5.69
453.65	24.31
453.776	23.31
453.902	8.31
454.027	10.31
454.153	0.31
454.279	14.31
454.404	-2.69
454.53	18.31
454.656	45.31
454.781	25.31
454.907	-2.69
455.032	7.31
455.158	24.31
455.284	24.31
455.409	5.31
455.535	15.31
455.66	23.31
455.786	33.31
455.912	23.31
456.037	-5.69
456.163	22.31
456.288	18.31
456.414	-5.69
456.539	-12.69
456.665	17.31
456.791	10.31
456.916	-0.69
457.042	13.31
457.167	-4.69
457.293	11.31
457.418	24.31
457.544	8.31
457.669	13.31
457.795	3.31
457.92	16.31
458.046	-1.69
458.171	15.31
458.297	12.31
458.422	3.31
458.548	6.31
458.673	17.31
458.799	4.31
458.924	5.31
459.05	9.31
459.175	-2.69
459.301	0.31
459.426	26.31
459.552	17.31
459.677	7.31
459.803	17.31
459.928	25.31
460.053	16.31
460.179	19.31
460.304	28.31
460.43	-1.69
460.555	5.31
460.681	3.31
460.806	4.31
460.931	12.31
461.057	19.31
461.182	8.31
461.308	24.31
461.433	19.31
461.558	2.31
461.684	-0.69
461.809	17.31
461.934	14.31
462.06	28.31
462.185	-14.69
462.311	1.31
462.436	20.31
462.561	0.31
462.687	-5.69
462.812	9.31
462.937	-9.69
463.063	1.31
463.188	-5.69
463.313	21.31
463.439	-1.69
463.564	7.31
463.689	12.31
463.814	22.31
463.94	30.31
464.065	17.31
464.19	11.31
464.316	-8.69
464.441	-6.69
464.566	5.31
464.692	6.31
464.817	23.31
464.942	-1.69
465.067	3.31
465.193	-14.69
465.318	11.31
465.443	15.31
465.568	8.31
465.694	11.31
465.819	21.31
465.944	19.31
466.069	15.31
466.194	19.31
466.32	20.31
466.445	11.31
466.57	2.31
466.695	13.31
466.82	13.31
466.946	9.31
467.071	16.31
467.196	13.31
467.321	11.31
467.446	3.31
467.572	4.31
467.697	2.31
467.822	10.31
467.947	32.31
468.072	2.31
468.197	-12.69
468.323	1.31
468.448	-6.69
468.573	12.31
468.698	13.31
468.823	17.31
468.948	20.31
469.073	4.31
469.198	24.31
469.324	23.31
469.449	3.31
469.574	22.31
469.699	15.31
469.824	11.31
469.949	7.31
470.074	1.31
470.199	36.31
470.324	19.31
470.449	22.31
470.574	18.31
470.7	10.31
470.825	26.31
470.95	32.31
471.075	8.31
471.2	13.31
471.325	20.31
471.45	8.31
471.575	-9.69
471.7	20.31
471.825	-7.69
471.95	23.31
472.075	-0.69
472.2	15.31
472.325	8.31
472.45	1.31
472.575	8.31
472.7	8.31
472.825	6.31
472.95	18.31
473.075	5.31
473.2	5.31
473.325	25.31
473.45	1.31
473.575	-8.69
473.7	10.31
473.825	-3.69
473.95	18.31
474.075	30.31
474.2	-4.69
474.325	-5.69
474.45	14.31
474.574	9.31
474.699	31.31
474.824	20.31
474.949	0.31
475.074	9.31
475.199	8.31
475.324	26.31
475.449	12.31
475.574	6.31
475.699	16.31
475.824	1.31
475.949	20.31
476.073	16.31
476.198	2.31
476.323	20.31
476.448	7.31
476.573	15.31
476.698	20.31
476.823	12.31
476.947	26.31
477.072	4.31
477.197	8.31
477.322	6.31
477.447	-7.69
477.572	16.31
477.697	4.31
477.821	9.31
477.946	32.31
478.071	25.31
478.196	12.31
478.321	22.31
478.445	3.31
478.57	-2.69
478.695	2.31
478.82	25.31
478.945	37.31
479.069	3.31
479.194	25.31
479.319	17.31
479.444	8.31
479.569	8.31
479.693	-4.69
479.818	-0.69
479.943	21.31
480.068	21.31
480.192	13.31
480.317	-3.69
480.442	21.31
480.567	12.31
480.691	35.31
480.816	8.31
480.941	1.31
481.066	21.31
481.19	17.31
481.315	7.31
481.44	8.31
481.564	16.31
481.689	26.31
481.814	14.31
481.938	21.31
482.063	-16.69
482.188	25.31
482.313	27.31
482.437	26.31
482.562	18.31
482.687	24.31
482.811	20.31
482.936	19.31
483.061	48.31
483.185	30.31
483.31	23.31
483.435	24.31
483.559	20.31
483.684	20.31
483.808	41.31
483.933	24.31
484.058	18.31
484.182	7.31
484.307	22.31
484.432	12.31
484.556	12.31
484.681	28.31
484.805	15.31
484.93	26.31
485.055	56.31
485.179	83.31
485.304	107.31
485.428	354.31
485.553	1237.31
485.678	1729.31
485.802	1622.31
485.927	1807.31
486.051	2638.31
486.176	1636.31
486.3	454.31
486.425	153.31
486.549	84.31
486.674	79.31
486.799	43.31
486.923	27.31
487.048	14.31
487.172	16.31
487.297	37.31
487.421	36.31
487.546	20.31
487.67	30.31
487.795	1.31
487.919	20.31
488.044	33.31
488.168	25.31
488.293	32.31
488.417	16.31
488.542	19.31
488.666	11.31
488.791	12.31
488.915	5.31
489.04	7.31
489.164	26.31
489.289	33.31
489.413	5.31
489.538	15.31
489.662	8.31
489.786	9.31
489.911	22.31
490.035	20.31
490.16	3.31
490.284	18.31
490.409	8.31
490.533	1.31
490.658	40.31
490.782	14.31
490.906	5.31
491.031	24.31
491.155	18.31
491.28	18.31
491.404	18.31
491.528	14.31
491.653	5.31
491.777	20.31
491.902	0.31
492.026	18.31
492.15	23.31
492.275	22.31
492.399	21.31
492.524	11.31
492.648	33.31
492.772	19.31
492.897	39.31
493.021	20.31
493.145	12.31
493.27	31.31
493.394	7.31
493.518	12.31
493.643	22.31
493.767	18.31
493.891	-8.69
494.016	11.31
494.14	16.31
494.264	22.31
494.389	28.31
494.513	12.31
494.637	-14.69
494.762	24.31
494.886	6.31
495.01	23.31
495.134	21.31
495.259	22.31
495.383	31.31
495.507	17.31
495.632	21.31
495.756	31.31
495.88	29.31
496.004	11.31
496.129	22.31
496.253	19.31
496.377	18.31
496.501	33.31
496.626	3.31
496.75	-1.69
496.874	18.31
496.998	4.31
497.123	28.31
497.247	16.31
497.371	25.31
497.495	20.31
497.62	15.31
497.744	14.31
497.868	9.31
497.992	8.31
498.116	5.31
498.241	10.31
498.365	3.31
498.489	0.31
498.613	24.31
498.737	7.31
498.862	19.31
498.986	4.31
499.11	21.31
499.234	10.31
499.358	2.31
499.482	14.31
499.607	12.31
499.731	17.31
499.855	36.31
499.979	11.31
500.103	5.31
500.227	20.31
500.351	18.31
500.476	12.31
500.6	8.31
500.724	9.31
500.848	6.31
500.972	27.31
501.096	9.31
501.22	33.31
501.344	11.31
501.469	29.31
501.593	26.31
501.717	10.31
501.841	13.31
501.965	5.31
502.089	6.31
502.213	25.31
502.337	9.31
502.461	11.31
502.585	11.31
502.709	21.31
502.834	3.31
502.958	-7.69
503.082	3.31
503.206	6.31
503.33	38.31
503.454	14.31
503.578	23.31
503.702	21.31
503.826	26.31
503.95	50.31
504.074	33.31
504.198	17.31
504.322	6.31
504.446	-3.69
504.57	8.31
504.694	10.31
504.818	27.31
504.942	50.31
505.066	12.31
505.19	6.31
505.314	24.31
505.438	22.31
505.562	-1.69
505.686	12.31
505.81	0.31
505.934	18.31
506.058	8.31
506.182	20.31
506.306	22.31
506.43	8.31
506.554	11.31
506.678	-4.69
506.802	-2.69
506.926	11.31
507.05	26.31
507.174	23.31
507.298	9.31
507.422	5.31
507.546	38.31
507.67	37.31
507.794	-2.69
507.918	29.31
508.042	30.31
508.165	1.31
508.289	-3.69
508.413	37.31
508.537	24.31
508.661	13.31
508.785	7.31
508.909	14.31
509.033	8.31
509.157	4.31
509.281	12.31
509.405	8.31
509.528	17.31
509.652	11.31
509.776	5.31
509.9	26.31
510.024	0.31
510.148	7.31
510.272	20.31
510.396	4.31
510.519	15.31
510.643	26.31
510.767	8.31
510.891	21.31
511.015	17.31
511.139	32.31
511.263	23.31
511.386	2.31
511.51	-4.69
511.634	-13.69
511.758	12.31
511.882	-2.69
512.006	22.31
512.129	18.31
512.253	45.31
512.377	9.31
512.501	30.31
512.625	18.31
512.748	-4.69
512.872	8.31
512.996	0.31
513.12	13.31
513.244	11.31
513.367	5.31
513.491	10.31
513.615	17.31
513.739	16.31
513.862	3.31
513.986	19.31
514.11	15.31
514.234	-6.69
514.358	10.31
514.481	16.31
514.605	15.31
514.729	15.31
514.853	16.31
514.976	9.31
515.1	4.31
515.224	26.31
515.348	20.31
515.471	19.31
515.595	26.31
515.719	2.31
515.842	21.31
515.966	20.31
516.09	32.31
516.214	33.31
516.337	25.31
516.461	34.31
516.585	5.31
516.708	36.31
516.832	19.31
516.956	19.31
517.08	22.31
517.203	0.31
517.327	11.31
517.451	32.31
517.574	37.31
517.698	18.31
517.822	18.31
517.945	27.31
518.069	38.31
518.193	52.31
518.316	23.31
518.44	41.31
518.564	23.31
518.687	28.31
518.811	19.31
518.935	43.31
519.058	37.31
519.182	38.31
519.306	41.31
519.429	18.31
519.553	56.31
519.676	33.31
519.8	20.31
519.924	3.31
520.047	24.31
520.171	11.31
520.294	11.31
520.418	19.31
520.542	11.31
520.665	25.31
520.789	11.31
520.913	18.31
521.036	-3.69
521.16	4.31
521.283	4.31
521.407	18.31
521.53	1.31
521.654	-10.69
521.778	9.31
521.901	2.31
522.025	24.31
522.148	-2.69
522.272	27.31
522.395	27.31
522.519	17.31
522.643	11.31
522.766	17.31
522.89	1.31
523.013	5.31
523.137	-2.69
523.26	-7.69
523.384	28.31
523.507	14.31
523.631	21.31
523.754	15.31
523.878	24.31
524.002	10.31
524.125	16.31
524.249	1.31
524.372	8.31
524.496	1.31
524.619	30.31
524.743	34.31
524.866	10.31
524.99	20.31
525.113	5.31
525.237	20.31
525.36	37.31
525.484	18.31
525.607	0.31
525.731	-17.69
525.854	27.31
525.978	34.31
526.101	1.31
526.224	-4.69
526.348	22.31
526.471	11.31
526.595	-5.69
526.718	24.31
526.842	14.31
526.965	23.31
527.089	1.31
527.212	-3.69
527.336	-9.69
527.459	10.31
527.582	19.31
527.706	19.31
527.829	16.31
527.953	4.31
528.076	-2.69
528.2	5.31
528.323	15.31
528.446	19.31
528.57	3.31
528.693	13.31
528.817	0.31
528.94	10.31
529.064	33.31
529.187	4.31
529.31	10.31
529.434	-9.69
529.557	14.31
529.68	2.31
529.804	11.31
529.927	6.31
530.051	0.31
530.174	12.31
530.297	11.31
530.421	16.31
530.544	25.31
530.668	14.31
530.791	-2.69
530.914	13.31
531.038	20.31
531.161	9.31
531.284	29.31
531.408	22.31
531.531	18.31
531.654	-2.69
531.778	12.31
531.901	-3.69
532.024	10.31
532.148	12.31
532.271	15.31
532.394	13.31
532.518	21.31
532.641	25.31
532.764	37.31
532.888	33.31
533.011	6.31
533.134	13.31
533.258	18.31
533.381	7.31
533.504	9.31
533.628	-6.69
533.751	24.31
533.874	21.31
533.997	25.31
534.121	-5.69
534.244	8.31
534.367	0.31
534.491	21.31
534.614	13.31
534.737	43.31
534.86	41.31
534.984	-0.69
535.107	17.31
535.23	4.31
535.354	9.31
535.477	-4.69
535.6	9.31
535.723	6.31
535.847	1.31
535.97	-3.69
536.093	7.31
536.216	-4.69
536.34	12.31
536.463	-1.69
536.586	13.31
536.709	22.31
536.833	15.31
536.956	1.31
537.079	5.31
537.202	27.31
537.325	7.31
537.449	-2.69
537.572	9.31
537.695	4.31
537.818	10.31
537.941	3.31
538.065	16.31
538.188	12.31
538.311	25.31
538.434	28.31
538.558	13.31
538.681	30.31
538.804	7.31
538.927	0.31
539.05	18.31
539.173	1.31
539.297	8.31
539.42	-0.69
539.543	-13.69
539.666	28.31
539.789	18.31
539.913	11.31
540.036	7.31
540.159	20.31
540.282	6.31
540.405	-5.69
540.528	1.31
540.651	4.31
540.775	1.31
540.898	14.31
541.021	11.31
541.144	17.31
541.267	12.31
541.39	0.31
541.513	24.31
541.637	10.31
541.76	3.31
541.883	3.31
542.006	17.31
542.129	21.31
542.252	-7.69
542.375	9.31
542.498	6.31
542.622	11.31
542.745	12.31
542.868	7.31
542.991	18.31
543.114	25.31
543.237	32.31
543.36	27.31
543.483	18.31
543.606	20.31
543.73	27.31
543.853	7.31
543.976	25.31
544.099	13.31
544.222	-4.69
544.345	-7.69
544.468	8.31
544.591	13.31
544.714	6.31
544.837	16.31
544.96	10.31
545.083	34.31
545.206	10.31
545.329	34.31
545.453	16.31
545.576	5.31
545.699	18.31
545.822	17.31
545.945	29.31
546.068	-5.69
546.191	14.31
546.314	10.31
546.437	18.31
546.56	22.31
546.683	0.31
546.806	29.31
546.929	11.31
547.052	-6.69
547.175	8.31
547.298	13.31
547.421	3.31
547.544	-6.69
547.667	2.31
547.79	16.31
547.913	8.31
548.036	-2.69
548.159	-3.69
548.282	-4.69
548.405	7.31
548.528	20.31
548.651	3.31
548.774	20.31
548.897	21.31
549.02	32.31
549.143	7.31
549.266	22.31
549.389	17.31
549.512	11.31
549.635	4.31
549.758	21.31
549.881	-2.69
550.004	8.31
550.127	14.31
550.25	2.31
550.373	4.31
550.496	10.31
550.619	5.31
550.742	-10.69
550.865	15.31
550.988	28.31
551.111	22.31
551.234	9.31
551.356	-12.69
551.479	-10.69
551.602	6.31
551.725	20.31
551.848	23.31
551.971	41.31
552.094	17.31
552.217	4.31
552.34	9.31
552.463	-2.69
552.586	-2.69
552.709	3.31
552.832	26.31
552.955	5.31
553.077	24.31
553.2	21.31
553.323	0.31
553.446	-0.69
553.569	-2.69
553.692	19.31
553.815	11.31
553.938	22.31
554.061	28.31
554.184	15.31
554.306	7.31
554.429	4.31
554.552	-0.69
554.675	10.31
554.798	7.31
554.921	18.31
555.044	-11.69
555.167	1.31
555.29	-2.69
555.412	20.31
555.535	6.31
555.658	10.31
555.781	6.31
555.904	26.31
556.027	24.31
556.15	7.31
556.272	7.31
556.395	13.31
556.518	11.31
556.641	15.31
556.764	29.31
556.887	10.31
557.01	2.31
557.132	-0.69
557.255	-2.69
557.378	4.31
557.501	10.31
557.624	28.31
557.747	19.31
557.869	16.31
557.992	6.31
558.115	29.31
558.238	5.31
558.361	10.31
558.483	24.31
558.606	16.31
558.729	-1.69
558.852	37.31
558.975	28.31
559.098	21.31
559.22	26.31
559.343	7.31
559.466	-1.69
559.589	0.31
559.712	6.31
559.834	18.31
559.957	14.31
560.08	18.31
560.203	17.31
560.325	31.31
560.448	26.31
560.571	18.31
560.694	-5.69
560.817	26.31
560.939	1.31
561.062	4.31
561.185	14.31
561.308	2.31
561.43	2.31
561.553	5.31
561.676	-6.69
561.799	12.31
561.921	-10.69
562.044	-4.69
562.167	-9.69
562.29	41.31
562.413	23.31
562.535	3.31
562.658	-1.69
562.781	16.31
562.903	17.31
563.026	15.31
563.149	23.31
563.272	13.31
563.394	21.31
563.517	25.31
563.64	-2.69
563.763	14.31
563.885	16.31
564.008	14.31
564.131	20.31
564.254	4.31
564.376	-6.69
564.499	-3.69
564.622	-2.69
564.744	20.31
564.867	3.31
564.99	12.31
565.113	22.31
565.235	13.31
565.358	-7.69
565.481	-12.69
565.603	-3.69
565.726	15.31
565.849	30.31
565.971	25.31
566.094	13.31
566.217	19.31
566.34	2.31
566.462	18.31
566.585	13.31
566.708	19.31
566.83	-1.69
566.953	13.31
567.076	2.31
567.198	3.31
567.321	-11.69
567.444	6.31
567.566	3.31
567.689	9.31
567.812	-14.69
567.934	12.31
568.057	16.31
568.18	14.31
568.302	-1.69
568.425	12.31
568.548	11.31
568.67	19.31
568.793	20.31
568.916	12.31
569.038	6.31
569.161	3.31
569.283	4.31
569.406	15.31
569.529	4.31
569.651	-3.69
569.774	0.31
569.897	-7.69
570.019	14.31
570.142	4.31
570.265	24.31
570.387	27.31
570.51	20.31
570.632	23.31
570.755	-6.69
570.878	0.31
571	7.31
571.123	8.31
571.246	9.31
571.368	27.31
571.491	18.31
571.613	-4.69
571.736	2.31
571.859	0.31
571.981	-9.69
572.104	3.31
572.226	14.31
572.349	-19.69
572.472	10.31
572.594	5.31
572.717	23.31
572.839	-0.69
572.962	9.31
573.085	7.31
573.207	6.31
573.33	0.31
573.452	29.31
573.575	39.31
573.697	6.31
573.82	8.31
573.943	0.31
574.065	19.31
574.188	8.31
574.31	28.31
574.433	5.31
574.555	25.31
574.678	8.31
574.801	24.31
574.923	8.31
575.046	10.31
575.168	-2.69
575.291	26.31
575.413	12.31
575.536	11.31
575.659	26.31
575.781	15.31
575.904	-1.69
576.026	16.31
576.149	2.31
576.271	21.31
576.394	14.31
576.516	2.31
576.639	10.31
576.761	-8.69
576.884	-10.69
577.007	1.31
577.129	23.31
577.252	9.31
577.374	17.31
577.497	8.31
577.619	10.31
577.742	3.31
577.864	19.31
577.987	23.31
578.109	4.31
578.232	14.31
578.354	25.31
578.477	14.31
578.599	19.31
578.722	7.31
578.844	-5.69
578.967	32.31
579.089	19.31
579.212	1.31
579.334	18.31
579.457	8.31
579.579	9.31
579.702	18.31
579.824	22.31
579.947	-5.69
580.069	-15.69
580.192	-9.69
580.314	4.31
580.437	16.31
580.559	32.31
580.682	14.31
580.804	7.31
580.927	21.31
581.049	25.31
581.172	28.31
581.294	9.31
581.417	22.31
581.539	21.31
581.662	18.31
581.784	16.31
581.907	26.31
582.029	25.31
582.152	4.31
582.274	24.31
582.396	23.31
582.519	3.31
582.641	-2.69
582.764	10.31
582.886	34.31
583.009	-2.69
583.131	15.31
583.254	6.31
583.376	18.31
583.499	12.31
583.621	7.31
583.743	14.31
583.866	11.31
583.988	7.31
584.111	30.31
584.233	20.31
584.356	2.31
584.478	24.31
584.601	2.31
584.723	-2.69
584.845	26.31
584.968	-1.69
585.09	-2.69
585.213	17.31
585.335	9.31
585.458	10.31
585.58	24.31
585.702	13.31
585.825	16.31
585.947	4.31
586.07	-2.69
586.192	9.31
586.315	13.31
586.437	-0.69
586.559	12.31
586.682	-10.69
586.804	21.31
586.927	22.31
587.049	10.31
587.171	24.31
587.294	33.31
587.416	47.31
587.539	8.31
587.661	3.31
587.783	11.31
587.906	21.31
588.028	17.31
588.151	10.31
588.273	25.31
588.395	15.31
588.518	1.31
588.64	-3.69
588.763	13.31
588.885	14.31
589.007	39.31
589.13	-2.69
589.252	-12.69
589.375	10.31
589.497	16.31
589.619	5.31
589.742	4.31
589.864	20.31
589.986	8.31
590.109	5.31
590.231	7.31
590.354	27.31
590.476	4.31
590.598	10.31
590.721	-6.69
590.843	14.31
590.965	1.31
591.088	-1.69
591.21	11.31
591.332	9.31
591.455	-14.69
591.577	-1.69
591.7	10.31
591.822	7.31
591.944	-5.69
592.067	1.31
592.189	5.31
592.311	6.31
592.434	12.31
592.556	22.31
592.678	29.31
592.801	14.31
592.923	21.31
593.045	15.31
593.168	5.31
593.29	7.31
593.412	21.31
593.535	0.31
593.657	0.31
593.779	2.31
593.902	42.31
594.024	22.31
594.146	14.31
594.269	8.31
594.391	-0.69
594.513	20.31
594.636	16.31
594.758	2.31
594.88	16.31
595.003	-5.69
595.125	6.31
595.247	14.31
595.37	3.31
595.492	-6.69
595.614	29.31
595.737	19.31
595.859	19.31
595.981	7.31
596.104	14.31
596.226	2.31
596.348	7.31
596.471	4.31
596.593	17.31
596.715	4.31
596.838	4.31
596.96	-7.69
597.082	2.31
597.204	5.31
597.327	12.31
597.449	6.31
597.571	13.31
597.694	16.31
597.816	14.31
597.938	6.31
598.061	0.31
598.183	5.31
598.305	26.31
598.427	29.31
598.55	10.31
598.672	15.31
598.794	6.31
598.917	-2.69
599.039	10.31
599.161	10.31
599.283	0.31
599.406	21.31
599.528	40.31
599.65	29.31
599.773	23.31
599.895	40.31
600.017	24.31
600.139	7.31
600.262	-6.69
600.384	8.31
600.506	4.31
600.628	16.31
600.751	16.31
600.873	7.31
600.995	7.31
601.118	26.31
601.24	12.31
601.362	37.31
601.484	14.31
601.607	18.31
601.729	9.31
601.851	18.31
601.973	14.31
602.096	9.31
602.218	33.31
602.34	37.31
602.462	26.31
602.585	16.31
602.707	-13.69
602.829	2.31
602.951	1.31
603.074	-15.69
603.196	10.31
603.318	-3.69
603.44	14.31
603.563	1.31
603.685	-3.69
603.807	16.31
603.929	26.31
604.052	19.31
604.174	37.31
604.296	19.31
604.418	36.31
604.541	35.31
604.663	-10.69
604.785	-2.69
604.907	4.31
605.03	13.31
605.152	42.31
605.274	6.31
605.396	1.31
605.519	10.31
605.641	8.31
605.763	11.31
605.885	4.31
606.008	14.31
606.13	14.31
606.252	23.31
606.374	-11.69
606.496	-22.69
606.619	12.31
606.741	-3.69
606.863	37.31
606.985	23.31
607.108	20.31
607.23	8.31
607.352	-7.69
607.474	10.31
607.596	4.31
607.719	9.31
607.841	16.31
607.963	10.31
608.085	4.31
608.207	27.31
608.33	17.31
608.452	7.31
608.574	11.31
608.696	27.31
608.819	11.31
608.941	-1.69
609.063	13.31
609.185	18.31
609.307	10.31
609.43	8.31
609.552	19.31
609.674	-17.69
609.796	25.31
609.918	28.31
610.041	10.31
610.163	15.31
610.285	1.31
610.407	9.31
610.529	-4.69
610.652	10.31
610.774	16.31
610.896	2.31
611.018	17.31
611.14	6.31
611.263	16.31
611.385	28.31
611.507	18.31
611.629	0.31
611.751	33.31
611.873	23.31
611.996	20.31
612.118	8.31
612.24	-1.69
612.362	20.31
612.484	29.31
612.607	15.31
612.729	35.31
612.851	20.31
612.973	2.31
613.095	12.31
613.218	-1.69
613.34	5.31
613.462	11.31
613.584	20.31
613.706	1.31
613.828	20.31
613.951	11.31
614.073	23.31
614.195	2.31
614.317	29.31
614.439	35.31
614.561	19.31
614.684	13.31
614.806	32.31
614.928	25.31
615.05	12.31
615.172	23.31
615.294	23.31
615.417	11.31
615.539	-12.69
615.661	16.31
615.783	24.31
615.905	19.31
616.027	62.31
616.15	104.31
616.272	93.31
616.394	60.31
616.516	42.31
616.638	28.31
616.76	19.31
616.883	32.31
617.005	-4.69
617.127	4.31
617.249	11.31
617.371	9.31
617.493	6.31
617.615	20.31
617.738	5.31
617.86	9.31
617.982	17.31
618.104	2.31
618.226	9.31
618.348	-6.69
618.471	6.31
618.593	10.31
618.715	-18.69
618.837	12.31
618.959	5.31
619.081	26.31
619.203	3.31
619.326	12.31
619.448	23.31
619.57	21.31
619.692	12.31
619.814	38.31
619.936	17.31
620.058	18.31
620.181	2.31
620.303	8.31
620.425	20.31
620.547	14.31
620.669	14.31
620.791	11.31
620.913	2.31
621.036	3.31
621.158	2.31
621.28	11.31
621.402	8.31
621.524	12.31
621.646	0.31
621.768	-2.69
621.891	6.31
622.013	9.31
622.135	9.31
622.257	6.31
622.379	11.31
622.501	1.31
622.623	5.31
622.745	8.31
622.868	0.31
622.99	7.31
623.112	5.31
623.234	7.31
623.356	16.31
623.478	-21.69
623.6	14.31
623.722	18.31
623.845	30.31
623.967	29.31
624.089	24.31
624.211	13.31
624.333	18.31
624.455	22.31
624.577	27.31
624.699	29.31
624.822	10.31
624.944	-11.69
625.066	16.31
625.188	1.31
625.31	5.31
625.432	42.31
625.554	13.31
625.676	25.31
625.799	4.31
625.921	25.31
626.043	-0.69
626.165	6.31
626.287	-15.69
626.409	7.31
626.531	5.31
626.653	10.31
626.775	9.31
626.898	9.31
627.02	-7.69
627.142	20.31
627.264	19.31
627.386	0.31
627.508	25.31
627.63	4.31
627.752	13.31
627.874	8.31
627.997	-3.69
628.119	10.31
628.241	8.31
628.363	33.31
628.485	14.31
628.607	3.31
628.729	15.31
628.851	3.31
628.973	17.31
629.096	-9.69
629.218	5.31
629.34	0.31
629.462	5.31
629.584	8.31
629.706	3.31
629.828	16.31
629.95	17.31
630.072	-5.69
630.195	5.31
630.317	8.31
630.439	-5.69
630.561	26.31
630.683	12.31
630.805	9.31
630.927	31.31
631.049	6.31
631.171	2.31
631.293	13.31
631.416	13.31
631.538	18.31
631.66	13.31
631.782	28.31
631.904	23.31
632.026	12.31
632.148	5.31
632.27	-9.69
632.392	11.31
632.514	10.31
632.637	8.31
632.759	-3.69
632.881	-0.69
633.003	5.31
633.125	4.31
633.247	7.31
633.369	10.31
633.491	10.31
633.613	20.31
633.735	16.31
633.858	8.31
633.98	6.31
634.102	-6.69
634.224	-0.69
634.346	-0.69
634.468	14.31
634.59	15.31
634.712	10.31
634.834	6.31
634.956	-2.69
635.078	-3.69
635.201	1.31
635.323	16.31
635.445	-7.69
635.567	-2.69
635.689	5.31
635.811	22.31
635.933	21.31
636.055	15.31
636.177	2.31
636.299	7.31
636.421	-3.69
636.544	4.31
636.666	14.31
636.788	8.31
636.91	25.31
637.032	4.31
637.154	6.31
637.276	39.31
637.398	24.31
637.52	23.31
637.642	6.31
637.764	14.31
637.887	-10.69
638.009	-0.69
638.131	19.31
638.253	14.31
638.375	8.31
638.497	7.31
638.619	0.31
638.741	13.31
638.863	0.31
638.985	12.31
639.107	11.31
639.23	-1.69
639.352	23.31
639.474	9.31
639.596	21.31
639.718	-12.69
639.84	3.31
639.962	-1.69
640.084	12.31
640.206	29.31
640.328	3.31
640.45	16.31
640.573	-0.69
640.695	9.31
640.817	7.31
640.939	16.31
641.061	14.31
641.183	7.31
641.305	1.31
641.427	-0.69
641.549	12.31
641.671	-2.69
641.793	-7.69
641.915	26.31
642.038	21.31
642.16	9.31
642.282	9.31
642.404	9.31
642.526	22.31
642.648	3.31
642.77	10.31
642.892	3.31
643.014	21.31
643.136	18.31
643.258	25.31
643.381	33.31
643.503	29.31
643.625	11.31
643.747	-1.69
643.869	-10.69
643.991	5.31
644.113	13.31
644.235	3.31
644.357	18.31
644.479	18.31
644.601	0.31
644.723	20.31
644.846	17.31
644.968	7.31
645.09	-7.69
645.212	0.31
645.334	18.31
645.456	27.31
645.578	23.31
645.7	14.31
645.822	16.31
645.944	19.31
646.066	8.31
646.188	10.31
646.311	26.31
646.433	8.31
646.555	32.31
646.677	28.31
646.799	37.31
646.921	15.31
647.043	15.31
647.165	0.31
647.287	19.31
647.409	7.31
647.531	8.31
647.654	-18.69
647.776	12.31
647.898	18.31
648.02	6.31
648.142	-8.69
648.264	8.31
648.386	-2.69
648.508	-6.69
648.63	1.31
648.752	4.31
648.874	5.31
648.997	13.31
649.119	28.31
649.241	5.31
649.363	24.31
649.485	23.31
649.607	0.31
649.729	6.31
649.851	4.31
649.973	-11.69
650.095	12.31
650.217	-2.69
650.34	-5.69
650.462	9.31
650.584	8.31
650.706	18.31
650.828	6.31
650.95	-6.69
651.072	32.31
651.194	6.31
651.316	-1.69
651.438	16.31
651.56	-12.69
651.683	-7.69
651.805	21.31
651.927	5.31
652.049	-6.69
652.171	10.31
652.293	23.31
652.415	9.31
652.537	3.31
652.659	-0.69
652.781	17.31
652.903	27.31
653.026	24.31
653.148	22.31
653.27	17.31
653.392	16.31
653.514	-0.69
653.636	16.31
653.758	12.31
653.88	1.31
654.002	-0.69
654.124	28.31
654.247	-5.69
654.369	27.31
654.491	12.31
654.613	13.31
654.735	10.31
654.857	12.31
654.979	13.31
655.101	23.31
655.223	43.31
655.345	39.31
655.468	26.31
655.59	25.31
655.712	30.31
655.834	27.31
655.956	44.31
656.078	32.31
656.2	51.31
656.322	36.31
656.444	12.31
656.566	50.31
656.689	45.31
656.811	51.31
656.933	85.31
657.055	83.31
657.177	164.31
657.299	247.31
657.421	489.31
657.543	1856.31
657.665	12464.31
657.787	15161.31
657.91	15236.31
658.032	15663.31
658.154	4595.31
658.276	3222.31
658.398	1123.31
658.52	1009.31
658.642	494.31
658.764	597.31
658.886	293.31
659.009	416.31
659.131	204.31
659.253	311.31
659.375	170.31
659.497	224.31
659.619	135.31
659.741	193.31
659.863	91.31
659.985	154.31
660.108	106.31
660.23	148.31
660.352	70.31
660.474	151.31
660.596	79.31
660.718	148.31
660.84	72.31
660.962	112.31
661.084	53.31
661.207	100.31
661.329	58.31
661.451	81.31
661.573	34.31
661.695	88.31
661.817	60.31
661.939	96.31
662.061	58.31
662.184	68.31
662.306	46.31
662.428	92.31
662.55	52.31
662.672	66.31
662.794	47.31
662.916	57.31
663.038	20.31
663.161	76.31
663.283	36.31
663.405	68.31
663.527	34.31
663.649	67.31
663.771	32.31
663.893	44.31
664.015	29.31
664.138	49.31
664.26	25.31
664.382	46.31
664.504	20.31
664.626	40.31
664.748	34.31
664.87	47.31
664.992	43.31
665.115	44.31
665.237	28.31
665.359	46.31
665.481	37.31
665.603	56.31
665.725	8.31
665.847	20.31
665.97	19.31
666.092	41.31
666.214	37.31
666.336	29.31
666.458	24.31
666.58	45.31
666.702	15.31
666.825	19.31
666.947	11.31
667.069	24.31
667.191	12.31
667.313	41.31
667.435	13.31
667.557	15.31
667.68	-5.69
667.802	31.31
667.924	7.31
668.046	39.31
668.168	30.31
668.29	40.31
668.412	8.31
668.535	33.31
668.657	19.31
668.779	31.31
668.901	18.31
669.023	40.31
669.145	44.31
669.267	32.31
669.39	10.31
669.512	20.31
669.634	31.31
669.756	41.31
669.878	16.31
670	28.31
670.123	19.31
670.245	29.31
670.367	21.31
670.489	40.31
670.611	14.31
670.733	21.31
670.856	6.31
670.978	37.31
671.1	27.31
671.222	48.31
671.344	15.31
671.466	17.31
671.589	10.31
671.711	24.31
671.833	0.31
671.955	26.31
672.077	5.31
672.199	40.31
672.322	33.31
672.444	18.31
672.566	10.31
672.688	10.31
672.81	16.31
672.932	25.31
673.055	22.31
673.177	4.31
673.299	24.31
673.421	5.31
673.543	9.31
673.665	33.31
673.788	13.31
673.91	10.31
674.032	-5.69
674.154	-2.69
674.276	20.31
674.399	21.31
674.521	19.31
674.643	24.31
674.765	0.31
674.887	8.31
675.009	8.31
675.132	32.31
675.254	22.31
675.376	26.31
675.498	14.31
675.62	34.31
675.743	-3.69
675.865	36.31
675.987	19.31
676.109	11.31
676.231	10.31
676.354	44.31
676.476	-12.69
676.598	40.31
676.72	12.31
676.842	27.31
676.965	21.31
677.087	37.31
677.209	23.31
677.331	17.31
677.453	11.31
677.576	20.31
677.698	4.31
677.82	18.31
677.942	16.31
678.064	21.31
678.187	1.31
678.309	19.31
678.431	9.31
678.553	14.31
678.675	11.31
678.798	29.31
678.92	12.31
679.042	25.31
679.164	1.31
679.286	23.31
679.409	0.31
679.531	16.31
679.653	18.31
679.775	12.31
679.898	15.31
680.02	31.31
680.142	1.31
680.264	13.31
680.386	-14.69
680.509	11.31
680.631	12.31
680.753	10.31
680.875	7.31
680.998	17.31
681.12	-1.69
681.242	22.31
681.364	-5.69
681.486	0.31
681.609	-7.69
681.731	6.31
681.853	0.31
681.975	-1.69
682.098	32.31
682.22	26.31
682.342	12.31
682.464	26.31
682.587	18.31
682.709	37.31
682.831	1.31
682.953	5.31
683.076	6.31
683.198	19.31
683.32	-1.69
683.442	17.31
683.565	17.31
683.687	22.31
683.809	-2.69
683.931	-0.69
684.054	20.31
684.176	20.31
684.298	18.31
684.42	21.31
684.543	0.31
684.665	21.31
684.787	9.31
684.909	11.31
685.032	12.31
685.154	-18.69
685.276	-4.69
685.398	-4.69
685.521	-1.69
685.643	26.31
685.765	11.31
685.887	20.31
686.01	28.31
686.132	17.31
686.254	17.31
686.377	9.31
686.499	26.31
686.621	26.31
686.743	16.31
686.866	7.31
686.988	18.31
687.11	15.31
687.232	13.31
687.355	12.31
687.477	13.31
687.599	27.31
687.722	12.31
687.844	9.31
687.966	9.31
688.088	2.31
688.211	17.31
688.333	2.31
688.455	14.31
688.578	21.31
688.7	4.31
688.822	3.31
688.944	-6.69
689.067	46.31
689.189	27.31
689.311	-6.69
689.434	1.31
689.556	28.31
689.678	30.31
689.801	18.31
689.923	17.31
690.045	19.31
690.167	22.31
690.29	28.31
690.412	11.31
690.534	19.31
690.657	0.31
690.779	15.31
690.901	18.31
691.024	8.31
691.146	4.31
691.268	5.31
691.391	26.31
691.513	14.31
691.635	15.31
691.758	30.31
691.88	10.31
692.002	-8.69
692.125	9.31
692.247	6.31
692.369	3.31
692.492	12.31
692.614	1.31
692.736	11.31
692.859	13.31
692.981	10.31
693.103	1.31
693.226	-2.69
693.348	19.31
693.47	0.31
693.593	12.31
693.715	-8.69
693.837	-4.69
693.96	-9.69
694.082	10.31
694.204	20.31
694.327	8.31
694.449	1.31
694.571	15.31
694.694	19.31
694.816	33.31
694.938	11.31
695.061	32.31
695.183	25.31
695.305	-1.69
695.428	24.31
695.55	0.31
695.672	4.31
695.795	36.31
695.917	36.31
696.04	12.31
696.162	16.31
696.284	-6.69
696.407	11.31
696.529	1.31
696.651	21.31
696.774	-0.69
696.896	20.31
697.019	3.31
697.141	12.31
697.263	1.31
697.386	7.31
697.508	-15.69
697.63	2.31
697.753	9.31
697.875	13.31
697.998	-8.69
698.12	20.31
698.242	0.31
698.365	8.31
698.487	7.31
698.61	11.31
698.732	9.31
698.854	32.31
698.977	22.31
699.099	13.31
699.221	1.31
699.344	17.31
699.466	18.31
699.589	18.31
699.711	-8.69
699.834	1.31
699.956	-10.69
700.078	18.31
700.201	4.31
700.323	24.31
700.446	7.31
700.568	0.31
700.69	12.31
700.813	4.31
700.935	12.31
701.058	17.31
701.18	13.31
701.302	6.31
701.425	-1.69
701.547	22.31
701.67	12.31
701.792	10.31
701.915	6.31
702.037	-9.69
702.159	4.31
702.282	23.31
702.404	8.31
702.527	19.31
702.649	37.31
702.772	6.31
702.894	11.31
703.017	6.31
703.139	17.31
703.261	28.31
703.384	1.31
703.506	3.31
703.629	10.31
703.751	13.31
703.874	8.31
703.996	-8.69
704.119	-8.69
704.241	4.31
704.364	-10.69
704.486	7.31
704.608	20.31
704.731	4.31
704.853	26.31
704.976	4.31
705.098	8.31
705.221	3.31
705.343	4.31
705.466	4.31
705.588	7.31
705.711	20.31
705.833	17.31
705.956	25.31
706.078	28.31
706.201	25.31
706.323	2.31
706.446	2.31
