Data from LowRes_H2_15_26_11_07_2024_HR4C61881__56__15-28-19-237.txt Node

Date: Thu Nov 07 15:28:19 EST 2024
User: crc00042
Spectrometer: HR4C6188
Trigger mode: 4
Integration Time (sec): 1.000000E-1
Scans to average: 1
Electric dark correction enabled: true
Nonlinearity correction enabled: false
Boxcar width: 0
XAxis mode: Wavelengths
Number of Pixels in Spectrum: 3648
>>>>>Begin Spectral Data<<<<<
245.66	-128.54
245.797	-128.54
245.934	-128.54
246.071	-81.54
246.208	15.46
246.344	-4.54
246.481	-10.54
246.618	-14.54
246.755	17.46
246.892	7.46
247.029	-9.54
247.165	-29.54
247.302	14.46
247.439	16.46
247.576	15.46
247.713	2.46
247.849	16.46
247.986	-21.54
248.123	5.46
248.26	-8.54
248.396	2.46
248.533	-16.54
248.67	-16.54
248.806	-0.54
248.943	-15.54
249.08	-16.54
249.216	17.46
249.353	-24.54
249.49	-11.54
249.626	4.46
249.763	-5.54
249.9	-9.54
250.036	-13.54
250.173	4.46
250.309	-9.54
250.446	-12.54
250.582	-5.54
250.719	-13.54
250.856	-20.54
250.992	-14.54
251.129	-16.54
251.265	-17.54
251.402	-13.54
251.538	-22.54
251.675	-2.54
251.811	0.46
251.948	-1.54
252.084	-2.54
252.221	-15.54
252.357	-18.54
252.493	38.46
252.63	-4.54
252.766	15.46
252.903	11.46
253.039	0.46
253.175	5.46
253.312	19.46
253.448	-0.54
253.585	-27.54
253.721	4.46
253.857	-13.54
253.994	-4.54
254.13	-8.54
254.266	9.46
254.403	9.46
254.539	15.46
254.675	3.46
254.811	-0.54
254.948	5.46
255.084	-6.54
255.22	-1.54
255.356	-25.54
255.493	0.46
255.629	-6.54
255.765	14.46
255.901	2.46
256.037	-1.54
256.174	-5.54
256.31	-17.54
256.446	-8.54
256.582	-19.54
256.718	18.46
256.854	18.46
256.991	15.46
257.127	4.46
257.263	-0.54
257.399	-2.54
257.535	-3.54
257.671	-3.54
257.807	-7.54
257.943	-25.54
258.079	-29.54
258.215	-6.54
258.351	4.46
258.487	1.46
258.623	10.46
258.759	-1.54
258.895	1.46
259.031	-3.54
259.167	-17.54
259.303	23.46
259.439	3.46
259.575	-4.54
259.711	-13.54
259.847	-8.54
259.983	8.46
260.119	-12.54
260.255	-15.54
260.391	4.46
260.527	11.46
260.663	17.46
260.799	23.46
260.934	-2.54
261.07	-6.54
261.206	-17.54
261.342	-29.54
261.478	13.46
261.614	16.46
261.749	14.46
261.885	-2.54
262.021	-15.54
262.157	31.46
262.293	-15.54
262.428	-25.54
262.564	-7.54
262.7	5.46
262.836	-18.54
262.971	-6.54
263.107	-11.54
263.243	2.46
263.378	0.46
263.514	-28.54
263.65	2.46
263.785	-26.54
263.921	-17.54
264.057	-14.54
264.192	-1.54
264.328	-4.54
264.464	-6.54
264.599	-2.54
264.735	14.46
264.871	-12.54
265.006	1.46
265.142	-8.54
265.277	-11.54
265.413	-17.54
265.548	9.46
265.684	15.46
265.819	12.46
265.955	-8.54
266.091	-18.54
266.226	-10.54
266.362	7.46
266.497	16.46
266.633	-0.54
266.768	-2.54
266.903	2.46
267.039	20.46
267.174	22.46
267.31	0.46
267.445	-10.54
267.581	-8.54
267.716	4.46
267.851	9.46
267.987	5.46
268.122	26.46
268.258	0.46
268.393	-7.54
268.528	-4.54
268.664	-5.54
268.799	-11.54
268.934	-0.54
269.07	-17.54
269.205	6.46
269.34	10.46
269.476	0.46
269.611	-26.54
269.746	16.46
269.881	-5.54
270.017	13.46
270.152	1.46
270.287	7.46
270.422	8.46
270.558	-11.54
270.693	5.46
270.828	-12.54
270.963	-18.54
271.098	-24.54
271.234	2.46
271.369	15.46
271.504	-11.54
271.639	-10.54
271.774	-7.54
271.909	-12.54
272.045	-38.54
272.18	-18.54
272.315	-11.54
272.45	-5.54
272.585	-20.54
272.72	-11.54
272.855	-11.54
272.99	0.46
273.125	-26.54
273.26	-12.54
273.395	-6.54
273.53	-5.54
273.665	-4.54
273.8	-10.54
273.935	-5.54
274.07	-16.54
274.205	6.46
274.34	1.46
274.475	-10.54
274.61	7.46
274.745	-27.54
274.88	-4.54
275.015	-11.54
275.15	8.46
275.285	2.46
275.42	-8.54
275.555	9.46
275.69	-13.54
275.825	-27.54
275.959	8.46
276.094	-15.54
276.229	3.46
276.364	-21.54
276.499	-5.54
276.634	-10.54
276.768	-16.54
276.903	-5.54
277.038	12.46
277.173	6.46
277.308	-22.54
277.442	-23.54
277.577	-11.54
277.712	-13.54
277.847	0.46
277.981	-12.54
278.116	-16.54
278.251	0.46
278.386	-5.54
278.52	0.46
278.655	-22.54
278.79	3.46
278.924	-23.54
279.059	-8.54
279.194	-18.54
279.328	4.46
279.463	-3.54
279.598	8.46
279.732	9.46
279.867	7.46
280.001	-2.54
280.136	-6.54
280.271	-4.54
280.405	-4.54
280.54	5.46
280.674	-35.54
280.809	-2.54
280.943	-13.54
281.078	-7.54
281.213	14.46
281.347	1.46
281.482	-2.54
281.616	1.46
281.751	-7.54
281.885	-4.54
282.02	-20.54
282.154	8.46
282.288	-22.54
282.423	-12.54
282.557	-19.54
282.692	-8.54
282.826	-24.54
282.961	-6.54
283.095	-4.54
283.229	-18.54
283.364	-21.54
283.498	-15.54
283.633	2.46
283.767	-18.54
283.901	2.46
284.036	-24.54
284.17	-6.54
284.304	-21.54
284.439	-16.54
284.573	2.46
284.707	2.46
284.842	-22.54
284.976	-10.54
285.11	-20.54
285.244	-2.54
285.379	40.46
285.513	-14.54
285.647	-7.54
285.781	3.46
285.916	4.46
286.05	-15.54
286.184	9.46
286.318	10.46
286.453	-13.54
286.587	-38.54
286.721	-5.54
286.855	-6.54
286.989	2.46
287.123	-14.54
287.258	-30.54
287.392	-16.54
287.526	-10.54
287.66	-15.54
287.794	0.46
287.928	-6.54
288.062	-3.54
288.196	-8.54
288.33	4.46
288.464	9.46
288.598	0.46
288.733	9.46
288.867	7.46
289.001	-20.54
289.135	-0.54
289.269	-23.54
289.403	11.46
289.537	8.46
289.671	14.46
289.805	-18.54
289.939	5.46
290.073	-0.54
290.207	-5.54
290.34	1.46
290.474	11.46
290.608	7.46
290.742	-3.54
290.876	-10.54
291.01	-8.54
291.144	17.46
291.278	-6.54
291.412	-8.54
291.546	-10.54
291.679	-8.54
291.813	0.46
291.947	-11.54
292.081	-11.54
292.215	-16.54
292.349	10.46
292.482	8.46
292.616	-8.54
292.75	-34.54
292.884	-7.54
293.018	-3.54
293.151	-23.54
293.285	-12.54
293.419	-23.54
293.553	-21.54
293.686	-18.54
293.82	-19.54
293.954	17.46
294.088	28.46
294.221	-15.54
294.355	-25.54
294.489	-4.54
294.622	-7.54
294.756	-9.54
294.89	-19.54
295.023	-16.54
295.157	-17.54
295.291	-3.54
295.424	-3.54
295.558	-2.54
295.691	0.46
295.825	-9.54
295.959	-19.54
296.092	-13.54
296.226	4.46
296.359	2.46
296.493	11.46
296.627	-14.54
296.76	-7.54
296.894	-11.54
297.027	5.46
297.161	1.46
297.294	-26.54
297.428	-14.54
297.561	5.46
297.695	-14.54
297.828	-25.54
297.962	-16.54
298.095	-17.54
298.229	-4.54
298.362	-15.54
298.495	-10.54
298.629	-18.54
298.762	-2.54
298.896	-19.54
299.029	-15.54
299.162	-13.54
299.296	8.46
299.429	-18.54
299.563	1.46
299.696	-11.54
299.829	1.46
299.963	3.46
300.096	-12.54
300.229	-11.54
300.363	-19.54
300.496	-7.54
300.629	-33.54
300.763	-19.54
300.896	-14.54
301.029	5.46
301.162	-6.54
301.296	-13.54
301.429	-3.54
301.562	-32.54
301.695	0.46
301.829	-2.54
301.962	8.46
302.095	0.46
302.228	-39.54
302.362	-21.54
302.495	-1.54
302.628	2.46
302.761	9.46
302.894	-2.54
303.027	7.46
303.161	-26.54
303.294	-7.54
303.427	12.46
303.56	10.46
303.693	-20.54
303.826	8.46
303.959	-10.54
304.092	-6.54
304.225	-28.54
304.359	9.46
304.492	-10.54
304.625	-3.54
304.758	-16.54
304.891	-21.54
305.024	-3.54
305.157	-9.54
305.29	-13.54
305.423	-8.54
305.556	11.46
305.689	12.46
305.822	8.46
305.955	2.46
306.088	-12.54
306.221	5.46
306.354	-10.54
306.487	-11.54
306.62	-21.54
306.752	-17.54
306.885	-6.54
307.018	-9.54
307.151	-8.54
307.284	9.46
307.417	-12.54
307.55	-16.54
307.683	-9.54
307.816	17.46
307.948	-2.54
308.081	4.46
308.214	4.46
308.347	21.46
308.48	-6.54
308.613	-11.54
308.745	3.46
308.878	-8.54
309.011	-7.54
309.144	7.46
309.277	-7.54
309.409	6.46
309.542	-7.54
309.675	-5.54
309.808	-10.54
309.94	23.46
310.073	-16.54
310.206	-14.54
310.339	1.46
310.471	-26.54
310.604	-0.54
310.737	-2.54
310.869	-2.54
311.002	-15.54
311.135	-28.54
311.267	-30.54
311.4	-11.54
311.533	17.46
311.665	-16.54
311.798	-0.54
311.93	-11.54
312.063	-15.54
312.196	0.46
312.328	-2.54
312.461	-10.54
312.593	-19.54
312.726	-4.54
312.859	-3.54
312.991	-3.54
313.124	-22.54
313.256	-7.54
313.389	-1.54
313.521	1.46
313.654	-8.54
313.786	-14.54
313.919	-2.54
314.051	2.46
314.184	2.46
314.316	-16.54
314.449	-22.54
314.581	-13.54
314.714	-4.54
314.846	3.46
314.978	-2.54
315.111	-14.54
315.243	-3.54
315.376	9.46
315.508	-1.54
315.641	-15.54
315.773	15.46
315.905	0.46
316.038	-13.54
316.17	-30.54
316.302	10.46
316.435	-27.54
316.567	-14.54
316.699	4.46
316.832	-14.54
316.964	0.46
317.096	-14.54
317.229	-29.54
317.361	-16.54
317.493	-16.54
317.625	-2.54
317.758	-11.54
317.89	13.46
318.022	-10.54
318.155	-11.54
318.287	-10.54
318.419	8.46
318.551	-17.54
318.683	-4.54
318.816	-20.54
318.948	-21.54
319.08	-11.54
319.212	-20.54
319.344	-18.54
319.477	-15.54
319.609	-4.54
319.741	17.46
319.873	-5.54
320.005	-4.54
320.137	5.46
320.269	5.46
320.401	-8.54
320.534	-5.54
320.666	-28.54
320.798	-30.54
320.93	-17.54
321.062	-20.54
321.194	-11.54
321.326	-1.54
321.458	14.46
321.59	-7.54
321.722	-21.54
321.854	1.46
321.986	-3.54
322.118	-5.54
322.25	-22.54
322.382	-8.54
322.514	-3.54
322.646	-5.54
322.778	19.46
322.91	-16.54
323.042	-12.54
323.174	-16.54
323.306	-17.54
323.438	-21.54
323.57	1.46
323.702	-9.54
323.834	-2.54
323.966	-38.54
324.097	-3.54
324.229	2.46
324.361	-0.54
324.493	-7.54
324.625	-14.54
324.757	9.46
324.889	-22.54
325.021	-2.54
325.152	-4.54
325.284	-4.54
325.416	-17.54
325.548	4.46
325.68	-13.54
325.811	14.46
325.943	-4.54
326.075	-19.54
326.207	-6.54
326.339	-11.54
326.47	-3.54
326.602	3.46
326.734	5.46
326.866	1.46
326.997	-24.54
327.129	-7.54
327.261	-24.54
327.392	-23.54
327.524	0.46
327.656	14.46
327.787	17.46
327.919	5.46
328.051	-3.54
328.182	6.46
328.314	13.46
328.446	7.46
328.577	11.46
328.709	9.46
328.841	-19.54
328.972	0.46
329.104	-5.54
329.235	4.46
329.367	-9.54
329.499	2.46
329.63	-4.54
329.762	-6.54
329.893	7.46
330.025	-22.54
330.156	-14.54
330.288	-1.54
330.419	7.46
330.551	9.46
330.683	8.46
330.814	-9.54
330.946	1.46
331.077	-14.54
331.208	-16.54
331.34	-5.54
331.471	-13.54
331.603	-0.54
331.734	-5.54
331.866	18.46
331.997	3.46
332.129	-1.54
332.26	-4.54
332.392	24.46
332.523	-6.54
332.654	1.46
332.786	2.46
332.917	-12.54
333.048	-9.54
333.18	2.46
333.311	-11.54
333.443	-4.54
333.574	-13.54
333.705	5.46
333.837	-9.54
333.968	-14.54
334.099	16.46
334.231	11.46
334.362	-15.54
334.493	-0.54
334.624	2.46
334.756	14.46
334.887	-5.54
335.018	-2.54
335.15	1.46
335.281	-25.54
335.412	12.46
335.543	-8.54
335.675	-16.54
335.806	-4.54
335.937	-2.54
336.068	7.46
336.199	29.46
336.331	-26.54
336.462	-7.54
336.593	13.46
336.724	-4.54
336.855	-3.54
336.986	6.46
337.118	2.46
337.249	-0.54
337.38	-7.54
337.511	-15.54
337.642	-10.54
337.773	-12.54
337.904	12.46
338.035	1.46
338.166	8.46
338.298	-2.54
338.429	-22.54
338.56	11.46
338.691	4.46
338.822	-9.54
338.953	3.46
339.084	6.46
339.215	0.46
339.346	9.46
339.477	-5.54
339.608	-14.54
339.739	-6.54
339.87	-7.54
340.001	-17.54
340.132	-1.54
340.263	4.46
340.394	-1.54
340.525	-3.54
340.656	-13.54
340.787	-14.54
340.918	21.46
341.049	11.46
341.179	6.46
341.31	2.46
341.441	0.46
341.572	9.46
341.703	0.46
341.834	-16.54
341.965	3.46
342.096	-7.54
342.227	6.46
342.357	0.46
342.488	-5.54
342.619	3.46
342.75	8.46
342.881	-14.54
343.012	3.46
343.142	19.46
343.273	-14.54
343.404	6.46
343.535	35.46
343.666	4.46
343.796	-6.54
343.927	-5.54
344.058	36.46
344.189	9.46
344.319	12.46
344.45	-4.54
344.581	-6.54
344.712	-9.54
344.842	-9.54
344.973	-12.54
345.104	8.46
345.234	0.46
345.365	-14.54
345.496	-19.54
345.626	13.46
345.757	-3.54
345.888	-4.54
346.018	-12.54
346.149	-12.54
346.28	10.46
346.41	-2.54
346.541	-7.54
346.672	-5.54
346.802	11.46
346.933	6.46
347.063	0.46
347.194	-5.54
347.325	12.46
347.455	13.46
347.586	10.46
347.716	-16.54
347.847	-6.54
347.977	-6.54
348.108	-0.54
348.238	-10.54
348.369	-3.54
348.499	-5.54
348.63	-6.54
348.76	-2.54
348.891	19.46
349.021	18.46
349.152	-0.54
349.282	-6.54
349.413	-19.54
349.543	10.46
349.674	-16.54
349.804	9.46
349.935	-4.54
350.065	3.46
350.196	-13.54
350.326	1.46
350.456	8.46
350.587	19.46
350.717	6.46
350.848	5.46
350.978	-11.54
351.108	-26.54
351.239	1.46
351.369	-14.54
351.499	-11.54
351.63	7.46
351.76	-14.54
351.89	2.46
352.021	-1.54
352.151	-10.54
352.281	8.46
352.412	-0.54
352.542	3.46
352.672	1.46
352.803	3.46
352.933	-1.54
353.063	3.46
353.193	8.46
353.324	-3.54
353.454	-4.54
353.584	1.46
353.714	-10.54
353.845	-11.54
353.975	-10.54
354.105	3.46
354.235	-4.54
354.365	-12.54
354.496	2.46
354.626	3.46
354.756	13.46
354.886	11.46
355.016	19.46
355.146	-0.54
355.277	-3.54
355.407	-12.54
355.537	-8.54
355.667	5.46
355.797	-14.54
355.927	-7.54
356.057	-1.54
356.187	-16.54
356.318	-14.54
356.448	-4.54
356.578	-4.54
356.708	1.46
356.838	21.46
356.968	0.46
357.098	-3.54
357.228	23.46
357.358	-8.54
357.488	-17.54
357.618	14.46
357.748	27.46
357.878	-3.54
358.008	-3.54
358.138	-11.54
358.268	-1.54
358.398	3.46
358.528	-21.54
358.658	-6.54
358.788	-13.54
358.918	7.46
359.048	-6.54
359.178	1.46
359.308	-2.54
359.438	11.46
359.568	11.46
359.698	-3.54
359.827	-27.54
359.957	-1.54
360.087	-4.54
360.217	-6.54
360.347	1.46
360.477	2.46
360.607	-7.54
360.737	7.46
360.866	-17.54
360.996	-23.54
361.126	-21.54
361.256	13.46
361.386	13.46
361.516	5.46
361.645	-29.54
361.775	3.46
361.905	-12.54
362.035	-9.54
362.165	-6.54
362.294	-6.54
362.424	21.46
362.554	0.46
362.684	-22.54
362.813	-2.54
362.943	1.46
363.073	-3.54
363.203	7.46
363.332	2.46
363.462	-11.54
363.592	-11.54
363.721	-17.54
363.851	-26.54
363.981	-2.54
364.111	-5.54
364.24	-30.54
364.37	4.46
364.5	9.46
364.629	-1.54
364.759	-18.54
364.888	-15.54
365.018	-0.54
365.148	-12.54
365.277	0.46
365.407	-8.54
365.537	1.46
365.666	4.46
365.796	-0.54
365.925	1.46
366.055	5.46
366.184	-3.54
366.314	4.46
366.444	15.46
366.573	3.46
366.703	-3.54
366.832	11.46
366.962	-4.54
367.091	19.46
367.221	-16.54
367.35	6.46
367.48	21.46
367.609	-5.54
367.739	1.46
367.868	-12.54
367.998	-13.54
368.127	3.46
368.257	16.46
368.386	15.46
368.516	17.46
368.645	5.46
368.775	18.46
368.904	10.46
369.033	-11.54
369.163	-18.54
369.292	3.46
369.422	4.46
369.551	1.46
369.68	21.46
369.81	-6.54
369.939	-9.54
370.069	10.46
370.198	5.46
370.327	-12.54
370.457	-2.54
370.586	1.46
370.715	-19.54
370.845	-24.54
370.974	2.46
371.103	13.46
371.233	8.46
371.362	0.46
371.491	-9.54
371.621	2.46
371.75	-16.54
371.879	-20.54
372.008	6.46
372.138	-2.54
372.267	4.46
372.396	-1.54
372.525	-11.54
372.655	1.46
372.784	4.46
372.913	15.46
373.042	21.46
373.172	7.46
373.301	-13.54
373.43	-4.54
373.559	7.46
373.688	1.46
373.818	1.46
373.947	19.46
374.076	4.46
374.205	6.46
374.334	-7.54
374.463	-11.54
374.593	-11.54
374.722	4.46
374.851	18.46
374.98	-0.54
375.109	-2.54
375.238	3.46
375.367	27.46
375.496	-14.54
375.625	-20.54
375.755	13.46
375.884	31.46
376.013	7.46
376.142	-11.54
376.271	-19.54
376.4	6.46
376.529	12.46
376.658	11.46
376.787	2.46
376.916	-6.54
377.045	-13.54
377.174	-8.54
377.303	-10.54
377.432	20.46
377.561	-4.54
377.69	-7.54
377.819	15.46
377.948	2.46
378.077	-20.54
378.206	-29.54
378.335	-4.54
378.464	9.46
378.593	23.46
378.722	-18.54
378.851	0.46
378.98	12.46
379.108	-14.54
379.237	-24.54
379.366	3.46
379.495	7.46
379.624	-8.54
379.753	1.46
379.882	11.46
380.011	-10.54
380.14	-12.54
380.268	-10.54
380.397	-0.54
380.526	13.46
380.655	-19.54
380.784	-26.54
380.913	-18.54
381.041	2.46
381.17	-17.54
381.299	-2.54
381.428	19.46
381.557	5.46
381.685	-3.54
381.814	3.46
381.943	9.46
382.072	-5.54
382.2	-21.54
382.329	1.46
382.458	-2.54
382.587	15.46
382.715	18.46
382.844	3.46
382.973	9.46
383.102	-3.54
383.23	3.46
383.359	-12.54
383.488	3.46
383.616	-23.54
383.745	-8.54
383.874	-2.54
384.003	-11.54
384.131	-14.54
384.26	-2.54
384.389	11.46
384.517	-13.54
384.646	-18.54
384.774	-0.54
384.903	15.46
385.032	-1.54
385.16	-2.54
385.289	-17.54
385.418	-24.54
385.546	-0.54
385.675	3.46
385.803	-11.54
385.932	2.46
386.06	-2.54
386.189	-14.54
386.318	5.46
386.446	-15.54
386.575	-8.54
386.703	3.46
386.832	-5.54
386.96	-32.54
387.089	13.46
387.217	-1.54
387.346	-6.54
387.474	-7.54
387.603	3.46
387.731	-0.54
387.86	5.46
387.988	12.46
388.117	4.46
388.245	16.46
388.374	-16.54
388.502	-4.54
388.631	-26.54
388.759	0.46
388.888	-2.54
389.016	-20.54
389.144	-7.54
389.273	-6.54
389.401	-19.54
389.53	-23.54
389.658	-1.54
389.786	-25.54
389.915	-33.54
390.043	-19.54
390.172	3.46
390.3	-5.54
390.428	0.46
390.557	13.46
390.685	2.46
390.813	-5.54
390.942	-14.54
391.07	8.46
391.198	0.46
391.327	-16.54
391.455	4.46
391.583	13.46
391.712	-2.54
391.84	-15.54
391.968	-21.54
392.096	-9.54
392.225	-3.54
392.353	8.46
392.481	-11.54
392.609	9.46
392.738	-5.54
392.866	-10.54
392.994	-12.54
393.122	14.46
393.251	-4.54
393.379	-6.54
393.507	-25.54
393.635	-9.54
393.764	9.46
393.892	1.46
394.02	-18.54
394.148	-21.54
394.276	-7.54
394.404	23.46
394.533	-12.54
394.661	-8.54
394.789	11.46
394.917	-9.54
395.045	-26.54
395.173	-7.54
395.302	-6.54
395.43	3.46
395.558	1.46
395.686	20.46
395.814	11.46
395.942	-9.54
396.07	-6.54
396.198	6.46
396.326	37.46
396.454	22.46
396.582	3.46
396.711	17.46
396.839	-14.54
396.967	-19.54
397.095	-1.54
397.223	16.46
397.351	18.46
397.479	7.46
397.607	-14.54
397.735	9.46
397.863	10.46
397.991	-0.54
398.119	-16.54
398.247	-1.54
398.375	-13.54
398.503	-17.54
398.631	10.46
398.759	-8.54
398.887	-4.54
399.015	5.46
399.143	9.46
399.271	-0.54
399.399	12.46
399.526	10.46
399.654	10.46
399.782	-7.54
399.91	23.46
400.038	9.46
400.166	0.46
400.294	0.46
400.422	-1.54
400.55	8.46
400.678	-1.54
400.805	6.46
400.933	4.46
401.061	6.46
401.189	-5.54
401.317	33.46
401.445	24.46
401.573	14.46
401.7	0.46
401.828	-6.54
401.956	7.46
402.084	7.46
402.212	7.46
402.34	1.46
402.467	-18.54
402.595	4.46
402.723	-20.54
402.851	16.46
402.978	-7.54
403.106	19.46
403.234	8.46
403.362	18.46
403.489	13.46
403.617	4.46
403.745	-1.54
403.873	-11.54
404	9.46
404.128	9.46
404.256	-18.54
404.384	24.46
404.511	9.46
404.639	-2.54
404.767	-0.54
404.894	-13.54
405.022	5.46
405.15	15.46
405.277	-10.54
405.405	-14.54
405.533	0.46
405.66	-18.54
405.788	-14.54
405.916	-6.54
406.043	-11.54
406.171	-39.54
406.299	0.46
406.426	11.46
406.554	12.46
406.681	13.46
406.809	9.46
406.937	-5.54
407.064	11.46
407.192	15.46
407.319	12.46
407.447	-7.54
407.574	2.46
407.702	3.46
407.83	0.46
407.957	-22.54
408.085	-7.54
408.212	-16.54
408.34	-5.54
408.467	-5.54
408.595	-8.54
408.722	-10.54
408.85	17.46
408.977	-30.54
409.105	-8.54
409.232	-9.54
409.36	-1.54
409.487	9.46
409.615	9.46
409.742	17.46
409.87	12.46
409.997	50.46
410.125	45.46
410.252	34.46
410.379	34.46
410.507	39.46
410.634	5.46
410.762	-8.54
410.889	4.46
411.017	-8.54
411.144	9.46
411.271	1.46
411.399	-5.54
411.526	-1.54
411.653	6.46
411.781	31.46
411.908	9.46
412.036	-0.54
412.163	19.46
412.29	15.46
412.418	3.46
412.545	4.46
412.672	-18.54
412.8	32.46
412.927	-0.54
413.054	2.46
413.182	10.46
413.309	5.46
413.436	-7.54
413.564	-14.54
413.691	-9.54
413.818	15.46
413.945	-12.54
414.073	9.46
414.2	5.46
414.327	6.46
414.454	-6.54
414.582	0.46
414.709	-4.54
414.836	-6.54
414.963	5.46
415.091	8.46
415.218	0.46
415.345	-8.54
415.472	-11.54
415.6	-16.54
415.727	16.46
415.854	7.46
415.981	-1.54
416.108	3.46
416.236	20.46
416.363	10.46
416.49	-7.54
416.617	-7.54
416.744	6.46
416.871	-4.54
416.998	-6.54
417.126	5.46
417.253	-16.54
417.38	-0.54
417.507	-4.54
417.634	-6.54
417.761	-8.54
417.888	-3.54
418.015	-4.54
418.143	-4.54
418.27	18.46
418.397	0.46
418.524	0.46
418.651	-23.54
418.778	13.46
418.905	29.46
419.032	15.46
419.159	-5.54
419.286	12.46
419.413	-0.54
419.54	6.46
419.667	-2.54
419.794	-7.54
419.921	1.46
420.048	-8.54
420.175	8.46
420.302	-7.54
420.429	9.46
420.556	11.46
420.683	-2.54
420.81	1.46
420.937	19.46
421.064	10.46
421.191	7.46
421.318	1.46
421.445	22.46
421.572	-13.54
421.699	8.46
421.826	9.46
421.953	4.46
422.08	2.46
422.207	-21.54
422.334	-14.54
422.461	14.46
422.588	1.46
422.714	4.46
422.841	16.46
422.968	-0.54
423.095	-6.54
423.222	-9.54
423.349	12.46
423.476	1.46
423.603	-23.54
423.729	-0.54
423.856	-16.54
423.983	18.46
424.11	-17.54
424.237	-4.54
424.364	3.46
424.491	14.46
424.617	-4.54
424.744	-19.54
424.871	5.46
424.998	-7.54
425.125	9.46
425.251	-10.54
425.378	-18.54
425.505	0.46
425.632	-25.54
425.758	-3.54
425.885	11.46
426.012	22.46
426.139	21.46
426.266	3.46
426.392	5.46
426.519	4.46
426.646	4.46
426.772	14.46
426.899	7.46
427.026	0.46
427.153	14.46
427.279	14.46
427.406	8.46
427.533	-6.54
427.659	0.46
427.786	7.46
427.913	16.46
428.039	8.46
428.166	-15.54
428.293	-19.54
428.419	2.46
428.546	8.46
428.673	-31.54
428.799	-15.54
428.926	-7.54
429.053	21.46
429.179	14.46
429.306	5.46
429.433	10.46
429.559	8.46
429.686	-22.54
429.812	-26.54
429.939	-32.54
430.066	-6.54
430.192	-15.54
430.319	10.46
430.445	7.46
430.572	0.46
430.699	-16.54
430.825	-14.54
430.952	-7.54
431.078	20.46
431.205	23.46
431.331	-10.54
431.458	-13.54
431.584	-11.54
431.711	14.46
431.837	2.46
431.964	12.46
432.09	8.46
432.217	-14.54
432.343	3.46
432.47	18.46
432.596	-6.54
432.723	-4.54
432.849	-11.54
432.976	21.46
433.102	7.46
433.229	-7.54
433.355	4.46
433.482	61.46
433.608	126.46
433.735	124.46
433.861	126.46
433.987	140.46
434.114	216.46
434.24	170.46
434.367	63.46
434.493	-1.54
434.62	1.46
434.746	1.46
434.872	2.46
434.999	6.46
435.125	-4.54
435.252	-1.54
435.378	9.46
435.504	-13.54
435.631	9.46
435.757	2.46
435.883	11.46
436.01	1.46
436.136	16.46
436.262	31.46
436.389	-0.54
436.515	18.46
436.641	18.46
436.768	16.46
436.894	26.46
437.02	3.46
437.147	25.46
437.273	-1.54
437.399	-11.54
437.526	15.46
437.652	4.46
437.778	15.46
437.904	-14.54
438.031	-4.54
438.157	9.46
438.283	-8.54
438.409	-17.54
438.536	-12.54
438.662	23.46
438.788	8.46
438.914	12.46
439.041	12.46
439.167	14.46
439.293	-10.54
439.419	7.46
439.546	8.46
439.672	7.46
439.798	19.46
439.924	-3.54
440.05	6.46
440.177	12.46
440.303	4.46
440.429	-5.54
440.555	-0.54
440.681	-19.54
440.807	15.46
440.934	9.46
441.06	6.46
441.186	7.46
441.312	-13.54
441.438	-12.54
441.564	4.46
441.69	11.46
441.816	-0.54
441.943	-15.54
442.069	13.46
442.195	11.46
442.321	-13.54
442.447	1.46
442.573	-11.54
442.699	3.46
442.825	-19.54
442.951	-6.54
443.077	7.46
443.203	9.46
443.33	7.46
443.456	-13.54
443.582	0.46
443.708	-20.54
443.834	8.46
443.96	14.46
444.086	-13.54
444.212	19.46
444.338	10.46
444.464	29.46
444.59	17.46
444.716	-2.54
444.842	-0.54
444.968	2.46
445.094	0.46
445.22	-2.54
445.346	-25.54
445.472	-10.54
445.598	-1.54
445.724	-11.54
445.85	-13.54
445.976	4.46
446.102	15.46
446.228	18.46
446.354	10.46
446.48	-2.54
446.605	11.46
446.731	-8.54
446.857	-9.54
446.983	6.46
447.109	2.46
447.235	-5.54
447.361	11.46
447.487	12.46
447.613	1.46
447.739	-10.54
447.865	-1.54
447.99	-4.54
448.116	3.46
448.242	-6.54
448.368	-6.54
448.494	1.46
448.62	-11.54
448.746	4.46
448.872	15.46
448.997	-4.54
449.123	-8.54
449.249	11.46
449.375	23.46
449.501	5.46
449.627	3.46
449.752	5.46
449.878	-10.54
450.004	-4.54
450.13	13.46
450.256	9.46
450.381	13.46
450.507	17.46
450.633	14.46
450.759	13.46
450.884	12.46
451.01	-1.54
451.136	-15.54
451.262	7.46
451.388	8.46
451.513	-18.54
451.639	-10.54
451.765	0.46
451.89	10.46
452.016	4.46
452.142	-7.54
452.268	-3.54
452.393	5.46
452.519	-10.54
452.645	13.46
452.771	-3.54
452.896	1.46
453.022	-4.54
453.148	7.46
453.273	3.46
453.399	-4.54
453.525	-35.54
453.65	-15.54
453.776	12.46
453.902	-0.54
454.027	10.46
454.153	9.46
454.279	10.46
454.404	8.46
454.53	28.46
454.656	27.46
454.781	2.46
454.907	-8.54
455.032	-14.54
455.158	30.46
455.284	27.46
455.409	-7.54
455.535	-1.54
455.66	0.46
455.786	6.46
455.912	9.46
456.037	-15.54
456.163	7.46
456.288	15.46
456.414	-13.54
456.539	-20.54
456.665	14.46
456.791	-0.54
456.916	-2.54
457.042	24.46
457.167	-9.54
457.293	24.46
457.418	-10.54
457.544	-3.54
457.669	7.46
457.795	-2.54
457.92	-5.54
458.046	1.46
458.171	19.46
458.297	0.46
458.422	-5.54
458.548	-1.54
458.673	16.46
458.799	3.46
458.924	-14.54
459.05	3.46
459.175	-4.54
459.301	-8.54
459.426	-10.54
459.552	8.46
459.677	-15.54
459.803	18.46
459.928	7.46
460.053	16.46
460.179	32.46
460.304	45.46
460.43	3.46
460.555	-19.54
460.681	-17.54
460.806	12.46
460.931	10.46
461.057	6.46
461.182	4.46
461.308	20.46
461.433	18.46
461.558	-10.54
461.684	-1.54
461.809	21.46
461.934	-3.54
462.06	1.46
462.185	-1.54
462.311	-9.54
462.436	7.46
462.561	9.46
462.687	0.46
462.812	12.46
462.937	4.46
463.063	-11.54
463.188	-10.54
463.313	23.46
463.439	-19.54
463.564	-7.54
463.689	-1.54
463.814	1.46
463.94	-14.54
464.065	13.46
464.19	8.46
464.316	-8.54
464.441	-11.54
464.566	4.46
464.692	3.46
464.817	2.46
464.942	-26.54
465.067	-17.54
465.193	-33.54
465.318	-23.54
465.443	-8.54
465.568	-1.54
465.694	-5.54
465.819	24.46
465.944	10.46
466.069	16.46
466.194	6.46
466.32	3.46
466.445	1.46
466.57	0.46
466.695	-14.54
466.82	10.46
466.946	9.46
467.071	9.46
467.196	0.46
467.321	9.46
467.446	-19.54
467.572	-17.54
467.697	-28.54
467.822	2.46
467.947	10.46
468.072	7.46
468.197	-1.54
468.323	-18.54
468.448	-19.54
468.573	-8.54
468.698	-8.54
468.823	14.46
468.948	-5.54
469.073	6.46
469.198	15.46
469.324	18.46
469.449	-18.54
469.574	0.46
469.699	5.46
469.824	18.46
469.949	2.46
470.074	12.46
470.199	45.46
470.324	16.46
470.449	1.46
470.574	8.46
470.7	12.46
470.825	3.46
470.95	2.46
471.075	-19.54
471.2	-7.54
471.325	21.46
471.45	-5.54
471.575	-6.54
471.7	16.46
471.825	-12.54
471.95	9.46
472.075	-16.54
472.2	6.46
472.325	-2.54
472.45	-4.54
472.575	2.46
472.7	1.46
472.825	24.46
472.95	16.46
473.075	4.46
473.2	-13.54
473.325	2.46
473.45	-5.54
473.575	-15.54
473.7	7.46
473.825	7.46
473.95	1.46
474.075	-10.54
474.2	-8.54
474.325	-17.54
474.45	25.46
474.574	12.46
474.699	10.46
474.824	26.46
474.949	3.46
475.074	-5.54
475.199	16.46
475.324	8.46
475.449	-6.54
475.574	10.46
475.699	12.46
475.824	-11.54
475.949	-1.54
476.073	-10.54
476.198	4.46
476.323	10.46
476.448	5.46
476.573	-2.54
476.698	21.46
476.823	5.46
476.947	-0.54
477.072	6.46
477.197	3.46
477.322	8.46
477.447	-10.54
477.572	15.46
477.697	-10.54
477.821	-6.54
477.946	13.46
478.071	14.46
478.196	24.46
478.321	14.46
478.445	2.46
478.57	-6.54
478.695	0.46
478.82	12.46
478.945	4.46
479.069	3.46
479.194	-2.54
479.319	8.46
479.444	11.46
479.569	-4.54
479.693	7.46
479.818	2.46
479.943	3.46
480.068	-6.54
480.192	3.46
480.317	7.46
480.442	-7.54
480.567	6.46
480.691	11.46
480.816	7.46
480.941	-8.54
481.066	1.46
481.19	23.46
481.315	7.46
481.44	0.46
481.564	-6.54
481.689	14.46
481.814	12.46
481.938	6.46
482.063	-2.54
482.188	1.46
482.313	18.46
482.437	23.46
482.562	18.46
482.687	25.46
482.811	27.46
482.936	2.46
483.061	7.46
483.185	7.46
483.31	21.46
483.435	17.46
483.559	19.46
483.684	14.46
483.808	20.46
483.933	11.46
484.058	15.46
484.182	8.46
484.307	15.46
484.432	1.46
484.556	4.46
484.681	-4.54
484.805	16.46
484.93	18.46
485.055	34.46
485.179	64.46
485.304	99.46
485.428	341.46
485.553	1249.46
485.678	1745.46
485.802	1630.46
485.927	1781.46
486.051	2664.46
486.176	1620.46
486.3	433.46
486.425	125.46
486.549	77.46
486.674	69.46
486.799	38.46
486.923	17.46
487.048	25.46
487.172	12.46
487.297	13.46
487.421	34.46
487.546	9.46
487.67	28.46
487.795	-4.54
487.919	8.46
488.044	18.46
488.168	24.46
488.293	0.46
488.417	-6.54
488.542	12.46
488.666	24.46
488.791	20.46
488.915	7.46
489.04	21.46
489.164	14.46
489.289	21.46
489.413	-22.54
489.538	20.46
489.662	22.46
489.786	0.46
489.911	14.46
490.035	11.46
490.16	11.46
490.284	5.46
490.409	-20.54
490.533	-3.54
490.658	20.46
490.782	7.46
490.906	5.46
491.031	10.46
491.155	9.46
491.28	24.46
491.404	-8.54
491.528	12.46
491.653	-11.54
491.777	9.46
491.902	12.46
492.026	-6.54
492.15	5.46
492.275	19.46
492.399	15.46
492.524	-8.54
492.648	17.46
492.772	5.46
492.897	28.46
493.021	6.46
493.145	22.46
493.27	11.46
493.394	-14.54
493.518	11.46
493.643	-3.54
493.767	19.46
493.891	-5.54
494.016	5.46
494.14	1.46
494.264	13.46
494.389	17.46
494.513	9.46
494.637	-4.54
494.762	5.46
494.886	7.46
495.01	12.46
495.134	6.46
495.259	21.46
495.383	1.46
495.507	2.46
495.632	30.46
495.756	41.46
495.88	20.46
496.004	6.46
496.129	2.46
496.253	30.46
496.377	5.46
496.501	40.46
496.626	-4.54
496.75	-0.54
496.874	11.46
496.998	-10.54
497.123	29.46
497.247	12.46
497.371	-2.54
497.495	10.46
497.62	-5.54
497.744	3.46
497.868	12.46
497.992	13.46
498.116	0.46
498.241	15.46
498.365	1.46
498.489	11.46
498.613	35.46
498.737	-0.54
498.862	-1.54
498.986	-8.54
499.11	-10.54
499.234	2.46
499.358	-6.54
499.482	7.46
499.607	4.46
499.731	6.46
499.855	11.46
499.979	2.46
500.103	9.46
500.227	17.46
500.351	13.46
500.476	-14.54
500.6	-0.54
500.724	11.46
500.848	7.46
500.972	4.46
501.096	1.46
501.22	3.46
501.344	-10.54
501.469	-3.54
501.593	-5.54
501.717	9.46
501.841	4.46
501.965	3.46
502.089	8.46
502.213	24.46
502.337	-6.54
502.461	9.46
502.585	-1.54
502.709	16.46
502.834	6.46
502.958	2.46
503.082	19.46
503.206	4.46
503.33	22.46
503.454	7.46
503.578	22.46
503.702	11.46
503.826	-1.54
503.95	30.46
504.074	1.46
504.198	-15.54
504.322	-13.54
504.446	0.46
504.57	17.46
504.694	-4.54
504.818	8.46
504.942	13.46
505.066	-0.54
505.19	-7.54
505.314	9.46
505.438	21.46
505.562	9.46
505.686	14.46
505.81	-4.54
505.934	17.46
506.058	-16.54
506.182	1.46
506.306	20.46
506.43	-7.54
506.554	-24.54
506.678	-14.54
506.802	9.46
506.926	-2.54
507.05	0.46
507.174	11.46
507.298	4.46
507.422	-2.54
507.546	-1.54
507.67	22.46
507.794	-5.54
507.918	0.46
508.042	-7.54
508.165	-6.54
508.289	-18.54
508.413	2.46
508.537	-0.54
508.661	1.46
508.785	6.46
508.909	-3.54
509.033	-0.54
509.157	18.46
509.281	6.46
509.405	3.46
509.528	39.46
509.652	25.46
509.776	2.46
509.9	22.46
510.024	4.46
510.148	16.46
510.272	9.46
510.396	14.46
510.519	-6.54
510.643	8.46
510.767	1.46
510.891	11.46
511.015	-2.54
511.139	17.46
511.263	14.46
511.386	3.46
511.51	13.46
511.634	6.46
511.758	4.46
511.882	-16.54
512.006	6.46
512.129	8.46
512.253	21.46
512.377	-7.54
512.501	16.46
512.625	8.46
512.748	12.46
512.872	-2.54
512.996	-1.54
513.12	13.46
513.244	-15.54
513.367	-0.54
513.491	0.46
513.615	-4.54
513.739	-11.54
513.862	0.46
513.986	4.46
514.11	23.46
514.234	16.46
514.358	12.46
514.481	-2.54
514.605	1.46
514.729	13.46
514.853	-12.54
514.976	-12.54
515.1	8.46
515.224	18.46
515.348	-4.54
515.471	-17.54
515.595	0.46
515.719	2.46
515.842	18.46
515.966	7.46
516.09	22.46
516.214	-1.54
516.337	41.46
516.461	21.46
516.585	13.46
516.708	2.46
516.832	21.46
516.956	-6.54
517.08	10.46
517.203	-5.54
517.327	1.46
517.451	18.46
517.574	50.46
517.698	12.46
517.822	19.46
517.945	28.46
518.069	9.46
518.193	48.46
518.316	37.46
518.44	38.46
518.564	14.46
518.687	17.46
518.811	29.46
518.935	55.46
519.058	13.46
519.182	27.46
519.306	29.46
519.429	21.46
519.553	54.46
519.676	28.46
519.8	12.46
519.924	-2.54
520.047	16.46
520.171	-4.54
520.294	-4.54
520.418	14.46
520.542	-5.54
520.665	7.46
520.789	15.46
520.913	-17.54
521.036	-22.54
521.16	-15.54
521.283	3.46
521.407	5.46
521.53	-5.54
521.654	-19.54
521.778	9.46
521.901	2.46
522.025	4.46
522.148	3.46
522.272	9.46
522.395	0.46
522.519	1.46
522.643	-3.54
522.766	-4.54
522.89	5.46
523.013	6.46
523.137	-2.54
523.26	-3.54
523.384	3.46
523.507	-0.54
523.631	-12.54
523.754	-14.54
523.878	-12.54
524.002	13.46
524.125	-1.54
524.249	-15.54
524.372	-6.54
524.496	-6.54
524.619	-4.54
524.743	1.46
524.866	-3.54
524.99	15.46
525.113	-19.54
525.237	8.46
525.36	7.46
525.484	13.46
525.607	-13.54
525.731	-7.54
525.854	12.46
525.978	24.46
526.101	-20.54
526.224	-5.54
526.348	4.46
526.471	3.46
526.595	-1.54
526.718	-7.54
526.842	-5.54
526.965	16.46
527.089	-2.54
527.212	2.46
527.336	-3.54
527.459	11.46
527.582	0.46
527.706	-1.54
527.829	12.46
527.953	2.46
528.076	-21.54
528.2	-10.54
528.323	7.46
528.446	21.46
528.57	1.46
528.693	34.46
528.817	4.46
528.94	11.46
529.064	16.46
529.187	-18.54
529.31	-7.54
529.434	-5.54
529.557	-18.54
529.68	4.46
529.804	12.46
529.927	5.46
530.051	6.46
530.174	-3.54
530.297	0.46
530.421	-6.54
530.544	9.46
530.668	7.46
530.791	-3.54
530.914	15.46
531.038	-10.54
531.161	0.46
531.284	8.46
531.408	1.46
531.531	-4.54
531.654	-2.54
531.778	2.46
531.901	-12.54
532.024	-10.54
532.148	-1.54
532.271	19.46
532.394	11.46
532.518	12.46
532.641	9.46
532.764	12.46
532.888	13.46
533.011	-18.54
533.134	1.46
533.258	34.46
533.381	5.46
533.504	2.46
533.628	-5.54
533.751	15.46
533.874	2.46
533.997	5.46
534.121	11.46
534.244	-2.54
534.367	2.46
534.491	8.46
534.614	-4.54
534.737	-6.54
534.86	-1.54
534.984	-10.54
535.107	-3.54
535.23	-11.54
535.354	9.46
535.477	-15.54
535.6	-7.54
535.723	0.46
535.847	-6.54
535.97	-11.54
536.093	-0.54
536.216	-16.54
536.34	36.46
536.463	0.46
536.586	8.46
536.709	11.46
536.833	34.46
536.956	10.46
537.079	13.46
537.202	6.46
537.325	-8.54
537.449	-11.54
537.572	14.46
537.695	-16.54
537.818	-4.54
537.941	-14.54
538.065	-0.54
538.188	-9.54
538.311	-3.54
538.434	9.46
538.558	-2.54
538.681	3.46
538.804	-1.54
538.927	1.46
539.05	-12.54
539.173	-10.54
539.297	-3.54
539.42	2.46
539.543	25.46
539.666	8.46
539.789	10.46
539.913	-5.54
540.036	8.46
540.159	12.46
540.282	-10.54
540.405	-20.54
540.528	6.46
540.651	12.46
540.775	-7.54
540.898	3.46
541.021	3.46
541.144	0.46
541.267	9.46
541.39	-0.54
541.513	24.46
541.637	-7.54
541.76	-4.54
541.883	-7.54
542.006	-14.54
542.129	11.46
542.252	-6.54
542.375	8.46
542.498	-3.54
542.622	21.46
542.745	23.46
542.868	-4.54
542.991	-7.54
543.114	8.46
543.237	31.46
543.36	6.46
543.483	-4.54
543.606	2.46
543.73	9.46
543.853	-6.54
543.976	3.46
544.099	9.46
544.222	-7.54
544.345	-13.54
544.468	5.46
544.591	13.46
544.714	11.46
544.837	7.46
544.96	19.46
545.083	23.46
545.206	0.46
545.329	23.46
545.453	26.46
545.576	11.46
545.699	3.46
545.822	16.46
545.945	19.46
546.068	7.46
546.191	4.46
546.314	2.46
546.437	11.46
546.56	8.46
546.683	15.46
546.806	28.46
546.929	11.46
547.052	-18.54
547.175	-3.54
547.298	7.46
547.421	-20.54
547.544	-11.54
547.667	1.46
547.79	3.46
547.913	-11.54
548.036	-23.54
548.159	-3.54
548.282	7.46
548.405	-0.54
548.528	6.46
548.651	-1.54
548.774	16.46
548.897	9.46
549.02	27.46
549.143	36.46
549.266	10.46
549.389	-8.54
549.512	3.46
549.635	10.46
549.758	14.46
549.881	-6.54
550.004	-8.54
550.127	-10.54
550.25	3.46
550.373	1.46
550.496	20.46
550.619	5.46
550.742	-14.54
550.865	-20.54
550.988	9.46
551.111	11.46
551.234	-4.54
551.356	-14.54
551.479	-14.54
551.602	-12.54
551.725	-0.54
551.848	9.46
551.971	22.46
552.094	4.46
552.217	-6.54
552.34	-3.54
552.463	-16.54
552.586	5.46
552.709	-8.54
552.832	8.46
552.955	9.46
553.077	9.46
553.2	25.46
553.323	-18.54
553.446	3.46
553.569	-11.54
553.692	2.46
553.815	-12.54
553.938	15.46
554.061	4.46
554.184	-3.54
554.306	4.46
554.429	-1.54
554.552	15.46
554.675	-2.54
554.798	-7.54
554.921	11.46
555.044	-5.54
555.167	-4.54
555.29	-17.54
555.412	-15.54
555.535	8.46
555.658	2.46
555.781	1.46
555.904	2.46
556.027	17.46
556.15	8.46
556.272	6.46
556.395	24.46
556.518	-13.54
556.641	-12.54
556.764	16.46
556.887	12.46
557.01	9.46
557.132	-12.54
557.255	-7.54
557.378	16.46
557.501	-3.54
557.624	4.46
557.747	3.46
557.869	14.46
557.992	8.46
558.115	8.46
558.238	-0.54
558.361	-2.54
558.483	4.46
558.606	10.46
558.729	-19.54
558.852	12.46
558.975	15.46
559.098	3.46
559.22	9.46
559.343	3.46
559.466	17.46
559.589	-7.54
559.712	-1.54
559.834	-11.54
559.957	-0.54
560.08	-1.54
560.203	25.46
560.325	5.46
560.448	13.46
560.571	4.46
560.694	0.46
560.817	6.46
560.939	11.46
561.062	7.46
561.185	-7.54
561.308	6.46
561.43	-11.54
561.553	-3.54
561.676	-8.54
561.799	7.46
561.921	9.46
562.044	-8.54
562.167	-11.54
562.29	11.46
562.413	18.46
562.535	3.46
562.658	-3.54
562.781	3.46
562.903	4.46
563.026	-6.54
563.149	18.46
563.272	12.46
563.394	19.46
563.517	4.46
563.64	-6.54
563.763	3.46
563.885	9.46
564.008	17.46
564.131	7.46
564.254	-4.54
564.376	12.46
564.499	-17.54
564.622	3.46
564.744	12.46
564.867	-7.54
564.99	13.46
565.113	-4.54
565.235	-3.54
565.358	-8.54
565.481	-4.54
565.603	8.46
565.726	10.46
565.849	10.46
565.971	-1.54
566.094	-29.54
566.217	-3.54
566.34	0.46
566.462	17.46
566.585	-6.54
566.708	30.46
566.83	17.46
566.953	27.46
567.076	10.46
567.198	9.46
567.321	-15.54
567.444	-10.54
567.566	-7.54
567.689	-13.54
567.812	-12.54
567.934	3.46
568.057	9.46
568.18	7.46
568.302	-5.54
568.425	-6.54
568.548	-4.54
568.67	8.46
568.793	-0.54
568.916	-2.54
569.038	-13.54
569.161	6.46
569.283	2.46
569.406	-7.54
569.529	4.46
569.651	-8.54
569.774	-6.54
569.897	-12.54
570.019	16.46
570.142	22.46
570.265	1.46
570.387	-4.54
570.51	-1.54
570.632	14.46
570.755	-3.54
570.878	-2.54
571	3.46
571.123	-13.54
571.246	1.46
571.368	-3.54
571.491	19.46
571.613	-8.54
571.736	-7.54
571.859	-0.54
571.981	-10.54
572.104	-12.54
572.226	9.46
572.349	-3.54
572.472	-2.54
572.594	10.46
572.717	-1.54
572.839	4.46
572.962	0.46
573.085	-6.54
573.207	0.46
573.33	-11.54
573.452	17.46
573.575	11.46
573.697	-1.54
573.82	-9.54
573.943	-6.54
574.065	6.46
574.188	3.46
574.31	10.46
574.433	1.46
574.555	26.46
574.678	7.46
574.801	16.46
574.923	-1.54
575.046	9.46
575.168	14.46
575.291	-2.54
575.413	5.46
575.536	-14.54
575.659	23.46
575.781	-7.54
575.904	-1.54
576.026	4.46
576.149	-10.54
576.271	-3.54
576.394	6.46
576.516	4.46
576.639	10.46
576.761	-0.54
576.884	-18.54
577.007	-14.54
577.129	13.46
577.252	0.46
577.374	25.46
577.497	-8.54
577.619	20.46
577.742	-10.54
577.864	11.46
577.987	6.46
578.109	11.46
578.232	3.46
578.354	23.46
578.477	-8.54
578.599	9.46
578.722	9.46
578.844	-7.54
578.967	17.46
579.089	8.46
579.212	-17.54
579.334	24.46
579.457	5.46
579.579	1.46
579.702	-0.54
579.824	21.46
579.947	-10.54
580.069	-14.54
580.192	-10.54
580.314	1.46
580.437	-17.54
580.559	5.46
580.682	-1.54
580.804	24.46
580.927	7.46
581.049	1.46
581.172	-0.54
581.294	-2.54
581.417	2.46
581.539	-3.54
581.662	27.46
581.784	7.46
581.907	8.46
582.029	24.46
582.152	2.46
582.274	27.46
582.396	6.46
582.519	-0.54
582.641	-1.54
582.764	4.46
582.886	26.46
583.009	11.46
583.131	-0.54
583.254	5.46
583.376	9.46
583.499	20.46
583.621	16.46
583.743	32.46
583.866	6.46
583.988	-5.54
584.111	1.46
584.233	20.46
584.356	19.46
584.478	-0.54
584.601	-14.54
584.723	-1.54
584.845	17.46
584.968	-7.54
585.09	-12.54
585.213	13.46
585.335	-7.54
585.458	-16.54
585.58	-18.54
585.702	6.46
585.825	2.46
585.947	9.46
586.07	-13.54
586.192	5.46
586.315	-4.54
586.437	-12.54
586.559	14.46
586.682	-3.54
586.804	0.46
586.927	-6.54
587.049	13.46
587.171	17.46
587.294	0.46
587.416	20.46
587.539	-7.54
587.661	-10.54
587.783	-25.54
587.906	-0.54
588.028	8.46
588.151	-0.54
588.273	32.46
588.395	8.46
588.518	5.46
588.64	4.46
588.763	6.46
588.885	19.46
589.007	1.46
589.13	3.46
589.252	-24.54
589.375	-13.54
589.497	-13.54
589.619	-3.54
589.742	-9.54
589.864	7.46
589.986	7.46
590.109	9.46
590.231	-4.54
590.354	9.46
590.476	-17.54
590.598	-5.54
590.721	-10.54
590.843	-2.54
590.965	1.46
591.088	5.46
591.21	4.46
591.332	8.46
591.455	-22.54
591.577	0.46
591.7	6.46
591.822	-3.54
591.944	0.46
592.067	-4.54
592.189	-8.54
592.311	-1.54
592.434	14.46
592.556	3.46
592.678	-0.54
592.801	24.46
592.923	4.46
593.045	5.46
593.168	12.46
593.29	-7.54
593.412	11.46
593.535	-0.54
593.657	-0.54
593.779	13.46
593.902	-0.54
594.024	7.46
594.146	9.46
594.269	3.46
594.391	-11.54
594.513	5.46
594.636	1.46
594.758	2.46
594.88	18.46
595.003	14.46
595.125	7.46
595.247	-1.54
595.37	-6.54
595.492	-13.54
595.614	18.46
595.737	3.46
595.859	6.46
595.981	17.46
596.104	5.46
596.226	5.46
596.348	11.46
596.471	4.46
596.593	2.46
596.715	-18.54
596.838	18.46
596.96	-19.54
597.082	11.46
597.204	9.46
597.327	23.46
597.449	1.46
597.571	18.46
597.694	11.46
597.816	-7.54
597.938	15.46
598.061	13.46
598.183	-4.54
598.305	8.46
598.427	6.46
598.55	4.46
598.672	11.46
598.794	16.46
598.917	-4.54
599.039	-3.54
599.161	7.46
599.283	-2.54
599.406	19.46
599.528	8.46
599.65	19.46
599.773	3.46
599.895	19.46
600.017	14.46
600.139	-0.54
600.262	-8.54
600.384	2.46
600.506	4.46
600.628	5.46
600.751	22.46
600.873	-8.54
600.995	-7.54
601.118	-10.54
601.24	12.46
601.362	9.46
601.484	10.46
601.607	25.46
601.729	7.46
601.851	15.46
601.973	15.46
602.096	14.46
602.218	8.46
602.34	4.46
602.462	24.46
602.585	29.46
602.707	-6.54
602.829	-6.54
602.951	-10.54
603.074	-20.54
603.196	-4.54
603.318	-14.54
603.44	7.46
603.563	-1.54
603.685	-6.54
603.807	7.46
603.929	13.46
604.052	21.46
604.174	12.46
604.296	-2.54
604.418	21.46
604.541	20.46
604.663	11.46
604.785	4.46
604.907	11.46
605.03	2.46
605.152	29.46
605.274	15.46
605.396	19.46
605.519	2.46
605.641	-8.54
605.763	-0.54
605.885	-3.54
606.008	-6.54
606.13	18.46
606.252	10.46
606.374	-16.54
606.496	-15.54
606.619	8.46
606.741	3.46
606.863	13.46
606.985	29.46
607.108	17.46
607.23	6.46
607.352	2.46
607.474	1.46
607.596	2.46
607.719	0.46
607.841	24.46
607.963	5.46
608.085	7.46
608.207	26.46
608.33	0.46
608.452	-7.54
608.574	-5.54
608.696	12.46
608.819	8.46
608.941	10.46
609.063	-3.54
609.185	6.46
609.307	3.46
609.43	12.46
609.552	25.46
609.674	-19.54
609.796	18.46
609.918	15.46
610.041	1.46
610.163	4.46
610.285	9.46
610.407	11.46
610.529	-10.54
610.652	1.46
610.774	0.46
610.896	1.46
611.018	4.46
611.14	-4.54
611.263	-8.54
611.385	-8.54
611.507	1.46
611.629	6.46
611.751	5.46
611.873	28.46
611.996	13.46
612.118	22.46
612.24	-0.54
612.362	-1.54
612.484	10.46
612.607	-2.54
612.729	12.46
612.851	-0.54
612.973	-12.54
613.095	-6.54
613.218	18.46
613.34	15.46
613.462	19.46
613.584	-9.54
613.706	13.46
613.828	35.46
613.951	15.46
614.073	2.46
614.195	-0.54
614.317	20.46
614.439	15.46
614.561	6.46
614.684	12.46
614.806	1.46
614.928	-4.54
615.05	2.46
615.172	29.46
615.294	9.46
615.417	-7.54
615.539	-13.54
615.661	-8.54
615.783	20.46
615.905	26.46
616.027	62.46
616.15	93.46
616.272	85.46
616.394	53.46
616.516	42.46
616.638	19.46
616.76	9.46
616.883	1.46
617.005	-4.54
617.127	8.46
617.249	-0.54
617.371	2.46
617.493	-8.54
617.615	5.46
617.738	12.46
617.86	12.46
617.982	9.46
618.104	-4.54
618.226	-1.54
618.348	-4.54
618.471	-0.54
618.593	6.46
618.715	-14.54
618.837	-2.54
618.959	4.46
619.081	11.46
619.203	11.46
619.326	-8.54
619.448	-2.54
619.57	5.46
619.692	1.46
619.814	24.46
619.936	4.46
620.058	18.46
620.181	13.46
620.303	4.46
620.425	11.46
620.547	-4.54
620.669	9.46
620.791	28.46
620.913	0.46
621.036	-13.54
621.158	-3.54
621.28	11.46
621.402	-14.54
621.524	-3.54
621.646	6.46
621.768	-1.54
621.891	-25.54
622.013	-4.54
622.135	-14.54
622.257	-13.54
622.379	2.46
622.501	-0.54
622.623	-4.54
622.745	-15.54
622.868	-8.54
622.99	8.46
623.112	8.46
623.234	-5.54
623.356	-11.54
623.478	-5.54
623.6	5.46
623.722	-16.54
623.845	-5.54
623.967	-4.54
624.089	-2.54
624.211	-6.54
624.333	9.46
624.455	-2.54
624.577	5.46
624.699	-2.54
624.822	19.46
624.944	-8.54
625.066	17.46
625.188	-2.54
625.31	-5.54
625.432	12.46
625.554	5.46
625.676	26.46
625.799	-7.54
625.921	5.46
626.043	-4.54
626.165	-15.54
626.287	-27.54
626.409	16.46
626.531	-2.54
626.653	-5.54
626.775	-4.54
626.898	5.46
627.02	-1.54
627.142	-2.54
627.264	-7.54
627.386	-13.54
627.508	-16.54
627.63	-6.54
627.752	-0.54
627.874	-6.54
627.997	3.46
628.119	7.46
628.241	17.46
628.363	5.46
628.485	3.46
628.607	-12.54
628.729	-4.54
628.851	-20.54
628.973	16.46
629.096	-11.54
629.218	2.46
629.34	19.46
629.462	-10.54
629.584	2.46
629.706	6.46
629.828	20.46
629.95	22.46
630.072	5.46
630.195	-6.54
630.317	7.46
630.439	7.46
630.561	5.46
630.683	-3.54
630.805	7.46
630.927	16.46
631.049	4.46
631.171	-0.54
631.293	-0.54
631.416	-2.54
631.538	-17.54
631.66	1.46
631.782	10.46
631.904	13.46
632.026	11.46
632.148	13.46
632.27	-5.54
632.392	5.46
632.514	3.46
632.637	0.46
632.759	-6.54
632.881	-18.54
633.003	-12.54
633.125	-3.54
633.247	2.46
633.369	-0.54
633.491	12.46
633.613	4.46
633.735	-0.54
633.858	21.46
633.98	3.46
634.102	-11.54
634.224	-0.54
634.346	-6.54
634.468	9.46
634.59	-1.54
634.712	3.46
634.834	13.46
634.956	-2.54
635.078	-12.54
635.201	-20.54
635.323	11.46
635.445	-1.54
635.567	-10.54
635.689	-2.54
635.811	-3.54
635.933	-6.54
636.055	-10.54
636.177	-11.54
636.299	9.46
636.421	-2.54
636.544	-20.54
636.666	3.46
636.788	3.46
636.91	1.46
637.032	-8.54
637.154	4.46
637.276	29.46
637.398	24.46
637.52	2.46
637.642	-4.54
637.764	-4.54
637.887	-13.54
638.009	-0.54
638.131	-4.54
638.253	-26.54
638.375	0.46
638.497	-19.54
638.619	-8.54
638.741	1.46
638.863	-19.54
638.985	-9.54
639.107	-10.54
639.23	-5.54
639.352	20.46
639.474	6.46
639.596	3.46
639.718	-6.54
639.84	0.46
639.962	-10.54
640.084	22.46
640.206	-5.54
640.328	0.46
640.45	7.46
640.573	-5.54
640.695	-14.54
640.817	0.46
640.939	5.46
641.061	4.46
641.183	-1.54
641.305	-9.54
641.427	-11.54
641.549	-7.54
641.671	14.46
641.793	1.46
641.915	18.46
642.038	-0.54
642.16	-8.54
642.282	4.46
642.404	-3.54
642.526	-3.54
642.648	7.46
642.77	11.46
642.892	7.46
643.014	1.46
643.136	1.46
643.258	3.46
643.381	25.46
643.503	10.46
643.625	-11.54
643.747	-7.54
643.869	-11.54
643.991	1.46
644.113	13.46
644.235	-18.54
644.357	2.46
644.479	17.46
644.601	-24.54
644.723	-12.54
644.846	-6.54
644.968	-5.54
645.09	-5.54
645.212	4.46
645.334	8.46
645.456	4.46
645.578	25.46
645.7	-17.54
645.822	4.46
645.944	-1.54
646.066	-6.54
646.188	-8.54
646.311	7.46
646.433	2.46
646.555	23.46
646.677	32.46
646.799	28.46
646.921	4.46
647.043	26.46
647.165	-10.54
647.287	0.46
647.409	-1.54
647.531	21.46
647.654	-19.54
647.776	3.46
647.898	14.46
648.02	-5.54
648.142	0.46
648.264	-5.54
648.386	-7.54
648.508	-0.54
648.63	0.46
648.752	1.46
648.874	-13.54
648.997	-0.54
649.119	5.46
649.241	-0.54
649.363	15.46
649.485	20.46
649.607	6.46
649.729	-24.54
649.851	5.46
649.973	-4.54
650.095	3.46
650.217	-11.54
650.34	-3.54
650.462	-2.54
650.584	3.46
650.706	25.46
650.828	3.46
650.95	-13.54
651.072	10.46
651.194	4.46
651.316	1.46
651.438	20.46
651.56	-14.54
651.683	-2.54
651.805	14.46
651.927	-7.54
652.049	-16.54
652.171	-4.54
652.293	-6.54
652.415	-5.54
652.537	-20.54
652.659	-12.54
652.781	-12.54
652.903	7.46
653.026	22.46
653.148	14.46
653.27	16.46
653.392	-4.54
653.514	-15.54
653.636	-3.54
653.758	-2.54
653.88	-2.54
654.002	-13.54
654.124	-2.54
654.247	-4.54
654.369	17.46
654.491	5.46
654.613	5.46
654.735	14.46
654.857	13.46
654.979	15.46
655.101	10.46
655.223	33.46
655.345	21.46
655.468	34.46
655.59	1.46
655.712	10.46
655.834	2.46
655.956	23.46
656.078	11.46
656.2	23.46
656.322	16.46
656.444	15.46
656.566	35.46
656.689	36.46
656.811	59.46
656.933	76.46
657.055	90.46
657.177	147.46
657.299	226.46
657.421	511.46
657.543	1895.46
657.665	12556.46
657.787	15160.46
657.91	15254.46
658.032	15654.46
658.154	4647.46
658.276	3573.46
658.398	1152.46
658.52	1023.46
658.642	469.46
658.764	589.46
658.886	269.46
659.009	396.46
659.131	218.46
659.253	300.46
659.375	154.46
659.497	247.46
659.619	137.46
659.741	184.46
659.863	72.46
659.985	140.46
660.108	85.46
660.23	127.46
660.352	85.46
660.474	132.46
660.596	63.46
660.718	132.46
660.84	49.46
660.962	117.46
661.084	51.46
661.207	86.46
661.329	69.46
661.451	79.46
661.573	43.46
661.695	82.46
661.817	48.46
661.939	97.46
662.061	64.46
662.184	61.46
662.306	39.46
662.428	75.46
662.55	51.46
662.672	41.46
662.794	35.46
662.916	54.46
663.038	31.46
663.161	68.46
663.283	32.46
663.405	69.46
663.527	18.46
663.649	59.46
663.771	18.46
663.893	44.46
664.015	20.46
664.138	49.46
664.26	14.46
664.382	57.46
664.504	6.46
664.626	32.46
664.748	22.46
664.87	34.46
664.992	26.46
665.115	39.46
665.237	23.46
665.359	22.46
665.481	8.46
665.603	45.46
665.725	20.46
665.847	13.46
665.97	3.46
666.092	45.46
666.214	32.46
666.336	27.46
666.458	12.46
666.58	34.46
666.702	6.46
666.825	33.46
666.947	-18.54
667.069	39.46
667.191	19.46
667.313	24.46
667.435	-13.54
667.557	14.46
667.68	-9.54
667.802	6.46
667.924	3.46
668.046	26.46
668.168	7.46
668.29	39.46
668.412	13.46
668.535	21.46
668.657	14.46
668.779	11.46
668.901	28.46
669.023	15.46
669.145	2.46
669.267	18.46
669.39	18.46
669.512	21.46
669.634	13.46
669.756	16.46
669.878	0.46
670	36.46
670.123	6.46
670.245	24.46
670.367	-2.54
670.489	38.46
670.611	2.46
670.733	9.46
670.856	-4.54
670.978	26.46
671.1	14.46
671.222	26.46
671.344	7.46
671.466	10.46
671.589	-5.54
671.711	1.46
671.833	-2.54
671.955	25.46
672.077	2.46
672.199	23.46
672.322	34.46
672.444	26.46
672.566	26.46
672.688	25.46
672.81	16.46
672.932	21.46
673.055	3.46
673.177	-0.54
673.299	0.46
673.421	14.46
673.543	4.46
673.665	21.46
673.788	32.46
673.91	8.46
674.032	-1.54
674.154	4.46
674.276	17.46
674.399	17.46
674.521	-9.54
674.643	9.46
674.765	12.46
674.887	13.46
675.009	-5.54
675.132	-11.54
675.254	-19.54
675.376	-1.54
675.498	8.46
675.62	22.46
675.743	8.46
675.865	15.46
675.987	-20.54
676.109	12.46
676.231	0.46
676.354	21.46
676.476	-7.54
676.598	3.46
676.72	-1.54
676.842	6.46
676.965	-5.54
677.087	5.46
677.209	-4.54
677.331	3.46
677.453	10.46
677.576	1.46
677.698	9.46
677.82	0.46
677.942	-2.54
678.064	4.46
678.187	15.46
678.309	-5.54
678.431	15.46
678.553	26.46
678.675	18.46
678.798	26.46
678.92	-11.54
679.042	28.46
679.164	-17.54
679.286	30.46
679.409	11.46
679.531	-4.54
679.653	3.46
679.775	-10.54
679.898	-1.54
680.02	4.46
680.142	-20.54
680.264	26.46
680.386	-7.54
680.509	4.46
680.631	7.46
680.753	17.46
680.875	-2.54
680.998	10.46
681.12	-0.54
681.242	-0.54
681.364	-17.54
681.486	-0.54
681.609	-17.54
681.731	-3.54
681.853	-0.54
681.975	13.46
682.098	7.46
682.22	-5.54
682.342	-0.54
682.464	23.46
682.587	-2.54
682.709	5.46
682.831	-10.54
682.953	-8.54
683.076	-13.54
683.198	7.46
683.32	5.46
683.442	3.46
683.565	1.46
683.687	-5.54
683.809	9.46
683.931	-10.54
684.054	6.46
684.176	5.46
684.298	7.46
684.42	-1.54
684.543	-6.54
684.665	16.46
684.787	-10.54
684.909	4.46
685.032	3.46
685.154	-15.54
685.276	-16.54
685.398	-7.54
685.521	-1.54
685.643	7.46
685.765	-2.54
685.887	16.46
686.01	10.46
686.132	24.46
686.254	3.46
686.377	21.46
686.499	-2.54
686.621	20.46
686.743	4.46
686.866	7.46
686.988	20.46
687.11	26.46
687.232	7.46
687.355	-12.54
687.477	8.46
687.599	11.46
687.722	-18.54
687.844	-3.54
687.966	12.46
688.088	20.46
688.211	29.46
688.333	-7.54
688.455	-6.54
688.578	14.46
688.7	-8.54
688.822	-4.54
688.944	-12.54
689.067	39.46
689.189	17.46
689.311	-20.54
689.434	-13.54
689.556	2.46
689.678	1.46
689.801	-12.54
689.923	-0.54
690.045	21.46
690.167	5.46
690.29	2.46
690.412	-12.54
690.534	10.46
690.657	-6.54
690.779	0.46
690.901	9.46
691.024	1.46
691.146	-3.54
691.268	-17.54
691.391	8.46
691.513	7.46
691.635	14.46
691.758	14.46
691.88	-1.54
692.002	-6.54
692.125	-13.54
692.247	-16.54
692.369	-7.54
692.492	-7.54
692.614	2.46
692.736	0.46
692.859	-16.54
692.981	1.46
693.103	10.46
693.226	10.46
693.348	23.46
693.47	5.46
693.593	1.46
693.715	-9.54
693.837	-21.54
693.96	-10.54
694.082	-12.54
694.204	-7.54
694.327	-13.54
694.449	-19.54
694.571	-8.54
694.694	4.46
694.816	9.46
694.938	-2.54
695.061	-2.54
695.183	-3.54
695.305	4.46
695.428	4.46
695.55	-5.54
695.672	6.46
695.795	9.46
695.917	29.46
696.04	-11.54
696.162	-8.54
696.284	-12.54
696.407	-1.54
696.529	12.46
696.651	13.46
696.774	-12.54
696.896	8.46
697.019	-12.54
697.141	-1.54
697.263	-12.54
697.386	-3.54
697.508	-3.54
697.63	5.46
697.753	14.46
697.875	-15.54
697.998	-6.54
698.12	5.46
698.242	-1.54
698.365	-4.54
698.487	-12.54
698.61	9.46
698.732	-5.54
698.854	26.46
698.977	1.46
699.099	19.46
699.221	-3.54
699.344	-14.54
699.466	10.46
699.589	12.46
699.711	-2.54
699.834	7.46
699.956	13.46
700.078	-11.54
700.201	11.46
700.323	17.46
700.446	-0.54
700.568	-11.54
700.69	11.46
700.813	5.46
700.935	-5.54
701.058	5.46
701.18	-2.54
701.302	-4.54
701.425	-1.54
701.547	1.46
701.67	-10.54
701.792	6.46
701.915	-4.54
702.037	-2.54
702.159	-5.54
702.282	15.46
702.404	7.46
702.527	8.46
702.649	16.46
702.772	4.46
702.894	2.46
703.017	8.46
703.139	18.46
703.261	19.46
703.384	-5.54
703.506	-7.54
703.629	4.46
703.751	16.46
703.874	8.46
703.996	-15.54
704.119	-11.54
704.241	-0.54
704.364	-17.54
704.486	11.46
704.608	7.46
704.731	-12.54
704.853	-0.54
704.976	-14.54
705.098	10.46
705.221	5.46
705.343	-0.54
705.466	-2.54
705.588	10.46
705.711	-4.54
705.833	13.46
705.956	-1.54
706.078	8.46
706.201	7.46
706.323	-7.54
706.446	0.46
