Data from LowRes_H2_15_26_11_07_2024_HR4C61881__81__15-28-21-736.txt Node

Date: Thu Nov 07 15:28:21 EST 2024
User: crc00042
Spectrometer: HR4C6188
Trigger mode: 4
Integration Time (sec): 1.000000E-1
Scans to average: 1
Electric dark correction enabled: true
Nonlinearity correction enabled: false
Boxcar width: 0
XAxis mode: Wavelengths
Number of Pixels in Spectrum: 3648
>>>>>Begin Spectral Data<<<<<
245.66	-99.23
245.797	-99.23
245.934	-99.23
246.071	-66.23
246.208	-4.23
246.344	20.77
246.481	-1.23
246.618	-7.23
246.755	-6.23
246.892	-4.23
247.029	-14.23
247.165	-12.23
247.302	8.77
247.439	-5.23
247.576	9.77
247.713	-17.23
247.849	26.77
247.986	1.77
248.123	8.77
248.26	-2.23
248.396	16.77
248.533	2.77
248.67	0.77
248.806	10.77
248.943	-1.23
249.08	-2.23
249.216	13.77
249.353	-4.23
249.49	-1.23
249.626	-4.23
249.763	-13.23
249.9	-17.23
250.036	-7.23
250.173	7.77
250.309	7.77
250.446	2.77
250.582	2.77
250.719	0.77
250.856	-0.23
250.992	-3.23
251.129	-6.23
251.265	-4.23
251.402	16.77
251.538	11.77
251.675	-4.23
251.811	29.77
251.948	20.77
252.084	4.77
252.221	-9.23
252.357	-8.23
252.493	18.77
252.63	13.77
252.766	18.77
252.903	-5.23
253.039	5.77
253.175	-1.23
253.312	19.77
253.448	-2.23
253.585	-5.23
253.721	4.77
253.857	1.77
253.994	-6.23
254.13	7.77
254.266	6.77
254.403	5.77
254.539	-2.23
254.675	1.77
254.811	1.77
254.948	16.77
255.084	6.77
255.22	-7.23
255.356	-8.23
255.493	6.77
255.629	11.77
255.765	5.77
255.901	19.77
256.037	7.77
256.174	9.77
256.31	-2.23
256.446	-2.23
256.582	-3.23
256.718	21.77
256.854	31.77
256.991	17.77
257.127	38.77
257.263	6.77
257.399	-0.23
257.535	-11.23
257.671	-20.23
257.807	-1.23
257.943	0.77
258.079	2.77
258.215	-5.23
258.351	18.77
258.487	19.77
258.623	11.77
258.759	8.77
258.895	10.77
259.031	-2.23
259.167	-16.23
259.303	6.77
259.439	4.77
259.575	9.77
259.711	15.77
259.847	-1.23
259.983	6.77
260.119	10.77
260.255	-15.23
260.391	14.77
260.527	21.77
260.663	14.77
260.799	13.77
260.934	-1.23
261.07	6.77
261.206	-4.23
261.342	-16.23
261.478	6.77
261.614	28.77
261.749	-4.23
261.885	14.77
262.021	-6.23
262.157	18.77
262.293	1.77
262.428	-7.23
262.564	-0.23
262.7	11.77
262.836	-6.23
262.971	5.77
263.107	5.77
263.243	6.77
263.378	6.77
263.514	-10.23
263.65	-6.23
263.785	-1.23
263.921	-2.23
264.057	4.77
264.192	8.77
264.328	4.77
264.464	-18.23
264.599	9.77
264.735	13.77
264.871	-15.23
265.006	-16.23
265.142	-5.23
265.277	2.77
265.413	24.77
265.548	15.77
265.684	23.77
265.819	-0.23
265.955	-11.23
266.091	-1.23
266.226	-18.23
266.362	12.77
266.497	10.77
266.633	7.77
266.768	7.77
266.903	26.77
267.039	-5.23
267.174	11.77
267.31	8.77
267.445	-11.23
267.581	1.77
267.716	18.77
267.851	6.77
267.987	0.77
268.122	8.77
268.258	1.77
268.393	-6.23
268.528	30.77
268.664	5.77
268.799	-16.23
268.934	9.77
269.07	-2.23
269.205	7.77
269.34	20.77
269.476	-6.23
269.611	-3.23
269.746	18.77
269.881	10.77
270.017	16.77
270.152	16.77
270.287	2.77
270.422	14.77
270.558	-3.23
270.693	4.77
270.828	-3.23
270.963	-19.23
271.098	9.77
271.234	3.77
271.369	21.77
271.504	5.77
271.639	-10.23
271.774	1.77
271.909	8.77
272.045	-23.23
272.18	-10.23
272.315	-6.23
272.45	25.77
272.585	-4.23
272.72	1.77
272.855	-6.23
272.99	6.77
273.125	-14.23
273.26	-1.23
273.395	-5.23
273.53	-1.23
273.665	-4.23
273.8	-3.23
273.935	15.77
274.07	12.77
274.205	17.77
274.34	9.77
274.475	12.77
274.61	17.77
274.745	-16.23
274.88	14.77
275.015	2.77
275.15	-1.23
275.285	9.77
275.42	14.77
275.555	16.77
275.69	4.77
275.825	-8.23
275.959	5.77
276.094	-5.23
276.229	-0.23
276.364	-3.23
276.499	3.77
276.634	12.77
276.768	17.77
276.903	20.77
277.038	6.77
277.173	-0.23
277.308	-11.23
277.442	-17.23
277.577	-4.23
277.712	-9.23
277.847	7.77
277.981	9.77
278.116	-2.23
278.251	11.77
278.386	0.77
278.52	12.77
278.655	2.77
278.79	6.77
278.924	2.77
279.059	-6.23
279.194	9.77
279.328	17.77
279.463	13.77
279.598	28.77
279.732	9.77
279.867	2.77
280.001	18.77
280.136	-2.23
280.271	17.77
280.405	7.77
280.54	3.77
280.674	-8.23
280.809	23.77
280.943	-14.23
281.078	4.77
281.213	-1.23
281.347	9.77
281.482	6.77
281.616	13.77
281.751	-2.23
281.885	-28.23
282.02	-6.23
282.154	12.77
282.288	-5.23
282.423	-7.23
282.557	-7.23
282.692	4.77
282.826	0.77
282.961	1.77
283.095	-2.23
283.229	-3.23
283.364	-11.23
283.498	4.77
283.633	-18.23
283.767	-4.23
283.901	13.77
284.036	10.77
284.17	-11.23
284.304	-11.23
284.439	10.77
284.573	11.77
284.707	10.77
284.842	9.77
284.976	-18.23
285.11	-17.23
285.244	3.77
285.379	52.77
285.513	-8.23
285.647	15.77
285.781	21.77
285.916	13.77
286.05	6.77
286.184	20.77
286.318	7.77
286.453	-20.23
286.587	-4.23
286.721	-18.23
286.855	12.77
286.989	22.77
287.123	-8.23
287.258	-3.23
287.392	6.77
287.526	7.77
287.66	8.77
287.794	1.77
287.928	-6.23
288.062	-3.23
288.196	-13.23
288.33	9.77
288.464	7.77
288.598	-3.23
288.733	-4.23
288.867	20.77
289.001	-8.23
289.135	-7.23
289.269	-14.23
289.403	-1.23
289.537	-6.23
289.671	3.77
289.805	-11.23
289.939	5.77
290.073	-2.23
290.207	10.77
290.34	6.77
290.474	29.77
290.608	8.77
290.742	-5.23
290.876	7.77
291.01	13.77
291.144	32.77
291.278	18.77
291.412	0.77
291.546	-17.23
291.679	-11.23
291.813	7.77
291.947	-13.23
292.081	-7.23
292.215	-12.23
292.349	13.77
292.482	9.77
292.616	-9.23
292.75	26.77
292.884	9.77
293.018	-2.23
293.151	3.77
293.285	-5.23
293.419	-8.23
293.553	4.77
293.686	-8.23
293.82	-3.23
293.954	26.77
294.088	27.77
294.221	3.77
294.355	-16.23
294.489	1.77
294.622	1.77
294.756	6.77
294.89	16.77
295.023	8.77
295.157	9.77
295.291	19.77
295.424	36.77
295.558	-9.23
295.691	-2.23
295.825	-9.23
295.959	5.77
296.092	-2.23
296.226	10.77
296.359	36.77
296.493	12.77
296.627	15.77
296.76	9.77
296.894	-1.23
297.027	6.77
297.161	4.77
297.294	-10.23
297.428	-4.23
297.561	28.77
297.695	3.77
297.828	1.77
297.962	0.77
298.095	-8.23
298.229	-2.23
298.362	-17.23
298.495	-0.23
298.629	-3.23
298.762	-0.23
298.896	-3.23
299.029	-27.23
299.162	7.77
299.296	4.77
299.429	-6.23
299.563	8.77
299.696	14.77
299.829	-5.23
299.963	3.77
300.096	20.77
300.229	13.77
300.363	7.77
300.496	-2.23
300.629	-22.23
300.763	-6.23
300.896	13.77
301.029	17.77
301.162	19.77
301.296	-11.23
301.429	-5.23
301.562	-5.23
301.695	19.77
301.829	17.77
301.962	23.77
302.095	-6.23
302.228	-6.23
302.362	8.77
302.495	8.77
302.628	6.77
302.761	4.77
302.894	12.77
303.027	30.77
303.161	2.77
303.294	-9.23
303.427	23.77
303.56	28.77
303.693	17.77
303.826	-8.23
303.959	4.77
304.092	-14.23
304.225	-10.23
304.359	-4.23
304.492	16.77
304.625	-10.23
304.758	22.77
304.891	4.77
305.024	14.77
305.157	13.77
305.29	1.77
305.423	-15.23
305.556	9.77
305.689	4.77
305.822	-2.23
305.955	2.77
306.088	5.77
306.221	-6.23
306.354	-16.23
306.487	1.77
306.62	-4.23
306.752	6.77
306.885	19.77
307.018	-7.23
307.151	9.77
307.284	11.77
307.417	-8.23
307.55	17.77
307.683	-0.23
307.816	14.77
307.948	21.77
308.081	22.77
308.214	6.77
308.347	34.77
308.48	-1.23
308.613	-1.23
308.745	2.77
308.878	5.77
309.011	-2.23
309.144	6.77
309.277	-7.23
309.409	6.77
309.542	1.77
309.675	12.77
309.808	19.77
309.94	24.77
310.073	-4.23
310.206	-11.23
310.339	-1.23
310.471	-20.23
310.604	13.77
310.737	-9.23
310.869	-1.23
311.002	-5.23
311.135	1.77
311.267	-4.23
311.4	-6.23
311.533	22.77
311.665	0.77
311.798	8.77
311.93	1.77
312.063	18.77
312.196	0.77
312.328	-2.23
312.461	5.77
312.593	8.77
312.726	15.77
312.859	18.77
312.991	-1.23
313.124	-11.23
313.256	6.77
313.389	9.77
313.521	-2.23
313.654	3.77
313.786	-8.23
313.919	-4.23
314.051	-0.23
314.184	-3.23
314.316	7.77
314.449	-9.23
314.581	-4.23
314.714	2.77
314.846	6.77
314.978	-3.23
315.111	-18.23
315.243	5.77
315.376	12.77
315.508	-10.23
315.641	-3.23
315.773	4.77
315.905	4.77
316.038	-6.23
316.17	10.77
316.302	4.77
316.435	2.77
316.567	3.77
316.699	21.77
316.832	-9.23
316.964	-5.23
317.096	-11.23
317.229	2.77
317.361	-23.23
317.493	-4.23
317.625	-11.23
317.758	0.77
317.89	12.77
318.022	8.77
318.155	-17.23
318.287	4.77
318.419	5.77
318.551	-13.23
318.683	-10.23
318.816	-5.23
318.948	12.77
319.08	-1.23
319.212	-3.23
319.344	16.77
319.477	-8.23
319.609	9.77
319.741	21.77
319.873	5.77
320.005	-0.23
320.137	-21.23
320.269	7.77
320.401	-10.23
320.534	-1.23
320.666	10.77
320.798	-6.23
320.93	2.77
321.062	-2.23
321.194	-7.23
321.326	5.77
321.458	10.77
321.59	4.77
321.722	4.77
321.854	11.77
321.986	-1.23
322.118	4.77
322.25	-7.23
322.382	15.77
322.514	2.77
322.646	-11.23
322.778	20.77
322.91	8.77
323.042	-9.23
323.174	-21.23
323.306	4.77
323.438	-7.23
323.57	12.77
323.702	-2.23
323.834	-0.23
323.966	-11.23
324.097	5.77
324.229	29.77
324.361	17.77
324.493	4.77
324.625	-1.23
324.757	26.77
324.889	3.77
325.021	11.77
325.152	13.77
325.284	14.77
325.416	-5.23
325.548	-17.23
325.68	4.77
325.811	10.77
325.943	3.77
326.075	-10.23
326.207	2.77
326.339	15.77
326.47	0.77
326.602	20.77
326.734	-9.23
326.866	3.77
326.997	-14.23
327.129	-9.23
327.261	-6.23
327.392	-8.23
327.524	13.77
327.656	-2.23
327.787	16.77
327.919	3.77
328.051	14.77
328.182	0.77
328.314	-4.23
328.446	-9.23
328.577	5.77
328.709	14.77
328.841	-11.23
328.972	-11.23
329.104	-16.23
329.235	3.77
329.367	-0.23
329.499	4.77
329.63	21.77
329.762	1.77
329.893	12.77
330.025	-10.23
330.156	-26.23
330.288	21.77
330.419	5.77
330.551	5.77
330.683	26.77
330.814	12.77
330.946	19.77
331.077	-11.23
331.208	-2.23
331.34	0.77
331.471	-13.23
331.603	2.77
331.734	0.77
331.866	-5.23
331.997	4.77
332.129	17.77
332.26	25.77
332.392	16.77
332.523	-1.23
332.654	-27.23
332.786	-0.23
332.917	-11.23
333.048	10.77
333.18	16.77
333.311	-5.23
333.443	11.77
333.574	-12.23
333.705	20.77
333.837	1.77
333.968	9.77
334.099	17.77
334.231	11.77
334.362	5.77
334.493	13.77
334.624	18.77
334.756	25.77
334.887	21.77
335.018	0.77
335.15	16.77
335.281	7.77
335.412	16.77
335.543	5.77
335.675	-19.23
335.806	-5.23
335.937	-10.23
336.068	4.77
336.199	35.77
336.331	15.77
336.462	6.77
336.593	21.77
336.724	-6.23
336.855	-1.23
336.986	13.77
337.118	24.77
337.249	-3.23
337.38	6.77
337.511	13.77
337.642	-15.23
337.773	0.77
337.904	17.77
338.035	31.77
338.166	1.77
338.298	20.77
338.429	-2.23
338.56	17.77
338.691	6.77
338.822	4.77
338.953	0.77
339.084	24.77
339.215	28.77
339.346	17.77
339.477	9.77
339.608	-3.23
339.739	14.77
339.87	4.77
340.001	-3.23
340.132	24.77
340.263	-5.23
340.394	6.77
340.525	0.77
340.656	-2.23
340.787	-5.23
340.918	28.77
341.049	2.77
341.179	1.77
341.31	3.77
341.441	9.77
341.572	25.77
341.703	5.77
341.834	-10.23
341.965	12.77
342.096	-9.23
342.227	3.77
342.357	17.77
342.488	2.77
342.619	-6.23
342.75	22.77
342.881	-1.23
343.012	26.77
343.142	16.77
343.273	6.77
343.404	1.77
343.535	21.77
343.666	15.77
343.796	8.77
343.927	19.77
344.058	20.77
344.189	-4.23
344.319	19.77
344.45	13.77
344.581	-6.23
344.712	-6.23
344.842	14.77
344.973	21.77
345.104	0.77
345.234	3.77
345.365	-10.23
345.496	-1.23
345.626	-4.23
345.757	8.77
345.888	6.77
346.018	19.77
346.149	7.77
346.28	32.77
346.41	-7.23
346.541	-0.23
346.672	2.77
346.802	9.77
346.933	21.77
347.063	13.77
347.194	-1.23
347.325	-1.23
347.455	17.77
347.586	6.77
347.716	-11.23
347.847	12.77
347.977	-3.23
348.108	2.77
348.238	15.77
348.369	-4.23
348.499	11.77
348.63	-17.23
348.76	5.77
348.891	31.77
349.021	18.77
349.152	28.77
349.282	19.77
349.413	0.77
349.543	21.77
349.674	10.77
349.804	17.77
349.935	-3.23
350.065	11.77
350.196	-17.23
350.326	-2.23
350.456	-1.23
350.587	19.77
350.717	18.77
350.848	14.77
350.978	14.77
351.108	-10.23
351.239	10.77
351.369	-13.23
351.499	3.77
351.63	5.77
351.76	2.77
351.89	-2.23
352.021	-2.23
352.151	4.77
352.281	9.77
352.412	9.77
352.542	25.77
352.672	1.77
352.803	6.77
352.933	3.77
353.063	16.77
353.193	7.77
353.324	18.77
353.454	35.77
353.584	19.77
353.714	-3.23
353.845	6.77
353.975	-3.23
354.105	-12.23
354.235	-2.23
354.365	7.77
354.496	-1.23
354.626	13.77
354.756	32.77
354.886	10.77
355.016	3.77
355.146	-0.23
355.277	5.77
355.407	7.77
355.537	10.77
355.667	7.77
355.797	0.77
355.927	2.77
356.057	2.77
356.187	-3.23
356.318	9.77
356.448	15.77
356.578	8.77
356.708	-4.23
356.838	14.77
356.968	6.77
357.098	2.77
357.228	14.77
357.358	-14.23
357.488	-0.23
357.618	12.77
357.748	18.77
357.878	6.77
358.008	18.77
358.138	-9.23
358.268	6.77
358.398	34.77
358.528	-12.23
358.658	3.77
358.788	8.77
358.918	11.77
359.048	16.77
359.178	14.77
359.308	10.77
359.438	28.77
359.568	23.77
359.698	14.77
359.827	23.77
359.957	14.77
360.087	15.77
360.217	-1.23
360.347	10.77
360.477	19.77
360.607	-5.23
360.737	7.77
360.866	3.77
360.996	-21.23
361.126	-7.23
361.256	33.77
361.386	4.77
361.516	7.77
361.645	-11.23
361.775	15.77
361.905	-20.23
362.035	14.77
362.165	-13.23
362.294	4.77
362.424	21.77
362.554	16.77
362.684	9.77
362.813	7.77
362.943	8.77
363.073	14.77
363.203	17.77
363.332	4.77
363.462	1.77
363.592	11.77
363.721	2.77
363.851	12.77
363.981	5.77
364.111	-6.23
364.24	-1.23
364.37	23.77
364.5	29.77
364.629	5.77
364.759	-14.23
364.888	-5.23
365.018	-3.23
365.148	17.77
365.277	25.77
365.407	8.77
365.537	19.77
365.666	-2.23
365.796	-8.23
365.925	-5.23
366.055	25.77
366.184	7.77
366.314	8.77
366.444	16.77
366.573	18.77
366.703	5.77
366.832	13.77
366.962	2.77
367.091	26.77
367.221	9.77
367.35	0.77
367.48	30.77
367.609	20.77
367.739	6.77
367.868	-6.23
367.998	-2.23
368.127	19.77
368.257	0.77
368.386	25.77
368.516	28.77
368.645	1.77
368.775	14.77
368.904	8.77
369.033	4.77
369.163	2.77
369.292	20.77
369.422	21.77
369.551	-7.23
369.68	13.77
369.81	13.77
369.939	-18.23
370.069	26.77
370.198	24.77
370.327	5.77
370.457	7.77
370.586	13.77
370.715	-3.23
370.845	7.77
370.974	21.77
371.103	22.77
371.233	12.77
371.362	9.77
371.491	9.77
371.621	12.77
371.75	18.77
371.879	18.77
372.008	7.77
372.138	2.77
372.267	32.77
372.396	16.77
372.525	9.77
372.655	6.77
372.784	-1.23
372.913	3.77
373.042	0.77
373.172	16.77
373.301	5.77
373.43	1.77
373.559	4.77
373.688	6.77
373.818	18.77
373.947	3.77
374.076	17.77
374.205	23.77
374.334	11.77
374.463	-3.23
374.593	8.77
374.722	21.77
374.851	10.77
374.98	-11.23
375.109	-7.23
375.238	19.77
375.367	31.77
375.496	-10.23
375.625	-11.23
375.755	10.77
375.884	20.77
376.013	24.77
376.142	-6.23
376.271	10.77
376.4	17.77
376.529	16.77
376.658	7.77
376.787	-7.23
376.916	21.77
377.045	8.77
377.174	20.77
377.303	3.77
377.432	20.77
377.561	24.77
377.69	13.77
377.819	12.77
377.948	-5.23
378.077	9.77
378.206	-6.23
378.335	13.77
378.464	6.77
378.593	12.77
378.722	-9.23
378.851	1.77
378.98	25.77
379.108	-7.23
379.237	-6.23
379.366	21.77
379.495	9.77
379.624	-5.23
379.753	3.77
379.882	15.77
380.011	12.77
380.14	6.77
380.268	9.77
380.397	-3.23
380.526	16.77
380.655	-23.23
380.784	-14.23
380.913	14.77
381.041	4.77
381.17	-3.23
381.299	-1.23
381.428	-6.23
381.557	-1.23
381.685	-9.23
381.814	20.77
381.943	-3.23
382.072	2.77
382.2	-10.23
382.329	1.77
382.458	1.77
382.587	8.77
382.715	26.77
382.844	12.77
382.973	13.77
383.102	-0.23
383.23	-8.23
383.359	-10.23
383.488	5.77
383.616	-6.23
383.745	-18.23
383.874	11.77
384.003	-3.23
384.131	-6.23
384.26	13.77
384.389	3.77
384.517	-12.23
384.646	-14.23
384.774	7.77
384.903	20.77
385.032	20.77
385.16	4.77
385.289	11.77
385.418	2.77
385.546	10.77
385.675	18.77
385.803	4.77
385.932	9.77
386.06	4.77
386.189	1.77
386.318	9.77
386.446	6.77
386.575	19.77
386.703	9.77
386.832	-0.23
386.96	-19.23
387.089	18.77
387.217	7.77
387.346	-7.23
387.474	0.77
387.603	9.77
387.731	20.77
387.86	0.77
387.988	8.77
388.117	7.77
388.245	4.77
388.374	3.77
388.502	4.77
388.631	-10.23
388.759	-0.23
388.888	13.77
389.016	8.77
389.144	8.77
389.273	-9.23
389.401	-13.23
389.53	-24.23
389.658	20.77
389.786	-13.23
389.915	-13.23
390.043	-13.23
390.172	-7.23
390.3	10.77
390.428	1.77
390.557	1.77
390.685	14.77
390.813	23.77
390.942	10.77
391.07	21.77
391.198	-4.23
391.327	3.77
391.455	-9.23
391.583	24.77
391.712	14.77
391.84	3.77
391.968	1.77
392.096	12.77
392.225	0.77
392.353	12.77
392.481	18.77
392.609	22.77
392.738	15.77
392.866	13.77
392.994	-11.23
393.122	18.77
393.251	-1.23
393.379	-6.23
393.507	-2.23
393.635	-9.23
393.764	11.77
393.892	15.77
394.02	-7.23
394.148	8.77
394.276	13.77
394.404	36.77
394.533	1.77
394.661	-3.23
394.789	11.77
394.917	37.77
395.045	10.77
395.173	-8.23
395.302	3.77
395.43	-11.23
395.558	6.77
395.686	5.77
395.814	26.77
395.942	-1.23
396.07	4.77
396.198	4.77
396.326	6.77
396.454	17.77
396.582	10.77
396.711	4.77
396.839	26.77
396.967	8.77
397.095	8.77
397.223	20.77
397.351	35.77
397.479	24.77
397.607	1.77
397.735	17.77
397.863	16.77
397.991	12.77
398.119	-3.23
398.247	6.77
398.375	22.77
398.503	-0.23
398.631	20.77
398.759	25.77
398.887	27.77
399.015	12.77
399.143	4.77
399.271	22.77
399.399	33.77
399.526	10.77
399.654	20.77
399.782	-7.23
399.91	17.77
400.038	39.77
400.166	14.77
400.294	8.77
400.422	-4.23
400.55	26.77
400.678	-0.23
400.805	2.77
400.933	0.77
401.061	17.77
401.189	0.77
401.317	34.77
401.445	15.77
401.573	31.77
401.7	12.77
401.828	9.77
401.956	4.77
402.084	10.77
402.212	20.77
402.34	10.77
402.467	15.77
402.595	9.77
402.723	6.77
402.851	26.77
402.978	14.77
403.106	0.77
403.234	5.77
403.362	36.77
403.489	20.77
403.617	13.77
403.745	14.77
403.873	-1.23
404	16.77
404.128	4.77
404.256	26.77
404.384	19.77
404.511	27.77
404.639	0.77
404.767	8.77
404.894	-5.23
405.022	3.77
405.15	12.77
405.277	18.77
405.405	-13.23
405.533	-20.23
405.66	-4.23
405.788	-18.23
405.916	-1.23
406.043	-5.23
406.171	-7.23
406.299	18.77
406.426	27.77
406.554	19.77
406.681	14.77
406.809	3.77
406.937	2.77
407.064	2.77
407.192	20.77
407.319	-3.23
407.447	1.77
407.574	14.77
407.702	16.77
407.83	9.77
407.957	-8.23
408.085	9.77
408.212	20.77
408.34	25.77
408.467	-5.23
408.595	3.77
408.722	10.77
408.85	15.77
408.977	7.77
409.105	-3.23
409.232	-3.23
409.36	16.77
409.487	13.77
409.615	16.77
409.742	19.77
409.87	41.77
409.997	29.77
410.125	44.77
410.252	72.77
410.379	64.77
410.507	35.77
410.634	19.77
410.762	9.77
410.889	5.77
411.017	6.77
411.144	19.77
411.271	15.77
411.399	3.77
411.526	-11.23
411.653	-3.23
411.781	12.77
411.908	6.77
412.036	6.77
412.163	11.77
412.29	2.77
412.418	8.77
412.545	27.77
412.672	-8.23
412.8	36.77
412.927	4.77
413.054	20.77
413.182	32.77
413.309	22.77
413.436	-6.23
413.564	-7.23
413.691	-4.23
413.818	31.77
413.945	5.77
414.073	-1.23
414.2	17.77
414.327	22.77
414.454	14.77
414.582	0.77
414.709	-13.23
414.836	-10.23
414.963	-3.23
415.091	15.77
415.218	-3.23
415.345	20.77
415.472	10.77
415.6	-9.23
415.727	11.77
415.854	25.77
415.981	7.77
416.108	2.77
416.236	0.77
416.363	-1.23
416.49	4.77
416.617	23.77
416.744	28.77
416.871	26.77
416.998	9.77
417.126	20.77
417.253	16.77
417.38	19.77
417.507	0.77
417.634	11.77
417.761	22.77
417.888	19.77
418.015	-4.23
418.143	0.77
418.27	35.77
418.397	4.77
418.524	15.77
418.651	8.77
418.778	20.77
418.905	30.77
419.032	24.77
419.159	14.77
419.286	26.77
419.413	7.77
419.54	19.77
419.667	6.77
419.794	-3.23
419.921	10.77
420.048	9.77
420.175	12.77
420.302	-4.23
420.429	11.77
420.556	11.77
420.683	-5.23
420.81	5.77
420.937	22.77
421.064	18.77
421.191	0.77
421.318	19.77
421.445	9.77
421.572	-8.23
421.699	27.77
421.826	14.77
421.953	9.77
422.08	12.77
422.207	-2.23
422.334	-13.23
422.461	41.77
422.588	11.77
422.714	18.77
422.841	37.77
422.968	13.77
423.095	3.77
423.222	6.77
423.349	22.77
423.476	8.77
423.603	9.77
423.729	1.77
423.856	8.77
423.983	9.77
424.11	2.77
424.237	14.77
424.364	12.77
424.491	-0.23
424.617	-11.23
424.744	16.77
424.871	17.77
424.998	-10.23
425.125	-8.23
425.251	-6.23
425.378	10.77
425.505	20.77
425.632	21.77
425.758	0.77
425.885	7.77
426.012	22.77
426.139	7.77
426.266	4.77
426.392	10.77
426.519	30.77
426.646	-1.23
426.772	-3.23
426.899	-6.23
427.026	20.77
427.153	8.77
427.279	18.77
427.406	7.77
427.533	4.77
427.659	1.77
427.786	6.77
427.913	23.77
428.039	27.77
428.166	16.77
428.293	0.77
428.419	9.77
428.546	6.77
428.673	-1.23
428.799	2.77
428.926	9.77
429.053	28.77
429.179	32.77
429.306	17.77
429.433	10.77
429.559	26.77
429.686	-1.23
429.812	-0.23
429.939	16.77
430.066	23.77
430.192	6.77
430.319	27.77
430.445	0.77
430.572	13.77
430.699	-12.23
430.825	-2.23
430.952	6.77
431.078	14.77
431.205	21.77
431.331	2.77
431.458	20.77
431.584	27.77
431.711	12.77
431.837	-1.23
431.964	4.77
432.09	13.77
432.217	-25.23
432.343	-3.23
432.47	17.77
432.596	4.77
432.723	-5.23
432.849	4.77
432.976	20.77
433.102	19.77
433.229	-11.23
433.355	19.77
433.482	50.77
433.608	149.77
433.735	141.77
433.861	140.77
433.987	156.77
434.114	232.77
434.24	214.77
434.367	81.77
434.493	23.77
434.62	28.77
434.746	30.77
434.872	23.77
434.999	29.77
435.125	-6.23
435.252	4.77
435.378	4.77
435.504	-10.23
435.631	11.77
435.757	14.77
435.883	22.77
436.01	25.77
436.136	13.77
436.262	13.77
436.389	19.77
436.515	31.77
436.641	17.77
436.768	20.77
436.894	23.77
437.02	15.77
437.147	28.77
437.273	7.77
437.399	1.77
437.526	16.77
437.652	-2.23
437.778	-2.23
437.904	8.77
438.031	10.77
438.157	12.77
438.283	24.77
438.409	5.77
438.536	-11.23
438.662	22.77
438.788	21.77
438.914	24.77
439.041	9.77
439.167	42.77
439.293	15.77
439.419	0.77
439.546	27.77
439.672	-2.23
439.798	19.77
439.924	26.77
440.05	34.77
440.177	21.77
440.303	10.77
440.429	-5.23
440.555	18.77
440.681	17.77
440.807	19.77
440.934	16.77
441.06	12.77
441.186	5.77
441.312	7.77
441.438	10.77
441.564	16.77
441.69	35.77
441.816	38.77
441.943	20.77
442.069	12.77
442.195	4.77
442.321	4.77
442.447	7.77
442.573	1.77
442.699	6.77
442.825	-8.23
442.951	24.77
443.077	13.77
443.203	25.77
443.33	13.77
443.456	-11.23
443.582	21.77
443.708	9.77
443.834	26.77
443.96	13.77
444.086	1.77
444.212	27.77
444.338	30.77
444.464	13.77
444.59	33.77
444.716	4.77
444.842	3.77
444.968	9.77
445.094	-4.23
445.22	-0.23
445.346	5.77
445.472	11.77
445.598	8.77
445.724	5.77
445.85	3.77
445.976	2.77
446.102	26.77
446.228	32.77
446.354	34.77
446.48	-1.23
446.605	12.77
446.731	15.77
446.857	9.77
446.983	16.77
447.109	-3.23
447.235	8.77
447.361	0.77
447.487	32.77
447.613	13.77
447.739	5.77
447.865	1.77
447.99	-1.23
448.116	6.77
448.242	16.77
448.368	13.77
448.494	18.77
448.62	5.77
448.746	0.77
448.872	19.77
448.997	7.77
449.123	19.77
449.249	21.77
449.375	28.77
449.501	1.77
449.627	7.77
449.752	22.77
449.878	6.77
450.004	4.77
450.13	12.77
450.256	5.77
450.381	14.77
450.507	18.77
450.633	10.77
450.759	22.77
450.884	9.77
451.01	15.77
451.136	-2.23
451.262	35.77
451.388	5.77
451.513	4.77
451.639	27.77
451.765	23.77
451.89	14.77
452.016	19.77
452.142	14.77
452.268	12.77
452.393	0.77
452.519	6.77
452.645	12.77
452.771	15.77
452.896	0.77
453.022	3.77
453.148	-5.23
453.273	14.77
453.399	-1.23
453.525	-17.23
453.65	-1.23
453.776	31.77
453.902	28.77
454.027	21.77
454.153	3.77
454.279	22.77
454.404	10.77
454.53	16.77
454.656	57.77
454.781	26.77
454.907	2.77
455.032	13.77
455.158	38.77
455.284	22.77
455.409	25.77
455.535	8.77
455.66	26.77
455.786	21.77
455.912	29.77
456.037	-2.23
456.163	-2.23
456.288	13.77
456.414	0.77
456.539	14.77
456.665	36.77
456.791	14.77
456.916	5.77
457.042	23.77
457.167	2.77
457.293	31.77
457.418	12.77
457.544	0.77
457.669	4.77
457.795	2.77
457.92	5.77
458.046	14.77
458.171	11.77
458.297	0.77
458.422	-14.23
458.548	6.77
458.673	17.77
458.799	1.77
458.924	-17.23
459.05	4.77
459.175	9.77
459.301	17.77
459.426	34.77
459.552	12.77
459.677	4.77
459.803	38.77
459.928	4.77
460.053	8.77
460.179	22.77
460.304	21.77
460.43	13.77
460.555	3.77
460.681	9.77
460.806	17.77
460.931	15.77
461.057	23.77
461.182	2.77
461.308	30.77
461.433	29.77
461.558	14.77
461.684	26.77
461.809	25.77
461.934	12.77
462.06	16.77
462.185	-7.23
462.311	10.77
462.436	17.77
462.561	14.77
462.687	2.77
462.812	11.77
462.937	20.77
463.063	9.77
463.188	-4.23
463.313	15.77
463.439	27.77
463.564	14.77
463.689	1.77
463.814	35.77
463.94	24.77
464.065	48.77
464.19	33.77
464.316	-3.23
464.441	12.77
464.566	-3.23
464.692	5.77
464.817	7.77
464.942	-5.23
465.067	20.77
465.193	6.77
465.318	10.77
465.443	1.77
465.568	14.77
465.694	15.77
465.819	21.77
465.944	-3.23
466.069	20.77
466.194	13.77
466.32	23.77
466.445	18.77
466.57	4.77
466.695	18.77
466.82	26.77
466.946	14.77
467.071	13.77
467.196	2.77
467.321	4.77
467.446	-1.23
467.572	1.77
467.697	0.77
467.822	18.77
467.947	28.77
468.072	5.77
468.197	14.77
468.323	-6.23
468.448	8.77
468.573	-7.23
468.698	5.77
468.823	8.77
468.948	10.77
469.073	14.77
469.198	4.77
469.324	17.77
469.449	7.77
469.574	38.77
469.699	34.77
469.824	8.77
469.949	19.77
470.074	25.77
470.199	37.77
470.324	26.77
470.449	21.77
470.574	16.77
470.7	26.77
470.825	9.77
470.95	16.77
471.075	-1.23
471.2	-1.23
471.325	13.77
471.45	10.77
471.575	-1.23
471.7	10.77
471.825	-7.23
471.95	10.77
472.075	12.77
472.2	14.77
472.325	-2.23
472.45	-8.23
472.575	2.77
472.7	8.77
472.825	5.77
472.95	14.77
473.075	1.77
473.2	-10.23
473.325	9.77
473.45	6.77
473.575	4.77
473.7	23.77
473.825	10.77
473.95	21.77
474.075	23.77
474.2	8.77
474.325	6.77
474.45	30.77
474.574	36.77
474.699	23.77
474.824	27.77
474.949	4.77
475.074	10.77
475.199	-3.23
475.324	-8.23
475.449	-3.23
475.574	12.77
475.699	16.77
475.824	11.77
475.949	12.77
476.073	14.77
476.198	-0.23
476.323	11.77
476.448	-3.23
476.573	5.77
476.698	21.77
476.823	11.77
476.947	19.77
477.072	7.77
477.197	7.77
477.322	2.77
477.447	-1.23
477.572	20.77
477.697	7.77
477.821	5.77
477.946	22.77
478.071	23.77
478.196	35.77
478.321	25.77
478.445	7.77
478.57	12.77
478.695	11.77
478.82	22.77
478.945	37.77
479.069	7.77
479.194	2.77
479.319	7.77
479.444	21.77
479.569	25.77
479.693	20.77
479.818	24.77
479.943	19.77
480.068	13.77
480.192	18.77
480.317	13.77
480.442	23.77
480.567	-2.23
480.691	4.77
480.816	-5.23
480.941	-20.23
481.066	19.77
481.19	31.77
481.315	18.77
481.44	9.77
481.564	1.77
481.689	16.77
481.814	23.77
481.938	34.77
482.063	25.77
482.188	15.77
482.313	30.77
482.437	28.77
482.562	24.77
482.687	21.77
482.811	13.77
482.936	13.77
483.061	12.77
483.185	21.77
483.31	31.77
483.435	36.77
483.559	20.77
483.684	14.77
483.808	51.77
483.933	31.77
484.058	17.77
484.182	14.77
484.307	6.77
484.432	9.77
484.556	11.77
484.681	21.77
484.805	22.77
484.93	36.77
485.055	46.77
485.179	81.77
485.304	118.77
485.428	377.77
485.553	1270.77
485.678	1768.77
485.802	1687.77
485.927	1866.77
486.051	2775.77
486.176	1665.77
486.3	455.77
486.425	144.77
486.549	85.77
486.674	68.77
486.799	46.77
486.923	32.77
487.048	33.77
487.172	17.77
487.297	18.77
487.421	46.77
487.546	22.77
487.67	34.77
487.795	8.77
487.919	1.77
488.044	30.77
488.168	16.77
488.293	21.77
488.417	4.77
488.542	6.77
488.666	31.77
488.791	35.77
488.915	27.77
489.04	26.77
489.164	24.77
489.289	34.77
489.413	12.77
489.538	30.77
489.662	38.77
489.786	20.77
489.911	45.77
490.035	18.77
490.16	5.77
490.284	10.77
490.409	-14.23
490.533	11.77
490.658	34.77
490.782	16.77
490.906	22.77
491.031	20.77
491.155	14.77
491.28	19.77
491.404	9.77
491.528	22.77
491.653	16.77
491.777	29.77
491.902	11.77
492.026	16.77
492.15	4.77
492.275	23.77
492.399	24.77
492.524	5.77
492.648	27.77
492.772	23.77
492.897	34.77
493.021	20.77
493.145	21.77
493.27	10.77
493.394	-3.23
493.518	-0.23
493.643	12.77
493.767	33.77
493.891	0.77
494.016	15.77
494.14	10.77
494.264	10.77
494.389	23.77
494.513	15.77
494.637	5.77
494.762	11.77
494.886	29.77
495.01	30.77
495.134	21.77
495.259	16.77
495.383	12.77
495.507	30.77
495.632	35.77
495.756	43.77
495.88	35.77
496.004	21.77
496.129	-4.23
496.253	36.77
496.377	26.77
496.501	39.77
496.626	1.77
496.75	4.77
496.874	12.77
496.998	11.77
497.123	25.77
497.247	32.77
497.371	0.77
497.495	16.77
497.62	10.77
497.744	2.77
497.868	1.77
497.992	19.77
498.116	-0.23
498.241	18.77
498.365	4.77
498.489	-2.23
498.613	44.77
498.737	16.77
498.862	22.77
498.986	-5.23
499.11	5.77
499.234	17.77
499.358	-3.23
499.482	7.77
499.607	26.77
499.731	21.77
499.855	44.77
499.979	14.77
500.103	23.77
500.227	36.77
500.351	27.77
500.476	-1.23
500.6	0.77
500.724	21.77
500.848	17.77
500.972	23.77
501.096	16.77
501.22	33.77
501.344	7.77
501.469	8.77
501.593	18.77
501.717	15.77
501.841	19.77
501.965	13.77
502.089	4.77
502.213	5.77
502.337	-0.23
502.461	-2.23
502.585	-0.23
502.709	21.77
502.834	-3.23
502.958	13.77
503.082	2.77
503.206	29.77
503.33	32.77
503.454	16.77
503.578	22.77
503.702	37.77
503.826	18.77
503.95	18.77
504.074	6.77
504.198	22.77
504.322	11.77
504.446	-2.23
504.57	16.77
504.694	21.77
504.818	22.77
504.942	38.77
505.066	15.77
505.19	12.77
505.314	18.77
505.438	12.77
505.562	21.77
505.686	30.77
505.81	12.77
505.934	19.77
506.058	3.77
506.182	4.77
506.306	12.77
506.43	-2.23
506.554	3.77
506.678	10.77
506.802	12.77
506.926	9.77
507.05	26.77
507.174	41.77
507.298	28.77
507.422	33.77
507.546	21.77
507.67	30.77
507.794	11.77
507.918	9.77
508.042	4.77
508.165	5.77
508.289	8.77
508.413	6.77
508.537	8.77
508.661	8.77
508.785	15.77
508.909	8.77
509.033	3.77
509.157	7.77
509.281	1.77
509.405	-1.23
509.528	24.77
509.652	20.77
509.776	15.77
509.9	22.77
510.024	8.77
510.148	9.77
510.272	3.77
510.396	12.77
510.519	-1.23
510.643	29.77
510.767	16.77
510.891	8.77
511.015	8.77
511.139	20.77
511.263	36.77
511.386	9.77
511.51	23.77
511.634	8.77
511.758	20.77
511.882	-4.23
512.006	15.77
512.129	16.77
512.253	41.77
512.377	15.77
512.501	10.77
512.625	16.77
512.748	11.77
512.872	12.77
512.996	-1.23
513.12	13.77
513.244	17.77
513.367	16.77
513.491	13.77
513.615	12.77
513.739	7.77
513.862	2.77
513.986	7.77
514.11	25.77
514.234	5.77
514.358	18.77
514.481	23.77
514.605	20.77
514.729	9.77
514.853	14.77
514.976	14.77
515.1	13.77
515.224	22.77
515.348	-11.23
515.471	-2.23
515.595	15.77
515.719	3.77
515.842	20.77
515.966	10.77
516.09	32.77
516.214	22.77
516.337	33.77
516.461	14.77
516.585	2.77
516.708	8.77
516.832	17.77
516.956	6.77
517.08	16.77
517.203	-2.23
517.327	12.77
517.451	17.77
517.574	27.77
517.698	-2.23
517.822	18.77
517.945	36.77
518.069	33.77
518.193	42.77
518.316	27.77
518.44	31.77
518.564	7.77
518.687	32.77
518.811	32.77
518.935	49.77
519.058	30.77
519.182	51.77
519.306	38.77
519.429	22.77
519.553	54.77
519.676	37.77
519.8	27.77
519.924	17.77
520.047	8.77
520.171	7.77
520.294	20.77
520.418	12.77
520.542	24.77
520.665	37.77
520.789	24.77
520.913	4.77
521.036	1.77
521.16	0.77
521.283	15.77
521.407	6.77
521.53	21.77
521.654	0.77
521.778	19.77
521.901	12.77
522.025	9.77
522.148	18.77
522.272	8.77
522.395	1.77
522.519	8.77
522.643	9.77
522.766	32.77
522.89	20.77
523.013	24.77
523.137	2.77
523.26	17.77
523.384	17.77
523.507	21.77
523.631	10.77
523.754	1.77
523.878	9.77
524.002	19.77
524.125	15.77
524.249	5.77
524.372	41.77
524.496	13.77
524.619	5.77
524.743	8.77
524.866	18.77
524.99	14.77
525.113	10.77
525.237	22.77
525.36	17.77
525.484	22.77
525.607	17.77
525.731	-4.23
525.854	1.77
525.978	18.77
526.101	22.77
526.224	6.77
526.348	10.77
526.471	20.77
526.595	17.77
526.718	-2.23
526.842	-7.23
526.965	5.77
527.089	11.77
527.212	17.77
527.336	17.77
527.459	35.77
527.582	15.77
527.706	13.77
527.829	5.77
527.953	3.77
528.076	-8.23
528.2	8.77
528.323	31.77
528.446	21.77
528.57	11.77
528.693	22.77
528.817	11.77
528.94	28.77
529.064	42.77
529.187	0.77
529.31	5.77
529.434	-5.23
529.557	-0.23
529.68	12.77
529.804	12.77
529.927	11.77
530.051	15.77
530.174	0.77
530.297	13.77
530.421	18.77
530.544	31.77
530.668	21.77
530.791	-1.23
530.914	18.77
531.038	0.77
531.161	7.77
531.284	-2.23
531.408	25.77
531.531	7.77
531.654	10.77
531.778	22.77
531.901	-0.23
532.024	15.77
532.148	8.77
532.271	5.77
532.394	13.77
532.518	18.77
532.641	19.77
532.764	26.77
532.888	24.77
533.011	14.77
533.134	9.77
533.258	42.77
533.381	19.77
533.504	14.77
533.628	5.77
533.751	12.77
533.874	15.77
533.997	19.77
534.121	11.77
534.244	-0.23
534.367	6.77
534.491	5.77
534.614	0.77
534.737	13.77
534.86	18.77
534.984	2.77
535.107	-2.23
535.23	2.77
535.354	8.77
535.477	5.77
535.6	13.77
535.723	21.77
535.847	12.77
535.97	-10.23
536.093	19.77
536.216	10.77
536.34	24.77
536.463	4.77
536.586	17.77
536.709	19.77
536.833	19.77
536.956	11.77
537.079	6.77
537.202	19.77
537.325	9.77
537.449	3.77
537.572	15.77
537.695	-6.23
537.818	23.77
537.941	3.77
538.065	5.77
538.188	-2.23
538.311	24.77
538.434	13.77
538.558	18.77
538.681	12.77
538.804	29.77
538.927	18.77
539.05	20.77
539.173	2.77
539.297	2.77
539.42	3.77
539.543	-3.23
539.666	29.77
539.789	9.77
539.913	13.77
540.036	-0.23
540.159	31.77
540.282	0.77
540.405	6.77
540.528	-2.23
540.651	27.77
540.775	20.77
540.898	11.77
541.021	10.77
541.144	15.77
541.267	16.77
541.39	-1.23
541.513	22.77
541.637	4.77
541.76	2.77
541.883	-7.23
542.006	3.77
542.129	17.77
542.252	-9.23
542.375	9.77
542.498	4.77
542.622	14.77
542.745	1.77
542.868	17.77
542.991	12.77
543.114	26.77
543.237	38.77
543.36	23.77
543.483	2.77
543.606	32.77
543.73	32.77
543.853	8.77
543.976	8.77
544.099	34.77
544.222	8.77
544.345	-0.23
544.468	8.77
544.591	25.77
544.714	2.77
544.837	18.77
544.96	20.77
545.083	36.77
545.206	15.77
545.329	22.77
545.453	18.77
545.576	28.77
545.699	17.77
545.822	24.77
545.945	7.77
546.068	8.77
546.191	10.77
546.314	4.77
546.437	27.77
546.56	21.77
546.683	13.77
546.806	26.77
546.929	4.77
547.052	-17.23
547.175	8.77
547.298	16.77
547.421	4.77
547.544	8.77
547.667	19.77
547.79	1.77
547.913	3.77
548.036	-17.23
548.159	-7.23
548.282	-1.23
548.405	-21.23
548.528	13.77
548.651	16.77
548.774	17.77
548.897	13.77
549.02	34.77
549.143	26.77
549.266	20.77
549.389	29.77
549.512	16.77
549.635	28.77
549.758	24.77
549.881	-1.23
550.004	0.77
550.127	5.77
550.25	2.77
550.373	1.77
550.496	20.77
550.619	0.77
550.742	-4.23
550.865	-6.23
550.988	10.77
551.111	21.77
551.234	20.77
551.356	-3.23
551.479	-13.23
551.602	14.77
551.725	12.77
551.848	30.77
551.971	23.77
552.094	12.77
552.217	6.77
552.34	-1.23
552.463	-1.23
552.586	8.77
552.709	10.77
552.832	26.77
552.955	35.77
553.077	25.77
553.2	27.77
553.323	-2.23
553.446	13.77
553.569	12.77
553.692	10.77
553.815	9.77
553.938	6.77
554.061	11.77
554.184	8.77
554.306	8.77
554.429	10.77
554.552	6.77
554.675	2.77
554.798	-6.23
554.921	14.77
555.044	13.77
555.167	11.77
555.29	13.77
555.412	9.77
555.535	4.77
555.658	4.77
555.781	11.77
555.904	16.77
556.027	24.77
556.15	15.77
556.272	2.77
556.395	14.77
556.518	9.77
556.641	8.77
556.764	46.77
556.887	13.77
557.01	2.77
557.132	-9.23
557.255	24.77
557.378	38.77
557.501	11.77
557.624	17.77
557.747	8.77
557.869	12.77
557.992	16.77
558.115	21.77
558.238	2.77
558.361	17.77
558.483	26.77
558.606	9.77
558.729	-12.23
558.852	28.77
558.975	21.77
559.098	20.77
559.22	12.77
559.343	12.77
559.466	13.77
559.589	7.77
559.712	30.77
559.834	14.77
559.957	17.77
560.08	0.77
560.203	17.77
560.325	27.77
560.448	37.77
560.571	12.77
560.694	9.77
560.817	18.77
560.939	14.77
561.062	6.77
561.185	14.77
561.308	6.77
561.43	1.77
561.553	-5.23
561.676	-5.23
561.799	11.77
561.921	8.77
562.044	9.77
562.167	-1.23
562.29	21.77
562.413	23.77
562.535	26.77
562.658	4.77
562.781	10.77
562.903	16.77
563.026	25.77
563.149	25.77
563.272	1.77
563.394	15.77
563.517	17.77
563.64	-15.23
563.763	6.77
563.885	21.77
564.008	38.77
564.131	16.77
564.254	1.77
564.376	-3.23
564.499	3.77
564.622	2.77
564.744	29.77
564.867	3.77
564.99	9.77
565.113	14.77
565.235	12.77
565.358	-2.23
565.481	-9.23
565.603	0.77
565.726	0.77
565.849	10.77
565.971	20.77
566.094	0.77
566.217	7.77
566.34	1.77
566.462	7.77
566.585	6.77
566.708	15.77
566.83	23.77
566.953	35.77
567.076	26.77
567.198	17.77
567.321	-7.23
567.444	33.77
567.566	19.77
567.689	-1.23
567.812	-17.23
567.934	16.77
568.057	1.77
568.18	26.77
568.302	9.77
568.425	-11.23
568.548	2.77
568.67	1.77
568.793	13.77
568.916	2.77
569.038	4.77
569.161	10.77
569.283	20.77
569.406	11.77
569.529	5.77
569.651	-12.23
569.774	-4.23
569.897	-1.23
570.019	30.77
570.142	15.77
570.265	4.77
570.387	8.77
570.51	24.77
570.632	12.77
570.755	8.77
570.878	-15.23
571	20.77
571.123	15.77
571.246	26.77
571.368	-6.23
571.491	24.77
571.613	-5.23
571.736	-10.23
571.859	2.77
571.981	-2.23
572.104	2.77
572.226	2.77
572.349	9.77
572.472	23.77
572.594	20.77
572.717	18.77
572.839	13.77
572.962	8.77
573.085	13.77
573.207	3.77
573.33	11.77
573.452	24.77
573.575	20.77
573.697	7.77
573.82	24.77
573.943	11.77
574.065	9.77
574.188	15.77
574.31	22.77
574.433	5.77
574.555	30.77
574.678	16.77
574.801	20.77
574.923	1.77
575.046	15.77
575.168	12.77
575.291	6.77
575.413	3.77
575.536	-12.23
575.659	18.77
575.781	6.77
575.904	20.77
576.026	25.77
576.149	16.77
576.271	17.77
576.394	37.77
576.516	-2.23
576.639	16.77
576.761	-3.23
576.884	-2.23
577.007	-2.23
577.129	14.77
577.252	19.77
577.374	34.77
577.497	24.77
577.619	26.77
577.742	10.77
577.864	26.77
577.987	19.77
578.109	33.77
578.232	22.77
578.354	30.77
578.477	12.77
578.599	14.77
578.722	5.77
578.844	-1.23
578.967	25.77
579.089	-3.23
579.212	3.77
579.334	26.77
579.457	13.77
579.579	15.77
579.702	8.77
579.824	17.77
579.947	23.77
580.069	14.77
580.192	9.77
580.314	16.77
580.437	5.77
580.559	38.77
580.682	22.77
580.804	20.77
580.927	21.77
581.049	58.77
581.172	22.77
581.294	30.77
581.417	15.77
581.539	24.77
581.662	15.77
581.784	17.77
581.907	32.77
582.029	8.77
582.152	9.77
582.274	28.77
582.396	11.77
582.519	23.77
582.641	3.77
582.764	18.77
582.886	35.77
583.009	25.77
583.131	10.77
583.254	8.77
583.376	30.77
583.499	17.77
583.621	9.77
583.743	34.77
583.866	19.77
583.988	15.77
584.111	17.77
584.233	22.77
584.356	25.77
584.478	8.77
584.601	-11.23
584.723	7.77
584.845	16.77
584.968	-6.23
585.09	-11.23
585.213	26.77
585.335	2.77
585.458	-5.23
585.58	-5.23
585.702	16.77
585.825	31.77
585.947	12.77
586.07	-2.23
586.192	-7.23
586.315	2.77
586.437	-2.23
586.559	3.77
586.682	-6.23
586.804	6.77
586.927	7.77
587.049	0.77
587.171	20.77
587.294	28.77
587.416	42.77
587.539	19.77
587.661	18.77
587.783	12.77
587.906	17.77
588.028	10.77
588.151	21.77
588.273	26.77
588.395	-3.23
588.518	14.77
588.64	9.77
588.763	7.77
588.885	24.77
589.007	22.77
589.13	-9.23
589.252	3.77
589.375	6.77
589.497	17.77
589.619	12.77
589.742	8.77
589.864	16.77
589.986	-1.23
590.109	-2.23
590.231	14.77
590.354	16.77
590.476	9.77
590.598	-9.23
590.721	-0.23
590.843	14.77
590.965	5.77
591.088	7.77
591.21	12.77
591.332	21.77
591.455	-8.23
591.577	-4.23
591.7	6.77
591.822	-2.23
591.944	14.77
592.067	16.77
592.189	26.77
592.311	12.77
592.434	6.77
592.556	24.77
592.678	23.77
592.801	-7.23
592.923	22.77
593.045	6.77
593.168	10.77
593.29	5.77
593.412	24.77
593.535	16.77
593.657	2.77
593.779	4.77
593.902	14.77
594.024	3.77
594.146	20.77
594.269	20.77
594.391	0.77
594.513	26.77
594.636	20.77
594.758	12.77
594.88	29.77
595.003	16.77
595.125	18.77
595.247	29.77
595.37	24.77
595.492	5.77
595.614	14.77
595.737	13.77
595.859	6.77
595.981	13.77
596.104	4.77
596.226	8.77
596.348	4.77
596.471	10.77
596.593	28.77
596.715	11.77
596.838	5.77
596.96	8.77
597.082	4.77
597.204	16.77
597.327	-1.23
597.449	-1.23
597.571	16.77
597.694	10.77
597.816	26.77
597.938	11.77
598.061	3.77
598.183	12.77
598.305	18.77
598.427	24.77
598.55	13.77
598.672	32.77
598.794	31.77
598.917	9.77
599.039	14.77
599.161	16.77
599.283	17.77
599.406	13.77
599.528	19.77
599.65	32.77
599.773	22.77
599.895	33.77
600.017	28.77
600.139	0.77
600.262	-7.23
600.384	13.77
600.506	0.77
600.628	12.77
600.751	21.77
600.873	-4.23
600.995	11.77
601.118	10.77
601.24	4.77
601.362	39.77
601.484	14.77
601.607	8.77
601.729	1.77
601.851	10.77
601.973	32.77
602.096	17.77
602.218	24.77
602.34	16.77
602.462	19.77
602.585	33.77
602.707	-1.23
602.829	15.77
602.951	0.77
603.074	11.77
603.196	16.77
603.318	-2.23
603.44	29.77
603.563	6.77
603.685	-4.23
603.807	20.77
603.929	2.77
604.052	22.77
604.174	25.77
604.296	16.77
604.418	13.77
604.541	22.77
604.663	16.77
604.785	30.77
604.907	20.77
605.03	7.77
605.152	33.77
605.274	5.77
605.396	9.77
605.519	10.77
605.641	21.77
605.763	21.77
605.885	8.77
606.008	5.77
606.13	18.77
606.252	10.77
606.374	-1.23
606.496	-2.23
606.619	-0.23
606.741	29.77
606.863	22.77
606.985	24.77
607.108	20.77
607.23	10.77
607.352	12.77
607.474	15.77
607.596	12.77
607.719	-2.23
607.841	14.77
607.963	26.77
608.085	27.77
608.207	36.77
608.33	5.77
608.452	7.77
608.574	9.77
608.696	12.77
608.819	16.77
608.941	25.77
609.063	15.77
609.185	1.77
609.307	21.77
609.43	17.77
609.552	15.77
609.674	-29.23
609.796	10.77
609.918	25.77
610.041	14.77
610.163	22.77
610.285	26.77
610.407	9.77
610.529	-18.23
610.652	18.77
610.774	11.77
610.896	12.77
611.018	15.77
611.14	11.77
611.263	9.77
611.385	1.77
611.507	24.77
611.629	16.77
611.751	14.77
611.873	31.77
611.996	-2.23
612.118	14.77
612.24	-0.23
612.362	13.77
612.484	21.77
612.607	32.77
612.729	34.77
612.851	6.77
612.973	-5.23
613.095	2.77
613.218	9.77
613.34	13.77
613.462	29.77
613.584	16.77
613.706	12.77
613.828	24.77
613.951	11.77
614.073	16.77
614.195	0.77
614.317	9.77
614.439	25.77
614.561	15.77
614.684	11.77
614.806	18.77
614.928	17.77
615.05	10.77
615.172	22.77
615.294	20.77
615.417	16.77
615.539	-8.23
615.661	12.77
615.783	41.77
615.905	37.77
616.027	70.77
616.15	115.77
616.272	86.77
616.394	59.77
616.516	52.77
616.638	22.77
616.76	22.77
616.883	21.77
617.005	1.77
617.127	12.77
617.249	26.77
617.371	9.77
617.493	-1.23
617.615	21.77
617.738	11.77
617.86	8.77
617.982	20.77
618.104	-7.23
618.226	-13.23
618.348	10.77
618.471	10.77
618.593	9.77
618.715	-3.23
618.837	-4.23
618.959	3.77
619.081	18.77
619.203	9.77
619.326	-4.23
619.448	0.77
619.57	12.77
619.692	9.77
619.814	26.77
619.936	17.77
620.058	-1.23
620.181	10.77
620.303	10.77
620.425	23.77
620.547	2.77
620.669	5.77
620.791	4.77
620.913	8.77
621.036	-8.23
621.158	8.77
621.28	18.77
621.402	-6.23
621.524	5.77
621.646	24.77
621.768	0.77
621.891	-18.23
622.013	5.77
622.135	-1.23
622.257	8.77
622.379	19.77
622.501	9.77
622.623	13.77
622.745	1.77
622.868	11.77
622.99	18.77
623.112	4.77
623.234	-4.23
623.356	13.77
623.478	16.77
623.6	15.77
623.722	5.77
623.845	17.77
623.967	-9.23
624.089	12.77
624.211	19.77
624.333	16.77
624.455	4.77
624.577	-1.23
624.699	26.77
624.822	14.77
624.944	1.77
625.066	-7.23
625.188	5.77
625.31	4.77
625.432	36.77
625.554	20.77
625.676	43.77
625.799	-2.23
625.921	0.77
626.043	14.77
626.165	10.77
626.287	0.77
626.409	16.77
626.531	-4.23
626.653	8.77
626.775	16.77
626.898	3.77
627.02	-2.23
627.142	25.77
627.264	18.77
627.386	1.77
627.508	18.77
627.63	18.77
627.752	9.77
627.874	23.77
627.997	18.77
628.119	13.77
628.241	19.77
628.363	4.77
628.485	17.77
628.607	24.77
628.729	4.77
628.851	14.77
628.973	9.77
629.096	-5.23
629.218	17.77
629.34	8.77
629.462	-10.23
629.584	7.77
629.706	10.77
629.828	17.77
629.95	13.77
630.072	15.77
630.195	22.77
630.317	16.77
630.439	9.77
630.561	8.77
630.683	-8.23
630.805	12.77
630.927	14.77
631.049	18.77
631.171	7.77
631.293	24.77
631.416	23.77
631.538	9.77
631.66	8.77
631.782	22.77
631.904	22.77
632.026	24.77
632.148	24.77
632.27	4.77
632.392	13.77
632.514	12.77
632.637	19.77
632.759	25.77
632.881	-3.23
633.003	2.77
633.125	-7.23
633.247	14.77
633.369	3.77
633.491	14.77
633.613	12.77
633.735	-5.23
633.858	9.77
633.98	14.77
634.102	4.77
634.224	23.77
634.346	17.77
634.468	12.77
634.59	12.77
634.712	-2.23
634.834	24.77
634.956	0.77
635.078	8.77
635.201	-9.23
635.323	10.77
635.445	9.77
635.567	-0.23
635.689	13.77
635.811	25.77
635.933	14.77
636.055	15.77
636.177	17.77
636.299	12.77
636.421	9.77
636.544	-7.23
636.666	13.77
636.788	16.77
636.91	28.77
637.032	-0.23
637.154	15.77
637.276	32.77
637.398	26.77
637.52	22.77
637.642	9.77
637.764	-3.23
637.887	0.77
638.009	12.77
638.131	16.77
638.253	17.77
638.375	24.77
638.497	3.77
638.619	-6.23
638.741	19.77
638.863	-13.23
638.985	9.77
639.107	3.77
639.23	7.77
639.352	21.77
639.474	8.77
639.596	-1.23
639.718	16.77
639.84	5.77
639.962	7.77
640.084	33.77
640.206	10.77
640.328	8.77
640.45	2.77
640.573	-5.23
640.695	15.77
640.817	26.77
640.939	12.77
641.061	3.77
641.183	10.77
641.305	14.77
641.427	23.77
641.549	14.77
641.671	6.77
641.793	1.77
641.915	15.77
642.038	20.77
642.16	10.77
642.282	5.77
642.404	15.77
642.526	-14.23
642.648	6.77
642.77	14.77
642.892	-9.23
643.014	18.77
643.136	-0.23
643.258	7.77
643.381	22.77
643.503	13.77
643.625	-3.23
643.747	1.77
643.869	5.77
643.991	15.77
644.113	-11.23
644.235	5.77
644.357	14.77
644.479	29.77
644.601	14.77
644.723	1.77
644.846	15.77
644.968	10.77
645.09	-6.23
645.212	-3.23
645.334	17.77
645.456	7.77
645.578	19.77
645.7	24.77
645.822	24.77
645.944	24.77
646.066	6.77
646.188	0.77
646.311	16.77
646.433	14.77
646.555	46.77
646.677	42.77
646.799	28.77
646.921	26.77
647.043	24.77
647.165	-6.23
647.287	3.77
647.409	16.77
647.531	22.77
647.654	-6.23
647.776	24.77
647.898	21.77
648.02	3.77
648.142	4.77
648.264	-0.23
648.386	14.77
648.508	-6.23
648.63	21.77
648.752	7.77
648.874	18.77
648.997	10.77
649.119	23.77
649.241	-6.23
649.363	21.77
649.485	9.77
649.607	-3.23
649.729	-19.23
649.851	7.77
649.973	14.77
650.095	10.77
650.217	-9.23
650.34	11.77
650.462	17.77
650.584	-0.23
650.706	31.77
650.828	20.77
650.95	-9.23
651.072	16.77
651.194	-2.23
651.316	3.77
651.438	26.77
651.56	9.77
651.683	-3.23
651.805	10.77
651.927	6.77
652.049	5.77
652.171	8.77
652.293	25.77
652.415	2.77
652.537	3.77
652.659	4.77
652.781	23.77
652.903	24.77
653.026	21.77
653.148	0.77
653.27	16.77
653.392	16.77
653.514	5.77
653.636	4.77
653.758	19.77
653.88	8.77
654.002	-12.23
654.124	6.77
654.247	22.77
654.369	8.77
654.491	4.77
654.613	5.77
654.735	13.77
654.857	28.77
654.979	17.77
655.101	22.77
655.223	58.77
655.345	15.77
655.468	44.77
655.59	16.77
655.712	48.77
655.834	23.77
655.956	40.77
656.078	28.77
656.2	45.77
656.322	50.77
656.444	7.77
656.566	35.77
656.689	54.77
656.811	65.77
656.933	101.77
657.055	102.77
657.177	158.77
657.299	241.77
657.421	518.77
657.543	1910.77
657.665	12698.77
657.787	15188.77
657.91	15347.77
658.032	15663.77
658.154	4710.77
658.276	4264.77
658.398	1323.77
658.52	1099.77
658.642	518.77
658.764	593.77
658.886	307.77
659.009	412.77
659.131	231.77
659.253	331.77
659.375	158.77
659.497	267.77
659.619	146.77
659.741	213.77
659.863	100.77
659.985	168.77
660.108	98.77
660.23	151.77
660.352	77.77
660.474	150.77
660.596	85.77
660.718	134.77
660.84	51.77
660.962	112.77
661.084	52.77
661.207	97.77
661.329	77.77
661.451	100.77
661.573	54.77
661.695	117.77
661.817	60.77
661.939	91.77
662.061	58.77
662.184	96.77
662.306	44.77
662.428	68.77
662.55	45.77
662.672	43.77
662.794	38.77
662.916	73.77
663.038	41.77
663.161	86.77
663.283	38.77
663.405	85.77
663.527	32.77
663.649	69.77
663.771	38.77
663.893	68.77
664.015	37.77
664.138	52.77
664.26	18.77
664.382	48.77
664.504	12.77
664.626	35.77
664.748	31.77
664.87	49.77
664.992	33.77
665.115	42.77
665.237	38.77
665.359	26.77
665.481	32.77
665.603	48.77
665.725	20.77
665.847	31.77
665.97	13.77
666.092	38.77
666.214	33.77
666.336	44.77
666.458	40.77
666.58	45.77
666.702	27.77
666.825	38.77
666.947	-0.23
667.069	35.77
667.191	20.77
667.313	41.77
667.435	3.77
667.557	20.77
667.68	11.77
667.802	20.77
667.924	6.77
668.046	24.77
668.168	29.77
668.29	39.77
668.412	24.77
668.535	52.77
668.657	27.77
668.779	33.77
668.901	17.77
669.023	39.77
669.145	16.77
669.267	45.77
669.39	9.77
669.512	35.77
669.634	41.77
669.756	37.77
669.878	20.77
670	52.77
670.123	24.77
670.245	34.77
670.367	24.77
670.489	35.77
670.611	15.77
670.733	17.77
670.856	8.77
670.978	16.77
671.1	27.77
671.222	32.77
671.344	25.77
671.466	5.77
671.589	-3.23
671.711	10.77
671.833	7.77
671.955	39.77
672.077	20.77
672.199	40.77
672.322	20.77
672.444	16.77
672.566	17.77
672.688	29.77
672.81	24.77
672.932	17.77
673.055	-0.23
673.177	2.77
673.299	22.77
673.421	0.77
673.543	1.77
673.665	28.77
673.788	16.77
673.91	10.77
674.032	-0.23
674.154	28.77
674.276	28.77
674.399	1.77
674.521	16.77
674.643	23.77
674.765	16.77
674.887	31.77
675.009	0.77
675.132	13.77
675.254	13.77
675.376	11.77
675.498	23.77
675.62	22.77
675.743	12.77
675.865	28.77
675.987	-3.23
676.109	22.77
676.231	21.77
676.354	37.77
676.476	11.77
676.598	28.77
676.72	14.77
676.842	24.77
676.965	20.77
677.087	16.77
677.209	28.77
677.331	17.77
677.453	21.77
677.576	5.77
677.698	17.77
677.82	23.77
677.942	7.77
678.064	22.77
678.187	18.77
678.309	10.77
678.431	15.77
678.553	-10.23
678.675	24.77
678.798	17.77
678.92	8.77
679.042	22.77
679.164	5.77
679.286	22.77
679.409	2.77
679.531	-13.23
679.653	-2.23
679.775	4.77
679.898	-2.23
680.02	8.77
680.142	-1.23
680.264	6.77
680.386	-10.23
680.509	17.77
680.631	8.77
680.753	24.77
680.875	-3.23
680.998	28.77
681.12	12.77
681.242	9.77
681.364	-11.23
681.486	15.77
681.609	-9.23
681.731	-4.23
681.853	19.77
681.975	1.77
682.098	9.77
682.22	23.77
682.342	9.77
682.464	21.77
682.587	18.77
682.709	10.77
682.831	-5.23
682.953	8.77
683.076	8.77
683.198	24.77
683.32	18.77
683.442	25.77
683.565	31.77
683.687	4.77
683.809	4.77
683.931	1.77
684.054	27.77
684.176	11.77
684.298	19.77
684.42	19.77
684.543	7.77
684.665	5.77
684.787	-3.23
684.909	22.77
685.032	15.77
685.154	5.77
685.276	18.77
685.398	9.77
685.521	1.77
685.643	36.77
685.765	18.77
685.887	18.77
686.01	24.77
686.132	9.77
686.254	16.77
686.377	8.77
686.499	15.77
686.621	23.77
686.743	7.77
686.866	25.77
686.988	20.77
687.11	20.77
687.232	6.77
687.355	-2.23
687.477	10.77
687.599	33.77
687.722	5.77
687.844	15.77
687.966	4.77
688.088	5.77
688.211	33.77
688.333	24.77
688.455	19.77
688.578	39.77
688.7	29.77
688.822	24.77
688.944	1.77
689.067	40.77
689.189	3.77
689.311	-15.23
689.434	3.77
689.556	0.77
689.678	9.77
689.801	-1.23
689.923	24.77
690.045	33.77
690.167	26.77
690.29	20.77
690.412	31.77
690.534	43.77
690.657	11.77
690.779	3.77
690.901	17.77
691.024	18.77
691.146	9.77
691.268	1.77
691.391	23.77
691.513	9.77
691.635	22.77
691.758	19.77
691.88	24.77
692.002	20.77
692.125	18.77
692.247	10.77
692.369	12.77
692.492	-3.23
692.614	10.77
692.736	2.77
692.859	16.77
692.981	4.77
693.103	16.77
693.226	12.77
693.348	32.77
693.47	5.77
693.593	8.77
693.715	-13.23
693.837	-0.23
693.96	0.77
694.082	-3.23
694.204	26.77
694.327	11.77
694.449	-1.23
694.571	-4.23
694.694	10.77
694.816	10.77
694.938	1.77
695.061	4.77
695.183	17.77
695.305	0.77
695.428	19.77
695.55	-3.23
695.672	2.77
695.795	24.77
695.917	19.77
696.04	5.77
696.162	18.77
696.284	1.77
696.407	24.77
696.529	17.77
696.651	11.77
696.774	-5.23
696.896	38.77
697.019	12.77
697.141	27.77
697.263	16.77
697.386	6.77
697.508	22.77
697.63	17.77
697.753	19.77
697.875	-5.23
697.998	-6.23
698.12	16.77
698.242	4.77
698.365	22.77
698.487	14.77
698.61	15.77
698.732	21.77
698.854	19.77
698.977	12.77
699.099	22.77
699.221	14.77
699.344	26.77
699.466	4.77
699.589	0.77
699.711	-9.23
699.834	11.77
699.956	13.77
700.078	0.77
700.201	11.77
700.323	25.77
700.446	14.77
700.568	12.77
700.69	23.77
700.813	14.77
700.935	5.77
701.058	-9.23
701.18	8.77
701.302	13.77
701.425	-1.23
701.547	24.77
701.67	13.77
701.792	16.77
701.915	-5.23
702.037	3.77
702.159	3.77
702.282	15.77
702.404	1.77
702.527	-1.23
702.649	32.77
702.772	21.77
702.894	2.77
703.017	15.77
703.139	19.77
703.261	12.77
703.384	1.77
703.506	-7.23
703.629	-10.23
703.751	8.77
703.874	11.77
703.996	0.77
704.119	0.77
704.241	17.77
704.364	0.77
704.486	21.77
704.608	17.77
704.731	1.77
704.853	7.77
704.976	10.77
705.098	16.77
705.221	-10.23
705.343	4.77
705.466	24.77
705.588	25.77
705.711	-1.23
705.833	23.77
705.956	4.77
706.078	14.77
706.201	9.77
706.323	2.77
706.446	-6.23
