Data from LowRes_H2_15_26_11_07_2024_HR4C61881__31__15-28-16-737.txt Node

Date: Thu Nov 07 15:28:16 EST 2024
User: crc00042
Spectrometer: HR4C6188
Trigger mode: 4
Integration Time (sec): 1.000000E-1
Scans to average: 1
Electric dark correction enabled: true
Nonlinearity correction enabled: false
Boxcar width: 0
XAxis mode: Wavelengths
Number of Pixels in Spectrum: 3648
>>>>>Begin Spectral Data<<<<<
245.66	-123.85
245.797	-123.85
245.934	-123.85
246.071	-79.85
246.208	10.15
246.344	26.15
246.481	-12.85
246.618	-7.85
246.755	25.15
246.892	2.15
247.029	-1.85
247.165	-24.85
247.302	12.15
247.439	-11.85
247.576	17.15
247.713	-11.85
247.849	5.15
247.986	-16.85
248.123	-6.85
248.26	4.15
248.396	29.15
248.533	-16.85
248.67	-5.85
248.806	7.15
248.943	-14.85
249.08	-18.85
249.216	13.15
249.353	-17.85
249.49	-14.85
249.626	12.15
249.763	4.15
249.9	-15.85
250.036	-11.85
250.173	-9.85
250.309	-18.85
250.446	12.15
250.582	11.15
250.719	-21.85
250.856	-15.85
250.992	-5.85
251.129	-2.85
251.265	2.15
251.402	0.15
251.538	-7.85
251.675	-8.85
251.811	6.15
251.948	2.15
252.084	3.15
252.221	-4.85
252.357	-4.85
252.493	40.15
252.63	-1.85
252.766	16.15
252.903	-28.85
253.039	5.15
253.175	1.15
253.312	0.15
253.448	-7.85
253.585	-25.85
253.721	4.15
253.857	-8.85
253.994	23.15
254.13	4.15
254.266	-1.85
254.403	5.15
254.539	-4.85
254.675	-5.85
254.811	5.15
254.948	-14.85
255.084	-6.85
255.22	-4.85
255.356	-16.85
255.493	-6.85
255.629	2.15
255.765	18.15
255.901	5.15
256.037	13.15
256.174	-4.85
256.31	-15.85
256.446	-24.85
256.582	-15.85
256.718	9.15
256.854	3.15
256.991	6.15
257.127	20.15
257.263	4.15
257.399	-12.85
257.535	-11.85
257.671	-20.85
257.807	2.15
257.943	-20.85
258.079	-26.85
258.215	-7.85
258.351	14.15
258.487	-0.85
258.623	11.15
258.759	1.15
258.895	-5.85
259.031	0.15
259.167	-4.85
259.303	20.15
259.439	2.15
259.575	-3.85
259.711	-5.85
259.847	2.15
259.983	7.15
260.119	-2.85
260.255	-14.85
260.391	-13.85
260.527	7.15
260.663	16.15
260.799	9.15
260.934	-7.85
261.07	-18.85
261.206	-24.85
261.342	-29.85
261.478	17.15
261.614	-0.85
261.749	-2.85
261.885	-17.85
262.021	-14.85
262.157	13.15
262.293	-9.85
262.428	-13.85
262.564	-2.85
262.7	2.15
262.836	-3.85
262.971	32.15
263.107	5.15
263.243	0.15
263.378	-2.85
263.514	2.15
263.65	1.15
263.785	-28.85
263.921	6.15
264.057	-4.85
264.192	3.15
264.328	13.15
264.464	-13.85
264.599	10.15
264.735	16.15
264.871	-9.85
265.006	13.15
265.142	5.15
265.277	10.15
265.413	21.15
265.548	1.15
265.684	8.15
265.819	15.15
265.955	-7.85
266.091	-28.85
266.226	-16.85
266.362	-8.85
266.497	1.15
266.633	-9.85
266.768	-23.85
266.903	8.15
267.039	11.15
267.174	13.15
267.31	-11.85
267.445	-5.85
267.581	-16.85
267.716	7.15
267.851	15.15
267.987	0.15
268.122	22.15
268.258	6.15
268.393	-13.85
268.528	2.15
268.664	4.15
268.799	-4.85
268.934	-1.85
269.07	-3.85
269.205	-4.85
269.34	13.15
269.476	-1.85
269.611	-30.85
269.746	7.15
269.881	1.15
270.017	20.15
270.152	6.15
270.287	-8.85
270.422	15.15
270.558	3.15
270.693	12.15
270.828	-5.85
270.963	-7.85
271.098	-6.85
271.234	-8.85
271.369	15.15
271.504	1.15
271.639	-26.85
271.774	-0.85
271.909	-8.85
272.045	-23.85
272.18	1.15
272.315	-1.85
272.45	-2.85
272.585	1.15
272.72	-2.85
272.855	-6.85
272.99	5.15
273.125	-5.85
273.26	0.15
273.395	-2.85
273.53	-9.85
273.665	-7.85
273.8	-11.85
273.935	-13.85
274.07	-10.85
274.205	1.15
274.34	-11.85
274.475	11.15
274.61	24.15
274.745	-19.85
274.88	17.15
275.015	-15.85
275.15	-20.85
275.285	13.15
275.42	-5.85
275.555	23.15
275.69	-1.85
275.825	-16.85
275.959	8.15
276.094	-14.85
276.229	1.15
276.364	1.15
276.499	-13.85
276.634	-0.85
276.768	-2.85
276.903	4.15
277.038	21.15
277.173	-7.85
277.308	-12.85
277.442	0.15
277.577	-8.85
277.712	-11.85
277.847	5.15
277.981	24.15
278.116	-7.85
278.251	-1.85
278.386	0.15
278.52	23.15
278.655	4.15
278.79	7.15
278.924	-1.85
279.059	7.15
279.194	-2.85
279.328	25.15
279.463	-5.85
279.598	8.15
279.732	9.15
279.867	-1.85
280.001	1.15
280.136	-11.85
280.271	6.15
280.405	1.15
280.54	3.15
280.674	-18.85
280.809	18.15
280.943	-3.85
281.078	-4.85
281.213	2.15
281.347	3.15
281.482	4.15
281.616	6.15
281.751	-6.85
281.885	-2.85
282.02	-7.85
282.154	-6.85
282.288	-24.85
282.423	-19.85
282.557	-16.85
282.692	2.15
282.826	-2.85
282.961	4.15
283.095	-17.85
283.229	-12.85
283.364	-3.85
283.498	-1.85
283.633	-2.85
283.767	10.15
283.901	-11.85
284.036	5.15
284.17	-5.85
284.304	-3.85
284.439	3.15
284.573	0.15
284.707	14.15
284.842	-12.85
284.976	-4.85
285.11	-7.85
285.244	-4.85
285.379	32.15
285.513	2.15
285.647	8.15
285.781	4.15
285.916	16.15
286.05	-1.85
286.184	6.15
286.318	-2.85
286.453	-14.85
286.587	-21.85
286.721	-23.85
286.855	-5.85
286.989	11.15
287.123	-3.85
287.258	-6.85
287.392	5.15
287.526	-18.85
287.66	12.15
287.794	6.15
287.928	0.15
288.062	0.15
288.196	-9.85
288.33	4.15
288.464	14.15
288.598	23.15
288.733	3.15
288.867	18.15
289.001	-0.85
289.135	24.15
289.269	-24.85
289.403	3.15
289.537	-11.85
289.671	-14.85
289.805	-11.85
289.939	0.15
290.073	-18.85
290.207	9.15
290.34	-12.85
290.474	2.15
290.608	5.15
290.742	3.15
290.876	-12.85
291.01	-7.85
291.144	22.15
291.278	22.15
291.412	11.15
291.546	-10.85
291.679	-14.85
291.813	-2.85
291.947	14.15
292.081	-2.85
292.215	-5.85
292.349	8.15
292.482	10.15
292.616	-4.85
292.75	-15.85
292.884	0.15
293.018	-7.85
293.151	-21.85
293.285	-7.85
293.419	-23.85
293.553	-2.85
293.686	-9.85
293.82	-6.85
293.954	18.15
294.088	7.15
294.221	-17.85
294.355	-13.85
294.489	0.15
294.622	-18.85
294.756	-17.85
294.89	-13.85
295.023	3.15
295.157	12.15
295.291	3.15
295.424	21.15
295.558	11.15
295.691	-0.85
295.825	-4.85
295.959	-1.85
296.092	-11.85
296.226	-8.85
296.359	-2.85
296.493	6.15
296.627	-2.85
296.76	-2.85
296.894	-11.85
297.027	1.15
297.161	-6.85
297.294	-6.85
297.428	1.15
297.561	21.15
297.695	-16.85
297.828	4.15
297.962	-4.85
298.095	-2.85
298.229	-9.85
298.362	-23.85
298.495	-19.85
298.629	-9.85
298.762	3.15
298.896	-12.85
299.029	-0.85
299.162	5.15
299.296	3.15
299.429	-7.85
299.563	-2.85
299.696	13.15
299.829	-2.85
299.963	11.15
300.096	15.15
300.229	9.15
300.363	0.15
300.496	-27.85
300.629	-29.85
300.763	-7.85
300.896	4.15
301.029	1.15
301.162	-0.85
301.296	-27.85
301.429	1.15
301.562	-21.85
301.695	6.15
301.829	-4.85
301.962	1.15
302.095	-16.85
302.228	-4.85
302.362	1.15
302.495	-15.85
302.628	-22.85
302.761	0.15
302.894	9.15
303.027	6.15
303.161	-12.85
303.294	-1.85
303.427	19.15
303.56	-7.85
303.693	7.15
303.826	18.15
303.959	-10.85
304.092	-5.85
304.225	-15.85
304.359	31.15
304.492	-5.85
304.625	-15.85
304.758	-1.85
304.891	-13.85
305.024	4.15
305.157	-12.85
305.29	-16.85
305.423	7.15
305.556	10.15
305.689	22.15
305.822	-16.85
305.955	-11.85
306.088	-10.85
306.221	-4.85
306.354	-30.85
306.487	-4.85
306.62	-24.85
306.752	-6.85
306.885	-12.85
307.018	-11.85
307.151	-2.85
307.284	3.15
307.417	-19.85
307.55	2.15
307.683	-17.85
307.816	16.15
307.948	12.15
308.081	22.15
308.214	6.15
308.347	21.15
308.48	-8.85
308.613	-11.85
308.745	10.15
308.878	-15.85
309.011	-8.85
309.144	-0.85
309.277	-24.85
309.409	-5.85
309.542	-9.85
309.675	11.15
309.808	5.15
309.94	16.15
310.073	-14.85
310.206	-17.85
310.339	7.15
310.471	-14.85
310.604	9.15
310.737	-11.85
310.869	-11.85
311.002	4.15
311.135	-25.85
311.267	-26.85
311.4	6.15
311.533	14.15
311.665	-7.85
311.798	14.15
311.93	3.15
312.063	4.15
312.196	6.15
312.328	-6.85
312.461	-10.85
312.593	-5.85
312.726	1.15
312.859	4.15
312.991	9.15
313.124	-28.85
313.256	14.15
313.389	-1.85
313.521	-10.85
313.654	0.15
313.786	-24.85
313.919	-3.85
314.051	5.15
314.184	13.15
314.316	-0.85
314.449	-30.85
314.581	-13.85
314.714	-11.85
314.846	-9.85
314.978	-19.85
315.111	-11.85
315.243	-5.85
315.376	11.15
315.508	10.15
315.641	0.15
315.773	22.15
315.905	1.15
316.038	6.15
316.17	-7.85
316.302	-14.85
316.435	-1.85
316.567	1.15
316.699	23.15
316.832	-7.85
316.964	-5.85
317.096	-16.85
317.229	-17.85
317.361	-32.85
317.493	1.15
317.625	-3.85
317.758	-6.85
317.89	8.15
318.022	0.15
318.155	-8.85
318.287	2.15
318.419	-21.85
318.551	-1.85
318.683	8.15
318.816	4.15
318.948	-18.85
319.08	-4.85
319.212	-11.85
319.344	4.15
319.477	4.15
319.609	-1.85
319.741	7.15
319.873	-19.85
320.005	1.15
320.137	-9.85
320.269	0.15
320.401	-4.85
320.534	-9.85
320.666	-14.85
320.798	-13.85
320.93	1.15
321.062	-26.85
321.194	-15.85
321.326	-14.85
321.458	0.15
321.59	-25.85
321.722	-13.85
321.854	-3.85
321.986	6.15
322.118	-6.85
322.25	-29.85
322.382	-0.85
322.514	-10.85
322.646	-23.85
322.778	-2.85
322.91	3.15
323.042	11.15
323.174	2.15
323.306	-16.85
323.438	-18.85
323.57	1.15
323.702	1.15
323.834	4.15
323.966	-19.85
324.097	0.15
324.229	15.15
324.361	16.15
324.493	0.15
324.625	-12.85
324.757	-12.85
324.889	2.15
325.021	-2.85
325.152	21.15
325.284	10.15
325.416	-14.85
325.548	21.15
325.68	17.15
325.811	14.15
325.943	3.15
326.075	2.15
326.207	-2.85
326.339	7.15
326.47	5.15
326.602	14.15
326.734	12.15
326.866	16.15
326.997	-11.85
327.129	6.15
327.261	-14.85
327.392	4.15
327.524	1.15
327.656	-2.85
327.787	4.15
327.919	11.15
328.051	-1.85
328.182	28.15
328.314	29.15
328.446	10.15
328.577	10.15
328.709	1.15
328.841	-17.85
328.972	12.15
329.104	-13.85
329.235	-14.85
329.367	-20.85
329.499	-13.85
329.63	-7.85
329.762	-4.85
329.893	13.15
330.025	7.15
330.156	0.15
330.288	4.15
330.419	18.15
330.551	-2.85
330.683	6.15
330.814	7.15
330.946	21.15
331.077	-9.85
331.208	11.15
331.34	-0.85
331.471	-9.85
331.603	7.15
331.734	-29.85
331.866	1.15
331.997	-10.85
332.129	-3.85
332.26	-2.85
332.392	16.15
332.523	1.15
332.654	2.15
332.786	-12.85
332.917	-27.85
333.048	-2.85
333.18	7.15
333.311	-4.85
333.443	-9.85
333.574	-17.85
333.705	3.15
333.837	-15.85
333.968	8.15
334.099	16.15
334.231	3.15
334.362	-2.85
334.493	11.15
334.624	14.15
334.756	9.15
334.887	13.15
335.018	4.15
335.15	17.15
335.281	7.15
335.412	28.15
335.543	0.15
335.675	-1.85
335.806	6.15
335.937	-1.85
336.068	1.15
336.199	29.15
336.331	2.15
336.462	-3.85
336.593	15.15
336.724	-15.85
336.855	12.15
336.986	8.15
337.118	-0.85
337.249	-9.85
337.38	-7.85
337.511	-1.85
337.642	11.15
337.773	-7.85
337.904	16.15
338.035	11.15
338.166	-4.85
338.298	-7.85
338.429	-5.85
338.56	-7.85
338.691	-1.85
338.822	0.15
338.953	-0.85
339.084	3.15
339.215	8.15
339.346	7.15
339.477	-5.85
339.608	-1.85
339.739	2.15
339.87	-7.85
340.001	-10.85
340.132	14.15
340.263	7.15
340.394	1.15
340.525	7.15
340.656	-20.85
340.787	-7.85
340.918	32.15
341.049	9.15
341.179	0.15
341.31	2.15
341.441	-3.85
341.572	19.15
341.703	-18.85
341.834	-22.85
341.965	15.15
342.096	18.15
342.227	8.15
342.357	-1.85
342.488	-9.85
342.619	5.15
342.75	7.15
342.881	-1.85
343.012	10.15
343.142	5.15
343.273	-11.85
343.404	14.15
343.535	23.15
343.666	33.15
343.796	18.15
343.927	15.15
344.058	8.15
344.189	13.15
344.319	16.15
344.45	-11.85
344.581	6.15
344.712	-13.85
344.842	9.15
344.973	-8.85
345.104	-1.85
345.234	-8.85
345.365	-13.85
345.496	6.15
345.626	-1.85
345.757	0.15
345.888	-12.85
346.018	-1.85
346.149	3.15
346.28	15.15
346.41	-2.85
346.541	-7.85
346.672	-19.85
346.802	20.15
346.933	2.15
347.063	1.15
347.194	-8.85
347.325	-17.85
347.455	7.15
347.586	-3.85
347.716	-19.85
347.847	7.15
347.977	2.15
348.108	14.15
348.238	7.15
348.369	6.15
348.499	2.15
348.63	-4.85
348.76	1.15
348.891	7.15
349.021	3.15
349.152	7.15
349.282	-21.85
349.413	-15.85
349.543	5.15
349.674	-9.85
349.804	20.15
349.935	-6.85
350.065	-15.85
350.196	-26.85
350.326	5.15
350.456	-2.85
350.587	19.15
350.717	-1.85
350.848	-7.85
350.978	15.15
351.108	-18.85
351.239	10.15
351.369	-11.85
351.499	-9.85
351.63	23.15
351.76	17.15
351.89	-7.85
352.021	-3.85
352.151	4.15
352.281	11.15
352.412	4.15
352.542	2.15
352.672	-17.85
352.803	-6.85
352.933	-6.85
353.063	6.15
353.193	2.15
353.324	-5.85
353.454	12.15
353.584	14.15
353.714	-16.85
353.845	-2.85
353.975	-3.85
354.105	8.15
354.235	4.15
354.365	0.15
354.496	6.15
354.626	19.15
354.756	2.15
354.886	0.15
355.016	-13.85
355.146	-12.85
355.277	16.15
355.407	10.15
355.537	-0.85
355.667	3.15
355.797	-0.85
355.927	-2.85
356.057	11.15
356.187	4.15
356.318	-13.85
356.448	-0.85
356.578	7.15
356.708	-9.85
356.838	7.15
356.968	-6.85
357.098	6.15
357.228	1.15
357.358	-2.85
357.488	-23.85
357.618	16.15
357.748	34.15
357.878	3.15
358.008	4.15
358.138	-2.85
358.268	-4.85
358.398	17.15
358.528	-0.85
358.658	12.15
358.788	8.15
358.918	0.15
359.048	0.15
359.178	14.15
359.308	13.15
359.438	17.15
359.568	15.15
359.698	3.15
359.827	5.15
359.957	-17.85
360.087	-1.85
360.217	-4.85
360.347	4.15
360.477	19.15
360.607	7.15
360.737	22.15
360.866	-7.85
360.996	-12.85
361.126	-2.85
361.256	12.15
361.386	12.15
361.516	2.15
361.645	-10.85
361.775	7.15
361.905	-18.85
362.035	-0.85
362.165	3.15
362.294	5.15
362.424	16.15
362.554	22.15
362.684	-7.85
362.813	1.15
362.943	12.15
363.073	-21.85
363.203	-10.85
363.332	-6.85
363.462	-16.85
363.592	-5.85
363.721	12.15
363.851	-5.85
363.981	1.15
364.111	-12.85
364.24	-11.85
364.37	7.15
364.5	7.15
364.629	4.15
364.759	-20.85
364.888	-24.85
365.018	-1.85
365.148	-3.85
365.277	18.15
365.407	20.15
365.537	11.15
365.666	4.15
365.796	-13.85
365.925	-11.85
366.055	-7.85
366.184	-15.85
366.314	-9.85
366.444	16.15
366.573	-4.85
366.703	-4.85
366.832	3.15
366.962	7.15
367.091	5.15
367.221	2.15
367.35	18.15
367.48	29.15
367.609	12.15
367.739	9.15
367.868	-11.85
367.998	-6.85
368.127	23.15
368.257	10.15
368.386	1.15
368.516	0.15
368.645	19.15
368.775	13.15
368.904	3.15
369.033	-0.85
369.163	-16.85
369.292	16.15
369.422	17.15
369.551	25.15
369.68	-0.85
369.81	13.15
369.939	-7.85
370.069	20.15
370.198	-6.85
370.327	-16.85
370.457	-2.85
370.586	1.15
370.715	9.15
370.845	-9.85
370.974	-6.85
371.103	22.15
371.233	29.15
371.362	-1.85
371.491	0.15
371.621	11.15
371.75	5.15
371.879	-29.85
372.008	-1.85
372.138	9.15
372.267	23.15
372.396	4.15
372.525	-2.85
372.655	-5.85
372.784	-16.85
372.913	-8.85
373.042	18.15
373.172	13.15
373.301	-24.85
373.43	-15.85
373.559	16.15
373.688	29.15
373.818	16.15
373.947	9.15
374.076	-6.85
374.205	2.15
374.334	7.15
374.463	-15.85
374.593	-2.85
374.722	8.15
374.851	18.15
374.98	-13.85
375.109	-10.85
375.238	2.15
375.367	15.15
375.496	-29.85
375.625	-3.85
375.755	30.15
375.884	28.15
376.013	10.15
376.142	-14.85
376.271	4.15
376.4	19.15
376.529	9.15
376.658	7.15
376.787	-0.85
376.916	6.15
377.045	0.15
377.174	-17.85
377.303	-15.85
377.432	23.15
377.561	18.15
377.69	-5.85
377.819	27.15
377.948	-11.85
378.077	0.15
378.206	-4.85
378.335	-9.85
378.464	-5.85
378.593	20.15
378.722	-3.85
378.851	-5.85
378.98	28.15
379.108	-0.85
379.237	-12.85
379.366	10.15
379.495	13.15
379.624	23.15
379.753	21.15
379.882	2.15
380.011	6.15
380.14	-16.85
380.268	-1.85
380.397	-17.85
380.526	21.15
380.655	-13.85
380.784	-25.85
380.913	-27.85
381.041	-8.85
381.17	-22.85
381.299	-6.85
381.428	-0.85
381.557	2.15
381.685	1.15
381.814	2.15
381.943	12.15
382.072	-6.85
382.2	-8.85
382.329	18.15
382.458	7.15
382.587	1.15
382.715	11.15
382.844	17.15
382.973	0.15
383.102	6.15
383.23	-21.85
383.359	-23.85
383.488	8.15
383.616	1.15
383.745	-22.85
383.874	-22.85
384.003	-5.85
384.131	1.15
384.26	-10.85
384.389	6.15
384.517	-26.85
384.646	-6.85
384.774	1.15
384.903	16.15
385.032	12.15
385.16	-7.85
385.289	-9.85
385.418	-4.85
385.546	2.15
385.675	33.15
385.803	4.15
385.932	2.15
386.06	-10.85
386.189	-13.85
386.318	-0.85
386.446	-3.85
386.575	3.15
386.703	6.15
386.832	7.15
386.96	-25.85
387.089	26.15
387.217	12.15
387.346	11.15
387.474	-4.85
387.603	13.15
387.731	7.15
387.86	10.15
387.988	4.15
388.117	-3.85
388.245	3.15
388.374	-9.85
388.502	14.15
388.631	-10.85
388.759	-1.85
388.888	9.15
389.016	2.15
389.144	6.15
389.273	-1.85
389.401	11.15
389.53	-5.85
389.658	-2.85
389.786	-1.85
389.915	-15.85
390.043	-11.85
390.172	-0.85
390.3	16.15
390.428	2.15
390.557	-10.85
390.685	-3.85
390.813	2.15
390.942	-13.85
391.07	-11.85
391.198	13.15
391.327	-1.85
391.455	-8.85
391.583	16.15
391.712	1.15
391.84	14.15
391.968	-2.85
392.096	-13.85
392.225	-14.85
392.353	13.15
392.481	-0.85
392.609	-3.85
392.738	7.15
392.866	4.15
392.994	-1.85
393.122	29.15
393.251	-9.85
393.379	-16.85
393.507	-18.85
393.635	8.15
393.764	-5.85
393.892	25.15
394.02	0.15
394.148	-17.85
394.276	9.15
394.404	39.15
394.533	-1.85
394.661	-3.85
394.789	30.15
394.917	18.15
395.045	-0.85
395.173	-21.85
395.302	-20.85
395.43	-3.85
395.558	11.15
395.686	16.15
395.814	10.15
395.942	1.15
396.07	-0.85
396.198	-8.85
396.326	-6.85
396.454	16.15
396.582	26.15
396.711	-1.85
396.839	5.15
396.967	-1.85
397.095	8.15
397.223	25.15
397.351	42.15
397.479	22.15
397.607	5.15
397.735	25.15
397.863	7.15
397.991	-2.85
398.119	-11.85
398.247	4.15
398.375	-11.85
398.503	-6.85
398.631	11.15
398.759	22.15
398.887	18.15
399.015	-0.85
399.143	7.15
399.271	14.15
399.399	11.15
399.526	4.15
399.654	25.15
399.782	-3.85
399.91	5.15
400.038	22.15
400.166	-4.85
400.294	11.15
400.422	-8.85
400.55	-3.85
400.678	-2.85
400.805	24.15
400.933	10.15
401.061	8.15
401.189	-21.85
401.317	10.15
401.445	23.15
401.573	13.15
401.7	-4.85
401.828	0.15
401.956	5.15
402.084	11.15
402.212	1.15
402.34	9.15
402.467	-8.85
402.595	12.15
402.723	-14.85
402.851	18.15
402.978	0.15
403.106	4.15
403.234	-11.85
403.362	6.15
403.489	20.15
403.617	1.15
403.745	15.15
403.873	-5.85
404	7.15
404.128	4.15
404.256	7.15
404.384	11.15
404.511	21.15
404.639	-24.85
404.767	-18.85
404.894	11.15
405.022	-0.85
405.15	19.15
405.277	-2.85
405.405	-5.85
405.533	-7.85
405.66	-14.85
405.788	-43.85
405.916	-17.85
406.043	-10.85
406.171	-13.85
406.299	21.15
406.426	29.15
406.554	17.15
406.681	23.15
406.809	3.15
406.937	9.15
407.064	-24.85
407.192	4.15
407.319	3.15
407.447	-0.85
407.574	29.15
407.702	9.15
407.83	-8.85
407.957	-11.85
408.085	-16.85
408.212	-7.85
408.34	-3.85
408.467	6.15
408.595	6.15
408.722	1.15
408.85	10.15
408.977	6.15
409.105	17.15
409.232	-1.85
409.36	1.15
409.487	-2.85
409.615	7.15
409.742	46.15
409.87	31.15
409.997	37.15
410.125	50.15
410.252	50.15
410.379	37.15
410.507	30.15
410.634	13.15
410.762	-12.85
410.889	5.15
411.017	0.15
411.144	-1.85
411.271	-15.85
411.399	-0.85
411.526	5.15
411.653	10.15
411.781	24.15
411.908	-11.85
412.036	-14.85
412.163	26.15
412.29	31.15
412.418	17.15
412.545	10.15
412.672	10.15
412.8	38.15
412.927	19.15
413.054	16.15
413.182	11.15
413.309	6.15
413.436	-16.85
413.564	7.15
413.691	-20.85
413.818	15.15
413.945	-0.85
414.073	0.15
414.2	-6.85
414.327	1.15
414.454	4.15
414.582	8.15
414.709	-2.85
414.836	4.15
414.963	5.15
415.091	6.15
415.218	-10.85
415.345	2.15
415.472	9.15
415.6	-6.85
415.727	-5.85
415.854	-3.85
415.981	4.15
416.108	0.15
416.236	-6.85
416.363	22.15
416.49	12.15
416.617	12.15
416.744	16.15
416.871	27.15
416.998	6.15
417.126	-6.85
417.253	0.15
417.38	8.15
417.507	20.15
417.634	15.15
417.761	17.15
417.888	2.15
418.015	17.15
418.143	11.15
418.27	5.15
418.397	8.15
418.524	8.15
418.651	-7.85
418.778	-1.85
418.905	31.15
419.032	16.15
419.159	9.15
419.286	33.15
419.413	21.15
419.54	12.15
419.667	-0.85
419.794	-0.85
419.921	5.15
420.048	6.15
420.175	22.15
420.302	7.15
420.429	1.15
420.556	12.15
420.683	-4.85
420.81	-2.85
420.937	1.15
421.064	1.15
421.191	-4.85
421.318	14.15
421.445	17.15
421.572	14.15
421.699	26.15
421.826	17.15
421.953	-7.85
422.08	0.15
422.207	2.15
422.334	-11.85
422.461	13.15
422.588	1.15
422.714	23.15
422.841	17.15
422.968	15.15
423.095	1.15
423.222	0.15
423.349	15.15
423.476	7.15
423.603	-0.85
423.729	-1.85
423.856	-2.85
423.983	19.15
424.11	-0.85
424.237	13.15
424.364	13.15
424.491	17.15
424.617	-0.85
424.744	-8.85
424.871	13.15
424.998	1.15
425.125	-1.85
425.251	-6.85
425.378	-12.85
425.505	-5.85
425.632	5.15
425.758	-17.85
425.885	18.15
426.012	15.15
426.139	16.15
426.266	5.15
426.392	3.15
426.519	11.15
426.646	-5.85
426.772	24.15
426.899	14.15
427.026	2.15
427.153	8.15
427.279	10.15
427.406	15.15
427.533	12.15
427.659	6.15
427.786	-12.85
427.913	22.15
428.039	1.15
428.166	3.15
428.293	-1.85
428.419	26.15
428.546	7.15
428.673	4.15
428.799	-7.85
428.926	7.15
429.053	36.15
429.179	19.15
429.306	13.15
429.433	9.15
429.559	-2.85
429.686	1.15
429.812	-10.85
429.939	-14.85
430.066	-0.85
430.192	4.15
430.319	15.15
430.445	6.15
430.572	-7.85
430.699	-4.85
430.825	4.15
430.952	0.15
431.078	-1.85
431.205	1.15
431.331	18.15
431.458	25.15
431.584	23.15
431.711	23.15
431.837	6.15
431.964	10.15
432.09	-3.85
432.217	-15.85
432.343	6.15
432.47	19.15
432.596	3.15
432.723	-2.85
432.849	10.15
432.976	20.15
433.102	-11.85
433.229	0.15
433.355	36.15
433.482	72.15
433.608	146.15
433.735	147.15
433.861	133.15
433.987	129.15
434.114	199.15
434.24	189.15
434.367	78.15
434.493	4.15
434.62	22.15
434.746	25.15
434.872	10.15
434.999	15.15
435.125	1.15
435.252	-18.85
435.378	11.15
435.504	17.15
435.631	-8.85
435.757	6.15
435.883	4.15
436.01	4.15
436.136	10.15
436.262	6.15
436.389	4.15
436.515	-6.85
436.641	8.15
436.768	11.15
436.894	5.15
437.02	16.15
437.147	29.15
437.273	20.15
437.399	5.15
437.526	19.15
437.652	9.15
437.778	3.15
437.904	-22.85
438.031	0.15
438.157	7.15
438.283	25.15
438.409	-9.85
438.536	-7.85
438.662	-1.85
438.788	18.15
438.914	7.15
439.041	22.15
439.167	32.15
439.293	7.15
439.419	7.15
439.546	14.15
439.672	-6.85
439.798	2.15
439.924	23.15
440.05	9.15
440.177	37.15
440.303	11.15
440.429	-5.85
440.555	4.15
440.681	-3.85
440.807	34.15
440.934	21.15
441.06	19.15
441.186	-5.85
441.312	0.15
441.438	18.15
441.564	11.15
441.69	6.15
441.816	8.15
441.943	5.15
442.069	8.15
442.195	13.15
442.321	17.15
442.447	-5.85
442.573	5.15
442.699	-7.85
442.825	-8.85
442.951	23.15
443.077	23.15
443.203	33.15
443.33	7.15
443.456	-11.85
443.582	17.15
443.708	7.15
443.834	3.15
443.96	26.15
444.086	13.15
444.212	24.15
444.338	23.15
444.464	26.15
444.59	14.15
444.716	15.15
444.842	-1.85
444.968	-12.85
445.094	2.15
445.22	-7.85
445.346	-13.85
445.472	24.15
445.598	6.15
445.724	-3.85
445.85	-4.85
445.976	10.15
446.102	7.15
446.228	-4.85
446.354	6.15
446.48	4.15
446.605	3.15
446.731	-6.85
446.857	-2.85
446.983	9.15
447.109	6.15
447.235	-0.85
447.361	-2.85
447.487	-0.85
447.613	15.15
447.739	-3.85
447.865	0.15
447.99	12.15
448.116	8.15
448.242	7.15
448.368	4.15
448.494	10.15
448.62	19.15
448.746	-10.85
448.872	5.15
448.997	-0.85
449.123	0.15
449.249	42.15
449.375	15.15
449.501	-3.85
449.627	-5.85
449.752	12.15
449.878	-6.85
450.004	-4.85
450.13	11.15
450.256	2.15
450.381	-1.85
450.507	-7.85
450.633	24.15
450.759	12.15
450.884	7.15
451.01	23.15
451.136	13.15
451.262	8.15
451.388	1.15
451.513	-13.85
451.639	30.15
451.765	6.15
451.89	23.15
452.016	22.15
452.142	25.15
452.268	4.15
452.393	-3.85
452.519	-0.85
452.645	10.15
452.771	-2.85
452.896	3.15
453.022	-0.85
453.148	22.15
453.273	8.15
453.399	9.15
453.525	4.15
453.65	-4.85
453.776	31.15
453.902	14.15
454.027	15.15
454.153	7.15
454.279	32.15
454.404	5.15
454.53	22.15
454.656	25.15
454.781	9.15
454.907	-8.85
455.032	0.15
455.158	24.15
455.284	22.15
455.409	8.15
455.535	12.15
455.66	13.15
455.786	6.15
455.912	-10.85
456.037	3.15
456.163	3.15
456.288	9.15
456.414	-3.85
456.539	-13.85
456.665	-6.85
456.791	-5.85
456.916	12.15
457.042	10.15
457.167	-14.85
457.293	18.15
457.418	-3.85
457.544	6.15
457.669	8.15
457.795	-3.85
457.92	-0.85
458.046	23.15
458.171	24.15
458.297	15.15
458.422	10.15
458.548	-3.85
458.673	16.15
458.799	15.15
458.924	-8.85
459.05	2.15
459.175	19.15
459.301	2.15
459.426	11.15
459.552	22.15
459.677	7.15
459.803	14.15
459.928	18.15
460.053	10.15
460.179	0.15
460.304	4.15
460.43	-5.85
460.555	-2.85
460.681	-12.85
460.806	-6.85
460.931	-0.85
461.057	17.15
461.182	1.15
461.308	15.15
461.433	10.15
461.558	11.15
461.684	34.15
461.809	34.15
461.934	4.15
462.06	20.15
462.185	-5.85
462.311	-7.85
462.436	4.15
462.561	8.15
462.687	-1.85
462.812	28.15
462.937	-24.85
463.063	0.15
463.188	0.15
463.313	13.15
463.439	4.15
463.564	-15.85
463.689	8.15
463.814	11.15
463.94	-1.85
464.065	25.15
464.19	8.15
464.316	6.15
464.441	3.15
464.566	-2.85
464.692	11.15
464.817	21.15
464.942	4.15
465.067	5.15
465.193	-16.85
465.318	2.15
465.443	3.15
465.568	-0.85
465.694	1.15
465.819	-0.85
465.944	-1.85
466.069	1.15
466.194	22.15
466.32	13.15
466.445	-6.85
466.57	-13.85
466.695	-14.85
466.82	10.15
466.946	18.15
467.071	21.15
467.196	0.15
467.321	-6.85
467.446	-4.85
467.572	18.15
467.697	-19.85
467.822	14.15
467.947	-4.85
468.072	-9.85
468.197	-11.85
468.323	-13.85
468.448	1.15
468.573	-15.85
468.698	-0.85
468.823	6.15
468.948	6.15
469.073	15.15
469.198	41.15
469.324	32.15
469.449	-5.85
469.574	25.15
469.699	14.15
469.824	11.15
469.949	10.15
470.074	7.15
470.199	42.15
470.324	22.15
470.449	1.15
470.574	17.15
470.7	9.15
470.825	0.15
470.95	27.15
471.075	14.15
471.2	0.15
471.325	30.15
471.45	11.15
471.575	-27.85
471.7	2.15
471.825	2.15
471.95	-9.85
472.075	-5.85
472.2	-11.85
472.325	0.15
472.45	-14.85
472.575	10.15
472.7	2.15
472.825	-1.85
472.95	23.15
473.075	10.15
473.2	-8.85
473.325	13.15
473.45	21.15
473.575	0.15
473.7	11.15
473.825	-9.85
473.95	8.15
474.075	13.15
474.2	6.15
474.325	13.15
474.45	37.15
474.574	29.15
474.699	16.15
474.824	22.15
474.949	10.15
475.074	1.15
475.199	27.15
475.324	17.15
475.449	2.15
475.574	22.15
475.699	14.15
475.824	13.15
475.949	16.15
476.073	-10.85
476.198	7.15
476.323	16.15
476.448	6.15
476.573	-4.85
476.698	4.15
476.823	4.15
476.947	-16.85
477.072	10.15
477.197	9.15
477.322	11.15
477.447	8.15
477.572	-0.85
477.697	6.15
477.821	9.15
477.946	24.15
478.071	19.15
478.196	9.15
478.321	22.15
478.445	0.15
478.57	-27.85
478.695	1.15
478.82	26.15
478.945	13.15
479.069	9.15
479.194	20.15
479.319	15.15
479.444	20.15
479.569	0.15
479.693	32.15
479.818	14.15
479.943	38.15
480.068	0.15
480.192	22.15
480.317	23.15
480.442	13.15
480.567	1.15
480.691	-4.85
480.816	7.15
480.941	2.15
481.066	10.15
481.19	15.15
481.315	14.15
481.44	4.15
481.564	-0.85
481.689	13.15
481.814	29.15
481.938	13.15
482.063	27.15
482.188	30.15
482.313	42.15
482.437	13.15
482.562	36.15
482.687	31.15
482.811	24.15
482.936	16.15
483.061	25.15
483.185	36.15
483.31	36.15
483.435	31.15
483.559	14.15
483.684	19.15
483.808	32.15
483.933	1.15
484.058	17.15
484.182	14.15
484.307	14.15
484.432	6.15
484.556	12.15
484.681	13.15
484.805	21.15
484.93	13.15
485.055	31.15
485.179	79.15
485.304	117.15
485.428	349.15
485.553	1229.15
485.678	1700.15
485.802	1639.15
485.927	1785.15
486.051	2630.15
486.176	1616.15
486.3	454.15
486.425	146.15
486.549	82.15
486.674	62.15
486.799	34.15
486.923	21.15
487.048	22.15
487.172	10.15
487.297	16.15
487.421	24.15
487.546	20.15
487.67	37.15
487.795	15.15
487.919	12.15
488.044	20.15
488.168	26.15
488.293	9.15
488.417	6.15
488.542	22.15
488.666	21.15
488.791	9.15
488.915	18.15
489.04	30.15
489.164	25.15
489.289	22.15
489.413	12.15
489.538	30.15
489.662	31.15
489.786	4.15
489.911	0.15
490.035	3.15
490.16	2.15
490.284	17.15
490.409	-11.85
490.533	14.15
490.658	28.15
490.782	7.15
490.906	23.15
491.031	17.15
491.155	13.15
491.28	25.15
491.404	9.15
491.528	34.15
491.653	15.15
491.777	19.15
491.902	3.15
492.026	16.15
492.15	17.15
492.275	26.15
492.399	3.15
492.524	5.15
492.648	40.15
492.772	4.15
492.897	20.15
493.021	3.15
493.145	24.15
493.27	13.15
493.394	3.15
493.518	4.15
493.643	-17.85
493.767	21.15
493.891	0.15
494.016	10.15
494.14	13.15
494.264	23.15
494.389	12.15
494.513	10.15
494.637	-4.85
494.762	10.15
494.886	1.15
495.01	16.15
495.134	16.15
495.259	8.15
495.383	-0.85
495.507	0.15
495.632	10.15
495.756	24.15
495.88	10.15
496.004	10.15
496.129	-8.85
496.253	24.15
496.377	25.15
496.501	26.15
496.626	2.15
496.75	2.15
496.874	25.15
496.998	-2.85
497.123	29.15
497.247	-4.85
497.371	1.15
497.495	15.15
497.62	29.15
497.744	-1.85
497.868	2.15
497.992	-0.85
498.116	5.15
498.241	17.15
498.365	-3.85
498.489	14.15
498.613	39.15
498.737	17.15
498.862	-6.85
498.986	-12.85
499.11	8.15
499.234	16.15
499.358	10.15
499.482	8.15
499.607	15.15
499.731	21.15
499.855	23.15
499.979	0.15
500.103	3.15
500.227	14.15
500.351	10.15
500.476	-5.85
500.6	7.15
500.724	19.15
500.848	-11.85
500.972	21.15
501.096	28.15
501.22	19.15
501.344	-8.85
501.469	5.15
501.593	7.15
501.717	11.15
501.841	3.15
501.965	13.15
502.089	-4.85
502.213	6.15
502.337	5.15
502.461	3.15
502.585	6.15
502.709	-0.85
502.834	5.15
502.958	28.15
503.082	12.15
503.206	4.15
503.33	24.15
503.454	4.15
503.578	23.15
503.702	18.15
503.826	15.15
503.95	22.15
504.074	-6.85
504.198	-1.85
504.322	1.15
504.446	13.15
504.57	21.15
504.694	15.15
504.818	24.15
504.942	22.15
505.066	5.15
505.19	10.15
505.314	0.15
505.438	20.15
505.562	3.15
505.686	22.15
505.81	-7.85
505.934	29.15
506.058	0.15
506.182	11.15
506.306	10.15
506.43	-2.85
506.554	9.15
506.678	1.15
506.802	14.15
506.926	17.15
507.05	17.15
507.174	13.15
507.298	7.15
507.422	2.15
507.546	8.15
507.67	23.15
507.794	5.15
507.918	13.15
508.042	2.15
508.165	-10.85
508.289	-18.85
508.413	12.15
508.537	0.15
508.661	5.15
508.785	11.15
508.909	0.15
509.033	6.15
509.157	4.15
509.281	20.15
509.405	12.15
509.528	37.15
509.652	22.15
509.776	5.15
509.9	39.15
510.024	14.15
510.148	10.15
510.272	-1.85
510.396	18.15
510.519	3.15
510.643	19.15
510.767	11.15
510.891	9.15
511.015	-3.85
511.139	11.15
511.263	16.15
511.386	13.15
511.51	16.15
511.634	-1.85
511.758	6.15
511.882	-4.85
512.006	26.15
512.129	9.15
512.253	2.15
512.377	-18.85
512.501	24.15
512.625	15.15
512.748	15.15
512.872	10.15
512.996	7.15
513.12	8.15
513.244	1.15
513.367	23.15
513.491	13.15
513.615	11.15
513.739	12.15
513.862	14.15
513.986	4.15
514.11	6.15
514.234	6.15
514.358	19.15
514.481	14.15
514.605	3.15
514.729	17.15
514.853	16.15
514.976	5.15
515.1	-0.85
515.224	8.15
515.348	9.15
515.471	6.15
515.595	12.15
515.719	-2.85
515.842	35.15
515.966	9.15
516.09	20.15
516.214	10.15
516.337	22.15
516.461	13.15
516.585	18.15
516.708	5.15
516.832	8.15
516.956	10.15
517.08	6.15
517.203	3.15
517.327	8.15
517.451	16.15
517.574	36.15
517.698	8.15
517.822	-8.85
517.945	22.15
518.069	10.15
518.193	47.15
518.316	10.15
518.44	39.15
518.564	24.15
518.687	22.15
518.811	24.15
518.935	47.15
519.058	29.15
519.182	25.15
519.306	28.15
519.429	14.15
519.553	41.15
519.676	22.15
519.8	16.15
519.924	3.15
520.047	14.15
520.171	-13.85
520.294	7.15
520.418	8.15
520.542	-15.85
520.665	4.15
520.789	1.15
520.913	0.15
521.036	-0.85
521.16	-1.85
521.283	22.15
521.407	10.15
521.53	-3.85
521.654	-2.85
521.778	20.15
521.901	5.15
522.025	1.15
522.148	-20.85
522.272	-0.85
522.395	14.15
522.519	13.15
522.643	10.15
522.766	2.15
522.89	4.15
523.013	22.15
523.137	4.15
523.26	-10.85
523.384	12.15
523.507	13.15
523.631	6.15
523.754	6.15
523.878	-3.85
524.002	26.15
524.125	-8.85
524.249	0.15
524.372	13.15
524.496	5.15
524.619	4.15
524.743	9.15
524.866	13.15
524.99	-9.85
525.113	21.15
525.237	23.15
525.36	18.15
525.484	8.15
525.607	-8.85
525.731	-1.85
525.854	11.15
525.978	32.15
526.101	5.15
526.224	1.15
526.348	-5.85
526.471	19.15
526.595	17.15
526.718	1.15
526.842	-2.85
526.965	24.15
527.089	12.15
527.212	19.15
527.336	-0.85
527.459	23.15
527.582	16.15
527.706	13.15
527.829	20.15
527.953	12.15
528.076	0.15
528.2	2.15
528.323	7.15
528.446	26.15
528.57	6.15
528.693	13.15
528.817	-8.85
528.94	15.15
529.064	49.15
529.187	6.15
529.31	-0.85
529.434	3.15
529.557	14.15
529.68	-1.85
529.804	12.15
529.927	14.15
530.051	3.15
530.174	-9.85
530.297	18.15
530.421	10.15
530.544	27.15
530.668	7.15
530.791	1.15
530.914	21.15
531.038	6.15
531.161	15.15
531.284	11.15
531.408	7.15
531.531	2.15
531.654	-3.85
531.778	5.15
531.901	7.15
532.024	9.15
532.148	17.15
532.271	22.15
532.394	6.15
532.518	31.15
532.641	15.15
532.764	24.15
532.888	18.15
533.011	-2.85
533.134	-1.85
533.258	16.15
533.381	1.15
533.504	-5.85
533.628	1.15
533.751	13.15
533.874	8.15
533.997	18.15
534.121	10.15
534.244	8.15
534.367	14.15
534.491	-0.85
534.614	1.15
534.737	22.15
534.86	23.15
534.984	2.15
535.107	0.15
535.23	11.15
535.354	6.15
535.477	-0.85
535.6	8.15
535.723	10.15
535.847	1.15
535.97	-0.85
536.093	4.15
536.216	7.15
536.34	8.15
536.463	4.15
536.586	20.15
536.709	22.15
536.833	17.15
536.956	1.15
537.079	-1.85
537.202	24.15
537.325	4.15
537.449	-11.85
537.572	6.15
537.695	6.15
537.818	4.15
537.941	-1.85
538.065	5.15
538.188	-1.85
538.311	0.15
538.434	22.15
538.558	23.15
538.681	27.15
538.804	10.15
538.927	10.15
539.05	5.15
539.173	14.15
539.297	4.15
539.42	13.15
539.543	14.15
539.666	21.15
539.789	14.15
539.913	5.15
540.036	0.15
540.159	15.15
540.282	-5.85
540.405	-2.85
540.528	-11.85
540.651	18.15
540.775	23.15
540.898	10.15
541.021	2.15
541.144	18.15
541.267	2.15
541.39	-2.85
541.513	17.15
541.637	-5.85
541.76	1.15
541.883	-9.85
542.006	10.15
542.129	33.15
542.252	-18.85
542.375	-4.85
542.498	14.15
542.622	7.15
542.745	0.15
542.868	-11.85
542.991	2.15
543.114	39.15
543.237	17.15
543.36	27.15
543.483	9.15
543.606	9.15
543.73	25.15
543.853	-4.85
543.976	8.15
544.099	5.15
544.222	23.15
544.345	-9.85
544.468	-3.85
544.591	8.15
544.714	17.15
544.837	23.15
544.96	10.15
545.083	14.15
545.206	11.15
545.329	22.15
545.453	-3.85
545.576	15.15
545.699	-5.85
545.822	9.15
545.945	21.15
546.068	-0.85
546.191	28.15
546.314	7.15
546.437	17.15
546.56	9.15
546.683	15.15
546.806	9.15
546.929	-1.85
547.052	1.15
547.175	17.15
547.298	18.15
547.421	2.15
547.544	-18.85
547.667	-6.85
547.79	16.15
547.913	-3.85
548.036	1.15
548.159	24.15
548.282	10.15
548.405	0.15
548.528	14.15
548.651	4.15
548.774	5.15
548.897	18.15
549.02	32.15
549.143	32.15
549.266	15.15
549.389	5.15
549.512	16.15
549.635	14.15
549.758	6.15
549.881	2.15
550.004	15.15
550.127	12.15
550.25	-5.85
550.373	-9.85
550.496	5.15
550.619	-3.85
550.742	-10.85
550.865	-15.85
550.988	-0.85
551.111	17.15
551.234	4.15
551.356	0.15
551.479	-8.85
551.602	8.15
551.725	13.15
551.848	1.15
551.971	22.15
552.094	23.15
552.217	-8.85
552.34	0.15
552.463	-2.85
552.586	8.15
552.709	4.15
552.832	16.15
552.955	10.15
553.077	23.15
553.2	6.15
553.323	-18.85
553.446	13.15
553.569	1.15
553.692	10.15
553.815	5.15
553.938	14.15
554.061	19.15
554.184	9.15
554.306	-3.85
554.429	16.15
554.552	3.15
554.675	9.15
554.798	14.15
554.921	19.15
555.044	0.15
555.167	4.15
555.29	9.15
555.412	10.15
555.535	27.15
555.658	14.15
555.781	6.15
555.904	10.15
556.027	13.15
556.15	22.15
556.272	3.15
556.395	16.15
556.518	-1.85
556.641	7.15
556.764	23.15
556.887	21.15
557.01	-1.85
557.132	-28.85
557.255	5.15
557.378	6.15
557.501	10.15
557.624	15.15
557.747	15.15
557.869	30.15
557.992	17.15
558.115	24.15
558.238	-11.85
558.361	13.15
558.483	12.15
558.606	24.15
558.729	11.15
558.852	26.15
558.975	22.15
559.098	33.15
559.22	12.15
559.343	16.15
559.466	20.15
559.589	-7.85
559.712	1.15
559.834	16.15
559.957	15.15
560.08	8.15
560.203	7.15
560.325	20.15
560.448	32.15
560.571	2.15
560.694	4.15
560.817	28.15
560.939	5.15
561.062	-0.85
561.185	2.15
561.308	13.15
561.43	-10.85
561.553	0.15
561.676	9.15
561.799	1.15
561.921	1.15
562.044	0.15
562.167	-4.85
562.29	6.15
562.413	23.15
562.535	12.15
562.658	8.15
562.781	11.15
562.903	-14.85
563.026	1.15
563.149	38.15
563.272	10.15
563.394	12.15
563.517	8.15
563.64	-9.85
563.763	-5.85
563.885	14.15
564.008	22.15
564.131	20.15
564.254	-2.85
564.376	12.15
564.499	8.15
564.622	4.15
564.744	9.15
564.867	9.15
564.99	7.15
565.113	9.15
565.235	9.15
565.358	14.15
565.481	-6.85
565.603	7.15
565.726	6.15
565.849	15.15
565.971	21.15
566.094	-1.85
566.217	11.15
566.34	15.15
566.462	28.15
566.585	24.15
566.708	18.15
566.83	5.15
566.953	18.15
567.076	5.15
567.198	-5.85
567.321	-1.85
567.444	8.15
567.566	12.15
567.689	5.15
567.812	0.15
567.934	15.15
568.057	24.15
568.18	7.15
568.302	9.15
568.425	4.15
568.548	20.15
568.67	7.15
568.793	-0.85
568.916	-3.85
569.038	-5.85
569.161	4.15
569.283	10.15
569.406	-7.85
569.529	-3.85
569.651	-14.85
569.774	-1.85
569.897	-4.85
570.019	18.15
570.142	19.15
570.265	7.15
570.387	4.15
570.51	20.15
570.632	29.15
570.755	10.15
570.878	6.15
571	24.15
571.123	-5.85
571.246	-0.85
571.368	15.15
571.491	11.15
571.613	-5.85
571.736	-15.85
571.859	5.15
571.981	-3.85
572.104	-8.85
572.226	20.15
572.349	8.15
572.472	6.15
572.594	4.15
572.717	13.15
572.839	6.15
572.962	18.15
573.085	-0.85
573.207	-11.85
573.33	6.15
573.452	13.15
573.575	11.15
573.697	17.15
573.82	2.15
573.943	6.15
574.065	-0.85
574.188	4.15
574.31	25.15
574.433	33.15
574.555	18.15
574.678	-1.85
574.801	20.15
574.923	4.15
575.046	10.15
575.168	1.15
575.291	12.15
575.413	2.15
575.536	-6.85
575.659	13.15
575.781	-0.85
575.904	-2.85
576.026	10.15
576.149	2.15
576.271	6.15
576.394	16.15
576.516	-0.85
576.639	21.15
576.761	-7.85
576.884	-6.85
577.007	7.15
577.129	14.15
577.252	0.15
577.374	7.15
577.497	8.15
577.619	8.15
577.742	2.15
577.864	27.15
577.987	22.15
578.109	24.15
578.232	3.15
578.354	14.15
578.477	11.15
578.599	6.15
578.722	-1.85
578.844	2.15
578.967	12.15
579.089	1.15
579.212	1.15
579.334	4.15
579.457	-0.85
579.579	14.15
579.702	7.15
579.824	8.15
579.947	-23.85
580.069	-2.85
580.192	10.15
580.314	21.15
580.437	24.15
580.559	41.15
580.682	12.15
580.804	23.15
580.927	13.15
581.049	34.15
581.172	23.15
581.294	12.15
581.417	16.15
581.539	3.15
581.662	34.15
581.784	35.15
581.907	7.15
582.029	23.15
582.152	10.15
582.274	9.15
582.396	13.15
582.519	12.15
582.641	-7.85
582.764	8.15
582.886	23.15
583.009	-9.85
583.131	11.15
583.254	6.15
583.376	34.15
583.499	28.15
583.621	18.15
583.743	10.15
583.866	22.15
583.988	19.15
584.111	25.15
584.233	23.15
584.356	19.15
584.478	38.15
584.601	1.15
584.723	6.15
584.845	18.15
584.968	4.15
585.09	1.15
585.213	10.15
585.335	-4.85
585.458	0.15
585.58	13.15
585.702	18.15
585.825	10.15
585.947	6.15
586.07	-21.85
586.192	-1.85
586.315	18.15
586.437	7.15
586.559	11.15
586.682	-5.85
586.804	14.15
586.927	8.15
587.049	10.15
587.171	31.15
587.294	3.15
587.416	23.15
587.539	17.15
587.661	12.15
587.783	-1.85
587.906	-1.85
588.028	15.15
588.151	6.15
588.273	24.15
588.395	11.15
588.518	4.15
588.64	23.15
588.763	29.15
588.885	13.15
589.007	17.15
589.13	-6.85
589.252	4.15
589.375	26.15
589.497	10.15
589.619	5.15
589.742	14.15
589.864	13.15
589.986	9.15
590.109	-5.85
590.231	-9.85
590.354	19.15
590.476	4.15
590.598	-14.85
590.721	-9.85
590.843	2.15
590.965	8.15
591.088	6.15
591.21	8.15
591.332	-1.85
591.455	0.15
591.577	3.15
591.7	17.15
591.822	10.15
591.944	4.15
592.067	2.15
592.189	-5.85
592.311	13.15
592.434	-9.85
592.556	12.15
592.678	5.15
592.801	0.15
592.923	21.15
593.045	10.15
593.168	-1.85
593.29	11.15
593.412	7.15
593.535	11.15
593.657	9.15
593.779	1.15
593.902	21.15
594.024	21.15
594.146	23.15
594.269	14.15
594.391	9.15
594.513	18.15
594.636	18.15
594.758	-3.85
594.88	14.15
595.003	0.15
595.125	13.15
595.247	21.15
595.37	5.15
595.492	0.15
595.614	16.15
595.737	13.15
595.859	4.15
595.981	12.15
596.104	0.15
596.226	7.15
596.348	-4.85
596.471	1.15
596.593	5.15
596.715	-12.85
596.838	-4.85
596.96	-7.85
597.082	5.15
597.204	11.15
597.327	4.15
597.449	-0.85
597.571	6.15
597.694	12.15
597.816	19.15
597.938	17.15
598.061	11.15
598.183	1.15
598.305	18.15
598.427	19.15
598.55	8.15
598.672	26.15
598.794	17.15
598.917	2.15
599.039	3.15
599.161	23.15
599.283	-9.85
599.406	13.15
599.528	39.15
599.65	21.15
599.773	13.15
599.895	22.15
600.017	25.15
600.139	-16.85
600.262	-2.85
600.384	6.15
600.506	4.15
600.628	18.15
600.751	14.15
600.873	2.15
600.995	7.15
601.118	9.15
601.24	16.15
601.362	37.15
601.484	-0.85
601.607	18.15
601.729	3.15
601.851	6.15
601.973	21.15
602.096	38.15
602.218	20.15
602.34	8.15
602.462	26.15
602.585	8.15
602.707	12.15
602.829	16.15
602.951	26.15
603.074	-5.85
603.196	21.15
603.318	6.15
603.44	30.15
603.563	7.15
603.685	-1.85
603.807	9.15
603.929	16.15
604.052	14.15
604.174	-3.85
604.296	6.15
604.418	34.15
604.541	29.15
604.663	1.15
604.785	12.15
604.907	13.15
605.03	6.15
605.152	58.15
605.274	-1.85
605.396	-1.85
605.519	-0.85
605.641	2.15
605.763	4.15
605.885	12.15
606.008	-16.85
606.13	4.15
606.252	6.15
606.374	-19.85
606.496	-9.85
606.619	-3.85
606.741	0.15
606.863	23.15
606.985	16.15
607.108	16.15
607.23	7.15
607.352	3.15
607.474	2.15
607.596	9.15
607.719	17.15
607.841	7.15
607.963	16.15
608.085	6.15
608.207	23.15
608.33	-1.85
608.452	-6.85
608.574	9.15
608.696	28.15
608.819	17.15
608.941	8.15
609.063	-0.85
609.185	-0.85
609.307	1.15
609.43	6.15
609.552	13.15
609.674	-4.85
609.796	21.15
609.918	21.15
610.041	0.15
610.163	12.15
610.285	-4.85
610.407	13.15
610.529	-10.85
610.652	22.15
610.774	7.15
610.896	8.15
611.018	17.15
611.14	-0.85
611.263	3.15
611.385	-1.85
611.507	7.15
611.629	-7.85
611.751	17.15
611.873	33.15
611.996	17.15
612.118	12.15
612.24	-17.85
612.362	11.15
612.484	18.15
612.607	23.15
612.729	26.15
612.851	8.15
612.973	-4.85
613.095	15.15
613.218	10.15
613.34	-9.85
613.462	18.15
613.584	5.15
613.706	6.15
613.828	26.15
613.951	2.15
614.073	-2.85
614.195	-9.85
614.317	20.15
614.439	24.15
614.561	37.15
614.684	8.15
614.806	18.15
614.928	13.15
615.05	6.15
615.172	25.15
615.294	22.15
615.417	6.15
615.539	7.15
615.661	14.15
615.783	35.15
615.905	36.15
616.027	52.15
616.15	108.15
616.272	89.15
616.394	35.15
616.516	45.15
616.638	14.15
616.76	15.15
616.883	16.15
617.005	-12.85
617.127	6.15
617.249	13.15
617.371	4.15
617.493	4.15
617.615	22.15
617.738	20.15
617.86	-2.85
617.982	4.15
618.104	1.15
618.226	-17.85
618.348	2.15
618.471	14.15
618.593	10.15
618.715	-15.85
618.837	-1.85
618.959	1.15
619.081	22.15
619.203	-1.85
619.326	2.15
619.448	4.15
619.57	4.15
619.692	-1.85
619.814	13.15
619.936	5.15
620.058	9.15
620.181	16.15
620.303	14.15
620.425	23.15
620.547	5.15
620.669	35.15
620.791	7.15
620.913	-7.85
621.036	-17.85
621.158	1.15
621.28	24.15
621.402	-13.85
621.524	-7.85
621.646	-2.85
621.768	-7.85
621.891	-16.85
622.013	7.15
622.135	-8.85
622.257	0.15
622.379	-6.85
622.501	13.15
622.623	0.15
622.745	-13.85
622.868	8.15
622.99	3.15
623.112	-9.85
623.234	2.15
623.356	16.15
623.478	-8.85
623.6	24.15
623.722	22.15
623.845	23.15
623.967	8.15
624.089	5.15
624.211	0.15
624.333	5.15
624.455	9.15
624.577	-11.85
624.699	23.15
624.822	9.15
624.944	-7.85
625.066	17.15
625.188	-0.85
625.31	9.15
625.432	21.15
625.554	-6.85
625.676	23.15
625.799	-15.85
625.921	-25.85
626.043	-9.85
626.165	6.15
626.287	-9.85
626.409	1.15
626.531	5.15
626.653	18.15
626.775	1.15
626.898	10.15
627.02	16.15
627.142	16.15
627.264	0.15
627.386	-1.85
627.508	4.15
627.63	16.15
627.752	16.15
627.874	16.15
627.997	8.15
628.119	12.15
628.241	20.15
628.363	28.15
628.485	2.15
628.607	1.15
628.729	-8.85
628.851	-1.85
628.973	14.15
629.096	-17.85
629.218	-7.85
629.34	0.15
629.462	-11.85
629.584	3.15
629.706	10.15
629.828	24.15
629.95	-0.85
630.072	14.15
630.195	1.15
630.317	7.15
630.439	-3.85
630.561	-3.85
630.683	10.15
630.805	11.15
630.927	14.15
631.049	21.15
631.171	-2.85
631.293	18.15
631.416	20.15
631.538	3.15
631.66	-13.85
631.782	15.15
631.904	12.15
632.026	8.15
632.148	22.15
632.27	-14.85
632.392	1.15
632.514	-2.85
632.637	2.15
632.759	3.15
632.881	-13.85
633.003	-5.85
633.125	-10.85
633.247	-3.85
633.369	3.15
633.491	-7.85
633.613	25.15
633.735	12.15
633.858	9.15
633.98	5.15
634.102	6.15
634.224	9.15
634.346	0.15
634.468	3.15
634.59	-6.85
634.712	-2.85
634.834	12.15
634.956	-8.85
635.078	-6.85
635.201	-7.85
635.323	24.15
635.445	8.15
635.567	-18.85
635.689	9.15
635.811	15.15
635.933	22.15
636.055	-10.85
636.177	4.15
636.299	14.15
636.421	-11.85
636.544	-25.85
636.666	5.15
636.788	14.15
636.91	9.15
637.032	6.15
637.154	12.15
637.276	17.15
637.398	12.15
637.52	12.15
637.642	-10.85
637.764	6.15
637.887	15.15
638.009	8.15
638.131	2.15
638.253	-3.85
638.375	12.15
638.497	-3.85
638.619	6.15
638.741	1.15
638.863	-11.85
638.985	-6.85
639.107	-4.85
639.23	-6.85
639.352	10.15
639.474	-11.85
639.596	1.15
639.718	-4.85
639.84	20.15
639.962	5.15
640.084	22.15
640.206	16.15
640.328	6.15
640.45	-1.85
640.573	16.15
640.695	-1.85
640.817	4.15
640.939	17.15
641.061	3.15
641.183	6.15
641.305	-9.85
641.427	1.15
641.549	3.15
641.671	10.15
641.793	0.15
641.915	14.15
642.038	-2.85
642.16	5.15
642.282	-2.85
642.404	2.15
642.526	15.15
642.648	2.15
642.77	18.15
642.892	-2.85
643.014	12.15
643.136	-4.85
643.258	7.15
643.381	20.15
643.503	22.15
643.625	4.15
643.747	-8.85
643.869	-28.85
643.991	-3.85
644.113	4.15
644.235	5.15
644.357	4.15
644.479	34.15
644.601	3.15
644.723	-4.85
644.846	12.15
644.968	8.15
645.09	-3.85
645.212	-1.85
645.334	11.15
645.456	16.15
645.578	15.15
645.7	10.15
645.822	5.15
645.944	-0.85
646.066	4.15
646.188	-4.85
646.311	23.15
646.433	-7.85
646.555	36.15
646.677	30.15
646.799	14.15
646.921	22.15
647.043	32.15
647.165	-16.85
647.287	3.15
647.409	10.15
647.531	6.15
647.654	-9.85
647.776	8.15
647.898	-0.85
648.02	-9.85
648.142	-14.85
648.264	-3.85
648.386	-5.85
648.508	-10.85
648.63	2.15
648.752	5.15
648.874	3.15
648.997	-7.85
649.119	13.15
649.241	-20.85
649.363	10.15
649.485	3.15
649.607	-2.85
649.729	-12.85
649.851	-5.85
649.973	6.15
650.095	28.15
650.217	-6.85
650.34	-9.85
650.462	-2.85
650.584	-7.85
650.706	26.15
650.828	12.15
650.95	5.15
651.072	15.15
651.194	-13.85
651.316	5.15
651.438	17.15
651.56	1.15
651.683	9.15
651.805	14.15
651.927	3.15
652.049	-0.85
652.171	12.15
652.293	12.15
652.415	3.15
652.537	-4.85
652.659	-22.85
652.781	13.15
652.903	19.15
653.026	17.15
653.148	8.15
653.27	10.15
653.392	8.15
653.514	-15.85
653.636	-2.85
653.758	11.15
653.88	2.15
654.002	6.15
654.124	2.15
654.247	4.15
654.369	19.15
654.491	9.15
654.613	19.15
654.735	12.15
654.857	25.15
654.979	20.15
655.101	34.15
655.223	34.15
655.345	16.15
655.468	33.15
655.59	26.15
655.712	37.15
655.834	21.15
655.956	33.15
656.078	16.15
656.2	36.15
656.322	40.15
656.444	23.15
656.566	41.15
656.689	35.15
656.811	56.15
656.933	92.15
657.055	84.15
657.177	168.15
657.299	242.15
657.421	505.15
657.543	1872.15
657.665	12513.15
657.787	15169.15
657.91	15250.15
658.032	15659.15
658.154	4601.15
658.276	3337.15
658.398	1104.15
658.52	1005.15
658.642	483.15
658.764	598.15
658.886	274.15
659.009	394.15
659.131	219.15
659.253	317.15
659.375	151.15
659.497	240.15
659.619	128.15
659.741	197.15
659.863	103.15
659.985	169.15
660.108	89.15
660.23	158.15
660.352	81.15
660.474	144.15
660.596	63.15
660.718	124.15
660.84	48.15
660.962	115.15
661.084	56.15
661.207	109.15
661.329	77.15
661.451	92.15
661.573	35.15
661.695	105.15
661.817	55.15
661.939	93.15
662.061	60.15
662.184	63.15
662.306	33.15
662.428	74.15
662.55	45.15
662.672	54.15
662.794	32.15
662.916	63.15
663.038	31.15
663.161	81.15
663.283	38.15
663.405	62.15
663.527	31.15
663.649	68.15
663.771	32.15
663.893	56.15
664.015	30.15
664.138	58.15
664.26	24.15
664.382	46.15
664.504	4.15
664.626	25.15
664.748	27.15
664.87	24.15
664.992	26.15
665.115	56.15
665.237	30.15
665.359	26.15
665.481	17.15
665.603	34.15
665.725	3.15
665.847	41.15
665.97	21.15
666.092	39.15
666.214	30.15
666.336	34.15
666.458	16.15
666.58	29.15
666.702	0.15
666.825	41.15
666.947	4.15
667.069	41.15
667.191	15.15
667.313	46.15
667.435	3.15
667.557	20.15
667.68	-3.85
667.802	9.15
667.924	3.15
668.046	49.15
668.168	12.15
668.29	32.15
668.412	27.15
668.535	51.15
668.657	19.15
668.779	19.15
668.901	22.15
669.023	25.15
669.145	19.15
669.267	40.15
669.39	10.15
669.512	15.15
669.634	10.15
669.756	34.15
669.878	23.15
670	28.15
670.123	1.15
670.245	24.15
670.367	22.15
670.489	3.15
670.611	-6.85
670.733	17.15
670.856	18.15
670.978	27.15
671.1	8.15
671.222	21.15
671.344	14.15
671.466	28.15
671.589	2.15
671.711	19.15
671.833	15.15
671.955	32.15
672.077	7.15
672.199	24.15
672.322	36.15
672.444	30.15
672.566	22.15
672.688	14.15
672.81	20.15
672.932	28.15
673.055	9.15
673.177	4.15
673.299	19.15
673.421	-3.85
673.543	0.15
673.665	14.15
673.788	23.15
673.91	-7.85
674.032	-2.85
674.154	25.15
674.276	12.15
674.399	8.15
674.521	11.15
674.643	15.15
674.765	9.15
674.887	30.15
675.009	24.15
675.132	16.15
675.254	12.15
675.376	39.15
675.498	-1.85
675.62	32.15
675.743	-3.85
675.865	31.15
675.987	-1.85
676.109	0.15
676.231	19.15
676.354	37.15
676.476	17.15
676.598	31.15
676.72	23.15
676.842	33.15
676.965	2.15
677.087	9.15
677.209	4.15
677.331	34.15
677.453	12.15
677.576	25.15
677.698	9.15
677.82	16.15
677.942	4.15
678.064	16.15
678.187	4.15
678.309	12.15
678.431	-9.85
678.553	9.15
678.675	21.15
678.798	30.15
678.92	10.15
679.042	-0.85
679.164	-11.85
679.286	16.15
679.409	7.15
679.531	-8.85
679.653	-1.85
679.775	13.15
679.898	14.15
680.02	-9.85
680.142	-1.85
680.264	34.15
680.386	0.15
680.509	7.15
680.631	14.15
680.753	5.15
680.875	-10.85
680.998	19.15
681.12	-8.85
681.242	16.15
681.364	-26.85
681.486	24.15
681.609	3.15
681.731	-2.85
681.853	9.15
681.975	-2.85
682.098	17.15
682.22	22.15
682.342	-8.85
682.464	12.15
682.587	10.15
682.709	9.15
682.831	-12.85
682.953	8.15
683.076	0.15
683.198	5.15
683.32	-6.85
683.442	11.15
683.565	30.15
683.687	17.15
683.809	13.15
683.931	2.15
684.054	4.15
684.176	5.15
684.298	11.15
684.42	11.15
684.543	6.15
684.665	12.15
684.787	-2.85
684.909	8.15
685.032	32.15
685.154	-2.85
685.276	5.15
685.398	1.15
685.521	0.15
685.643	23.15
685.765	10.15
685.887	14.15
686.01	7.15
686.132	13.15
686.254	9.15
686.377	21.15
686.499	8.15
686.621	32.15
686.743	16.15
686.866	9.15
686.988	36.15
687.11	27.15
687.232	5.15
687.355	-10.85
687.477	-4.85
687.599	7.15
687.722	-8.85
687.844	-0.85
687.966	17.15
688.088	3.15
688.211	29.15
688.333	27.15
688.455	26.15
688.578	29.15
688.7	4.15
688.822	14.15
688.944	-0.85
689.067	54.15
689.189	10.15
689.311	4.15
689.434	10.15
689.556	10.15
689.678	6.15
689.801	19.15
689.923	13.15
690.045	10.15
690.167	22.15
690.29	18.15
690.412	18.15
690.534	5.15
690.657	-14.85
690.779	14.15
690.901	23.15
691.024	16.15
691.146	2.15
691.268	3.15
691.391	8.15
691.513	26.15
691.635	8.15
691.758	12.15
691.88	30.15
692.002	-1.85
692.125	1.15
692.247	11.15
692.369	8.15
692.492	-12.85
692.614	6.15
692.736	2.15
692.859	-4.85
692.981	2.15
693.103	7.15
693.226	14.15
693.348	26.15
693.47	15.15
693.593	10.15
693.715	9.15
693.837	3.15
693.96	23.15
694.082	-4.85
694.204	10.15
694.327	16.15
694.449	-19.85
694.571	-0.85
694.694	13.15
694.816	1.15
694.938	14.15
695.061	1.15
695.183	5.15
695.305	10.15
695.428	12.15
695.55	10.15
695.672	-9.85
695.795	-1.85
695.917	15.15
696.04	19.15
696.162	13.15
696.284	5.15
696.407	22.15
696.529	5.15
696.651	29.15
696.774	-2.85
696.896	32.15
697.019	2.15
697.141	5.15
697.263	1.15
697.386	-4.85
697.508	11.15
697.63	22.15
697.753	16.15
697.875	5.15
697.998	9.15
698.12	9.15
698.242	6.15
698.365	23.15
698.487	6.15
698.61	0.15
698.732	5.15
698.854	9.15
698.977	0.15
699.099	6.15
699.221	3.15
699.344	-1.85
699.466	18.15
699.589	20.15
699.711	4.15
699.834	13.15
699.956	14.15
700.078	6.15
700.201	-3.85
700.323	20.15
700.446	3.15
700.568	8.15
700.69	5.15
700.813	1.15
700.935	-3.85
701.058	3.15
701.18	0.15
701.302	-3.85
701.425	-11.85
701.547	15.15
701.67	2.15
701.792	7.15
701.915	4.15
702.037	13.15
702.159	13.15
702.282	7.15
702.404	5.15
702.527	14.15
702.649	40.15
702.772	27.15
702.894	8.15
703.017	8.15
703.139	0.15
703.261	3.15
703.384	13.15
703.506	-7.85
703.629	-19.85
703.751	1.15
703.874	5.15
703.996	-9.85
704.119	-2.85
704.241	3.15
704.364	7.15
704.486	10.15
704.608	13.15
704.731	12.15
704.853	-1.85
704.976	-4.85
705.098	15.15
705.221	0.15
705.343	-3.85
705.466	18.15
705.588	18.15
705.711	14.15
705.833	13.15
705.956	12.15
706.078	24.15
706.201	12.15
706.323	1.15
706.446	3.15
