Data from LowRes_H2_15_26_11_07_2024_HR4C61881__91__15-28-22-736.txt Node

Date: Thu Nov 07 15:28:22 EST 2024
User: crc00042
Spectrometer: HR4C6188
Trigger mode: 4
Integration Time (sec): 1.000000E-1
Scans to average: 1
Electric dark correction enabled: true
Nonlinearity correction enabled: false
Boxcar width: 0
XAxis mode: Wavelengths
Number of Pixels in Spectrum: 3648
>>>>>Begin Spectral Data<<<<<
245.66	-102.46
245.797	-102.46
245.934	-102.46
246.071	-88.46
246.208	0.54
246.344	8.54
246.481	-11.46
246.618	-7.46
246.755	-0.46
246.892	2.54
247.029	-20.46
247.165	-7.46
247.302	5.54
247.439	4.54
247.576	0.54
247.713	-14.46
247.849	42.54
247.986	-2.46
248.123	22.54
248.26	13.54
248.396	5.54
248.533	13.54
248.67	6.54
248.806	2.54
248.943	-13.46
249.08	-19.46
249.216	-1.46
249.353	-9.46
249.49	11.54
249.626	0.54
249.763	5.54
249.9	-5.46
250.036	-1.46
250.173	13.54
250.309	-4.46
250.446	5.54
250.582	11.54
250.719	0.54
250.856	-6.46
250.992	14.54
251.129	-12.46
251.265	-19.46
251.402	0.54
251.538	-20.46
251.675	-9.46
251.811	13.54
251.948	12.54
252.084	-2.46
252.221	-11.46
252.357	-5.46
252.493	21.54
252.63	-14.46
252.766	-2.46
252.903	-0.46
253.039	-11.46
253.175	2.54
253.312	15.54
253.448	-10.46
253.585	-21.46
253.721	0.54
253.857	1.54
253.994	8.54
254.13	12.54
254.266	7.54
254.403	-3.46
254.539	6.54
254.675	14.54
254.811	2.54
254.948	5.54
255.084	12.54
255.22	16.54
255.356	6.54
255.493	12.54
255.629	6.54
255.765	8.54
255.901	13.54
256.037	16.54
256.174	17.54
256.31	-3.46
256.446	-11.46
256.582	1.54
256.718	5.54
256.854	21.54
256.991	22.54
257.127	14.54
257.263	-13.46
257.399	17.54
257.535	-4.46
257.671	-11.46
257.807	-12.46
257.943	-19.46
258.079	-27.46
258.215	-1.46
258.351	26.54
258.487	17.54
258.623	2.54
258.759	5.54
258.895	8.54
259.031	-10.46
259.167	-11.46
259.303	9.54
259.439	-2.46
259.575	5.54
259.711	-6.46
259.847	-13.46
259.983	18.54
260.119	-0.46
260.255	-10.46
260.391	7.54
260.527	12.54
260.663	14.54
260.799	8.54
260.934	-0.46
261.07	-8.46
261.206	-14.46
261.342	-21.46
261.478	28.54
261.614	24.54
261.749	6.54
261.885	-8.46
262.021	-11.46
262.157	31.54
262.293	16.54
262.428	10.54
262.564	-10.46
262.7	10.54
262.836	6.54
262.971	10.54
263.107	21.54
263.243	31.54
263.378	1.54
263.514	-25.46
263.65	-2.46
263.785	-5.46
263.921	1.54
264.057	0.54
264.192	21.54
264.328	16.54
264.464	2.54
264.599	7.54
264.735	6.54
264.871	9.54
265.006	0.54
265.142	10.54
265.277	4.54
265.413	8.54
265.548	10.54
265.684	10.54
265.819	1.54
265.955	-20.46
266.091	-1.46
266.226	-3.46
266.362	-9.46
266.497	8.54
266.633	3.54
266.768	16.54
266.903	28.54
267.039	8.54
267.174	15.54
267.31	2.54
267.445	-3.46
267.581	-0.46
267.716	10.54
267.851	9.54
267.987	8.54
268.122	29.54
268.258	-5.46
268.393	-10.46
268.528	-3.46
268.664	-0.46
268.799	-4.46
268.934	7.54
269.07	-3.46
269.205	0.54
269.34	19.54
269.476	9.54
269.611	-5.46
269.746	38.54
269.881	15.54
270.017	12.54
270.152	11.54
270.287	8.54
270.422	4.54
270.558	-9.46
270.693	20.54
270.828	11.54
270.963	-0.46
271.098	-1.46
271.234	-11.46
271.369	10.54
271.504	-8.46
271.639	-25.46
271.774	-3.46
271.909	-2.46
272.045	-24.46
272.18	-1.46
272.315	-3.46
272.45	12.54
272.585	-6.46
272.72	15.54
272.855	29.54
272.99	16.54
273.125	-7.46
273.26	-5.46
273.395	-17.46
273.53	-5.46
273.665	12.54
273.8	14.54
273.935	-19.46
274.07	-0.46
274.205	11.54
274.34	-12.46
274.475	-2.46
274.61	5.54
274.745	4.54
274.88	23.54
275.015	-6.46
275.15	-1.46
275.285	4.54
275.42	9.54
275.555	11.54
275.69	9.54
275.825	5.54
275.959	25.54
276.094	1.54
276.229	-3.46
276.364	-2.46
276.499	-0.46
276.634	11.54
276.768	3.54
276.903	2.54
277.038	17.54
277.173	-0.46
277.308	5.54
277.442	-14.46
277.577	-4.46
277.712	4.54
277.847	0.54
277.981	-0.46
278.116	-5.46
278.251	13.54
278.386	18.54
278.52	-6.46
278.655	-13.46
278.79	18.54
278.924	6.54
279.059	15.54
279.194	-14.46
279.328	40.54
279.463	-15.46
279.598	23.54
279.732	20.54
279.867	11.54
280.001	5.54
280.136	8.54
280.271	10.54
280.405	1.54
280.54	-9.46
280.674	-13.46
280.809	16.54
280.943	11.54
281.078	-5.46
281.213	14.54
281.347	21.54
281.482	12.54
281.616	2.54
281.751	2.54
281.885	-21.46
282.02	5.54
282.154	12.54
282.288	-18.46
282.423	-6.46
282.557	-8.46
282.692	2.54
282.826	-1.46
282.961	17.54
283.095	22.54
283.229	2.54
283.364	-7.46
283.498	-9.46
283.633	17.54
283.767	3.54
283.901	9.54
284.036	1.54
284.17	-10.46
284.304	-14.46
284.439	18.54
284.573	-2.46
284.707	20.54
284.842	14.54
284.976	-18.46
285.11	-1.46
285.244	9.54
285.379	49.54
285.513	-22.46
285.647	26.54
285.781	20.54
285.916	11.54
286.05	7.54
286.184	23.54
286.318	16.54
286.453	-5.46
286.587	-2.46
286.721	-11.46
286.855	8.54
286.989	18.54
287.123	0.54
287.258	-4.46
287.392	-5.46
287.526	7.54
287.66	-6.46
287.794	5.54
287.928	-7.46
288.062	3.54
288.196	2.54
288.33	7.54
288.464	7.54
288.598	13.54
288.733	7.54
288.867	20.54
289.001	14.54
289.135	12.54
289.269	-14.46
289.403	-1.46
289.537	22.54
289.671	11.54
289.805	-16.46
289.939	-5.46
290.073	-5.46
290.207	12.54
290.34	-1.46
290.474	1.54
290.608	2.54
290.742	-7.46
290.876	-5.46
291.01	-1.46
291.144	11.54
291.278	13.54
291.412	-3.46
291.546	-4.46
291.679	-5.46
291.813	0.54
291.947	-7.46
292.081	-7.46
292.215	11.54
292.349	-0.46
292.482	0.54
292.616	-5.46
292.75	18.54
292.884	11.54
293.018	11.54
293.151	-30.46
293.285	20.54
293.419	-9.46
293.553	-1.46
293.686	-6.46
293.82	9.54
293.954	19.54
294.088	41.54
294.221	7.54
294.355	-7.46
294.489	1.54
294.622	-6.46
294.756	19.54
294.89	12.54
295.023	10.54
295.157	-6.46
295.291	-1.46
295.424	14.54
295.558	-0.46
295.691	4.54
295.825	1.54
295.959	-0.46
296.092	5.54
296.226	17.54
296.359	-7.46
296.493	8.54
296.627	23.54
296.76	16.54
296.894	-12.46
297.027	5.54
297.161	7.54
297.294	-21.46
297.428	-12.46
297.561	10.54
297.695	24.54
297.828	-5.46
297.962	-4.46
298.095	-5.46
298.229	12.54
298.362	-4.46
298.495	-9.46
298.629	-28.46
298.762	-16.46
298.896	-7.46
299.029	-1.46
299.162	2.54
299.296	11.54
299.429	-11.46
299.563	17.54
299.696	-1.46
299.829	11.54
299.963	24.54
300.096	16.54
300.229	6.54
300.363	19.54
300.496	-3.46
300.629	-12.46
300.763	12.54
300.896	10.54
301.029	-2.46
301.162	5.54
301.296	5.54
301.429	7.54
301.562	-2.46
301.695	8.54
301.829	15.54
301.962	27.54
302.095	5.54
302.228	-24.46
302.362	-11.46
302.495	-14.46
302.628	20.54
302.761	7.54
302.894	12.54
303.027	24.54
303.161	-14.46
303.294	-11.46
303.427	26.54
303.56	3.54
303.693	3.54
303.826	10.54
303.959	8.54
304.092	6.54
304.225	10.54
304.359	-5.46
304.492	4.54
304.625	-12.46
304.758	2.54
304.891	-19.46
305.024	1.54
305.157	11.54
305.29	-12.46
305.423	-3.46
305.556	5.54
305.689	22.54
305.822	6.54
305.955	14.54
306.088	-2.46
306.221	4.54
306.354	-0.46
306.487	2.54
306.62	-20.46
306.752	1.54
306.885	3.54
307.018	0.54
307.151	9.54
307.284	6.54
307.417	-18.46
307.55	11.54
307.683	0.54
307.816	27.54
307.948	5.54
308.081	12.54
308.214	4.54
308.347	29.54
308.48	-7.46
308.613	-7.46
308.745	13.54
308.878	-5.46
309.011	-9.46
309.144	-7.46
309.277	-7.46
309.409	3.54
309.542	-9.46
309.675	24.54
309.808	1.54
309.94	21.54
310.073	0.54
310.206	-17.46
310.339	7.54
310.471	-20.46
310.604	17.54
310.737	-5.46
310.869	4.54
311.002	-7.46
311.135	-2.46
311.267	-20.46
311.4	-10.46
311.533	27.54
311.665	-1.46
311.798	6.54
311.93	-2.46
312.063	7.54
312.196	22.54
312.328	-5.46
312.461	-7.46
312.593	14.54
312.726	25.54
312.859	5.54
312.991	13.54
313.124	-3.46
313.256	-12.46
313.389	2.54
313.521	0.54
313.654	1.54
313.786	-10.46
313.919	7.54
314.051	1.54
314.184	7.54
314.316	3.54
314.449	-27.46
314.581	15.54
314.714	21.54
314.846	8.54
314.978	-11.46
315.111	-10.46
315.243	9.54
315.376	-2.46
315.508	11.54
315.641	11.54
315.773	19.54
315.905	14.54
316.038	-5.46
316.17	7.54
316.302	10.54
316.435	2.54
316.567	11.54
316.699	22.54
316.832	8.54
316.964	7.54
317.096	8.54
317.229	-5.46
317.361	-20.46
317.493	-33.46
317.625	0.54
317.758	10.54
317.89	19.54
318.022	7.54
318.155	-1.46
318.287	8.54
318.419	14.54
318.551	3.54
318.683	17.54
318.816	-9.46
318.948	-6.46
319.08	-16.46
319.212	-17.46
319.344	7.54
319.477	-7.46
319.609	4.54
319.741	-2.46
319.873	-6.46
320.005	-0.46
320.137	19.54
320.269	20.54
320.401	5.54
320.534	2.54
320.666	-2.46
320.798	-16.46
320.93	-18.46
321.062	-8.46
321.194	-13.46
321.326	2.54
321.458	8.54
321.59	1.54
321.722	0.54
321.854	11.54
321.986	12.54
322.118	-2.46
322.25	14.54
322.382	1.54
322.514	3.54
322.646	-11.46
322.778	11.54
322.91	0.54
323.042	2.54
323.174	13.54
323.306	0.54
323.438	-3.46
323.57	13.54
323.702	9.54
323.834	4.54
323.966	-11.46
324.097	2.54
324.229	17.54
324.361	0.54
324.493	2.54
324.625	-0.46
324.757	6.54
324.889	-10.46
325.021	-7.46
325.152	19.54
325.284	29.54
325.416	-9.46
325.548	12.54
325.68	-6.46
325.811	24.54
325.943	23.54
326.075	-8.46
326.207	-1.46
326.339	1.54
326.47	6.54
326.602	4.54
326.734	3.54
326.866	-2.46
326.997	-34.46
327.129	-18.46
327.261	-13.46
327.392	-0.46
327.524	-4.46
327.656	1.54
327.787	22.54
327.919	5.54
328.051	14.54
328.182	22.54
328.314	8.54
328.446	-2.46
328.577	11.54
328.709	11.54
328.841	-14.46
328.972	-5.46
329.104	-5.46
329.235	4.54
329.367	-1.46
329.499	-6.46
329.63	18.54
329.762	20.54
329.893	11.54
330.025	-18.46
330.156	-7.46
330.288	14.54
330.419	31.54
330.551	10.54
330.683	6.54
330.814	5.54
330.946	5.54
331.077	-7.46
331.208	-0.46
331.34	-17.46
331.471	-13.46
331.603	16.54
331.734	-25.46
331.866	-12.46
331.997	4.54
332.129	10.54
332.26	7.54
332.392	8.54
332.523	1.54
332.654	-11.46
332.786	19.54
332.917	-11.46
333.048	3.54
333.18	25.54
333.311	6.54
333.443	1.54
333.574	-8.46
333.705	27.54
333.837	-7.46
333.968	9.54
334.099	4.54
334.231	19.54
334.362	16.54
334.493	1.54
334.624	2.54
334.756	-0.46
334.887	1.54
335.018	11.54
335.15	7.54
335.281	-1.46
335.412	11.54
335.543	12.54
335.675	-14.46
335.806	7.54
335.937	2.54
336.068	10.54
336.199	31.54
336.331	-10.46
336.462	3.54
336.593	31.54
336.724	8.54
336.855	5.54
336.986	-2.46
337.118	10.54
337.249	9.54
337.38	4.54
337.511	18.54
337.642	10.54
337.773	1.54
337.904	15.54
338.035	3.54
338.166	13.54
338.298	20.54
338.429	-2.46
338.56	6.54
338.691	17.54
338.822	12.54
338.953	32.54
339.084	13.54
339.215	9.54
339.346	0.54
339.477	7.54
339.608	10.54
339.739	-8.46
339.87	10.54
340.001	-7.46
340.132	15.54
340.263	10.54
340.394	-1.46
340.525	-4.46
340.656	-4.46
340.787	-1.46
340.918	28.54
341.049	5.54
341.179	3.54
341.31	-6.46
341.441	7.54
341.572	16.54
341.703	1.54
341.834	-2.46
341.965	22.54
342.096	20.54
342.227	1.54
342.357	11.54
342.488	1.54
342.619	9.54
342.75	-0.46
342.881	10.54
343.012	17.54
343.142	36.54
343.273	2.54
343.404	33.54
343.535	35.54
343.666	23.54
343.796	8.54
343.927	21.54
344.058	0.54
344.189	16.54
344.319	-2.46
344.45	15.54
344.581	8.54
344.712	-11.46
344.842	15.54
344.973	-3.46
345.104	4.54
345.234	9.54
345.365	-12.46
345.496	-7.46
345.626	12.54
345.757	16.54
345.888	-1.46
346.018	12.54
346.149	1.54
346.28	18.54
346.41	7.54
346.541	11.54
346.672	-7.46
346.802	22.54
346.933	21.54
347.063	7.54
347.194	13.54
347.325	1.54
347.455	3.54
347.586	4.54
347.716	-1.46
347.847	16.54
347.977	16.54
348.108	21.54
348.238	12.54
348.369	5.54
348.499	20.54
348.63	11.54
348.76	1.54
348.891	9.54
349.021	15.54
349.152	3.54
349.282	4.54
349.413	-11.46
349.543	24.54
349.674	5.54
349.804	-7.46
349.935	-11.46
350.065	0.54
350.196	1.54
350.326	5.54
350.456	14.54
350.587	18.54
350.717	-0.46
350.848	24.54
350.978	19.54
351.108	-12.46
351.239	22.54
351.369	-4.46
351.499	-8.46
351.63	-11.46
351.76	4.54
351.89	7.54
352.021	7.54
352.151	-27.46
352.281	12.54
352.412	14.54
352.542	4.54
352.672	10.54
352.803	18.54
352.933	9.54
353.063	14.54
353.193	-2.46
353.324	5.54
353.454	27.54
353.584	25.54
353.714	10.54
353.845	11.54
353.975	-8.46
354.105	2.54
354.235	-4.46
354.365	5.54
354.496	9.54
354.626	15.54
354.756	10.54
354.886	5.54
355.016	31.54
355.146	-8.46
355.277	7.54
355.407	11.54
355.537	-1.46
355.667	9.54
355.797	-2.46
355.927	-7.46
356.057	9.54
356.187	6.54
356.318	-11.46
356.448	-0.46
356.578	10.54
356.708	11.54
356.838	13.54
356.968	1.54
357.098	4.54
357.228	9.54
357.358	-20.46
357.488	19.54
357.618	28.54
357.748	16.54
357.878	11.54
358.008	-2.46
358.138	3.54
358.268	3.54
358.398	20.54
358.528	2.54
358.658	21.54
358.788	10.54
358.918	-4.46
359.048	-6.46
359.178	20.54
359.308	17.54
359.438	41.54
359.568	15.54
359.698	17.54
359.827	2.54
359.957	4.54
360.087	10.54
360.217	7.54
360.347	14.54
360.477	6.54
360.607	-22.46
360.737	6.54
360.866	7.54
360.996	-2.46
361.126	12.54
361.256	44.54
361.386	14.54
361.516	4.54
361.645	2.54
361.775	16.54
361.905	-10.46
362.035	9.54
362.165	4.54
362.294	7.54
362.424	10.54
362.554	-1.46
362.684	-8.46
362.813	4.54
362.943	18.54
363.073	-8.46
363.203	-0.46
363.332	26.54
363.462	-6.46
363.592	-11.46
363.721	0.54
363.851	8.54
363.981	12.54
364.111	26.54
364.24	6.54
364.37	30.54
364.5	20.54
364.629	24.54
364.759	10.54
364.888	-14.46
365.018	10.54
365.148	-17.46
365.277	7.54
365.407	13.54
365.537	22.54
365.666	13.54
365.796	9.54
365.925	3.54
366.055	18.54
366.184	-2.46
366.314	-10.46
366.444	16.54
366.573	2.54
366.703	1.54
366.832	21.54
366.962	29.54
367.091	13.54
367.221	1.54
367.35	2.54
367.48	24.54
367.609	0.54
367.739	1.54
367.868	-5.46
367.998	-6.46
368.127	6.54
368.257	14.54
368.386	25.54
368.516	13.54
368.645	-0.46
368.775	19.54
368.904	3.54
369.033	-19.46
369.163	8.54
369.292	22.54
369.422	18.54
369.551	20.54
369.68	16.54
369.81	-2.46
369.939	2.54
370.069	34.54
370.198	15.54
370.327	0.54
370.457	6.54
370.586	-1.46
370.715	9.54
370.845	1.54
370.974	14.54
371.103	10.54
371.233	16.54
371.362	17.54
371.491	1.54
371.621	26.54
371.75	20.54
371.879	-0.46
372.008	10.54
372.138	14.54
372.267	10.54
372.396	3.54
372.525	0.54
372.655	7.54
372.784	5.54
372.913	-4.46
373.042	17.54
373.172	7.54
373.301	-19.46
373.43	-3.46
373.559	15.54
373.688	18.54
373.818	6.54
373.947	8.54
374.076	-3.46
374.205	6.54
374.334	-5.46
374.463	2.54
374.593	18.54
374.722	16.54
374.851	25.54
374.98	1.54
375.109	5.54
375.238	-0.46
375.367	32.54
375.496	-0.46
375.625	-7.46
375.755	12.54
375.884	27.54
376.013	18.54
376.142	-0.46
376.271	3.54
376.4	6.54
376.529	6.54
376.658	11.54
376.787	11.54
376.916	7.54
377.045	5.54
377.174	10.54
377.303	-3.46
377.432	21.54
377.561	18.54
377.69	4.54
377.819	32.54
377.948	-2.46
378.077	-10.46
378.206	2.54
378.335	-9.46
378.464	1.54
378.593	29.54
378.722	-13.46
378.851	-13.46
378.98	25.54
379.108	-5.46
379.237	-14.46
379.366	5.54
379.495	15.54
379.624	6.54
379.753	8.54
379.882	4.54
380.011	7.54
380.14	-5.46
380.268	-4.46
380.397	-8.46
380.526	12.54
380.655	5.54
380.784	-28.46
380.913	-9.46
381.041	-16.46
381.17	-7.46
381.299	20.54
381.428	32.54
381.557	22.54
381.685	-9.46
381.814	-8.46
381.943	0.54
382.072	-12.46
382.2	-18.46
382.329	1.54
382.458	-5.46
382.587	8.54
382.715	12.54
382.844	-4.46
382.973	17.54
383.102	12.54
383.23	16.54
383.359	8.54
383.488	16.54
383.616	22.54
383.745	-5.46
383.874	13.54
384.003	8.54
384.131	-11.46
384.26	-2.46
384.389	-7.46
384.517	11.54
384.646	-6.46
384.774	-0.46
384.903	32.54
385.032	10.54
385.16	-6.46
385.289	-1.46
385.418	1.54
385.546	7.54
385.675	1.54
385.803	6.54
385.932	9.54
386.06	-15.46
386.189	-9.46
386.318	9.54
386.446	18.54
386.575	18.54
386.703	21.54
386.832	-2.46
386.96	-12.46
387.089	29.54
387.217	20.54
387.346	-6.46
387.474	3.54
387.603	15.54
387.731	-2.46
387.86	13.54
387.988	0.54
388.117	21.54
388.245	5.54
388.374	12.54
388.502	25.54
388.631	-5.46
388.759	-7.46
388.888	9.54
389.016	-8.46
389.144	-10.46
389.273	7.54
389.401	11.54
389.53	-8.46
389.658	13.54
389.786	-9.46
389.915	-9.46
390.043	14.54
390.172	5.54
390.3	15.54
390.428	20.54
390.557	-7.46
390.685	29.54
390.813	33.54
390.942	2.54
391.07	12.54
391.198	-6.46
391.327	-10.46
391.455	-13.46
391.583	23.54
391.712	12.54
391.84	24.54
391.968	4.54
392.096	-0.46
392.225	-9.46
392.353	27.54
392.481	10.54
392.609	30.54
392.738	3.54
392.866	7.54
392.994	-19.46
393.122	26.54
393.251	13.54
393.379	9.54
393.507	-7.46
393.635	-5.46
393.764	13.54
393.892	11.54
394.02	11.54
394.148	-6.46
394.276	-17.46
394.404	28.54
394.533	8.54
394.661	12.54
394.789	30.54
394.917	33.54
395.045	2.54
395.173	-9.46
395.302	3.54
395.43	6.54
395.558	3.54
395.686	6.54
395.814	10.54
395.942	4.54
396.07	9.54
396.198	9.54
396.326	10.54
396.454	17.54
396.582	22.54
396.711	-5.46
396.839	2.54
396.967	22.54
397.095	7.54
397.223	22.54
397.351	20.54
397.479	31.54
397.607	17.54
397.735	25.54
397.863	23.54
397.991	15.54
398.119	9.54
398.247	2.54
398.375	-3.46
398.503	10.54
398.631	8.54
398.759	8.54
398.887	-9.46
399.015	9.54
399.143	-0.46
399.271	10.54
399.399	-4.46
399.526	13.54
399.654	41.54
399.782	-13.46
399.91	13.54
400.038	22.54
400.166	-4.46
400.294	12.54
400.422	-5.46
400.55	20.54
400.678	-11.46
400.805	-0.46
400.933	2.54
401.061	-0.46
401.189	4.54
401.317	28.54
401.445	23.54
401.573	12.54
401.7	3.54
401.828	-11.46
401.956	-5.46
402.084	10.54
402.212	10.54
402.34	14.54
402.467	7.54
402.595	11.54
402.723	15.54
402.851	15.54
402.978	8.54
403.106	15.54
403.234	12.54
403.362	37.54
403.489	20.54
403.617	25.54
403.745	-5.46
403.873	-10.46
404	17.54
404.128	3.54
404.256	22.54
404.384	19.54
404.511	28.54
404.639	-4.46
404.767	-11.46
404.894	3.54
405.022	2.54
405.15	15.54
405.277	4.54
405.405	-2.46
405.533	10.54
405.66	-5.46
405.788	-22.46
405.916	-9.46
406.043	-7.46
406.171	1.54
406.299	9.54
406.426	9.54
406.554	17.54
406.681	20.54
406.809	17.54
406.937	4.54
407.064	4.54
407.192	14.54
407.319	6.54
407.447	2.54
407.574	33.54
407.702	9.54
407.83	-3.46
407.957	4.54
408.085	3.54
408.212	-2.46
408.34	-1.46
408.467	-1.46
408.595	14.54
408.722	20.54
408.85	21.54
408.977	1.54
409.105	5.54
409.232	0.54
409.36	4.54
409.487	6.54
409.615	23.54
409.742	33.54
409.87	33.54
409.997	42.54
410.125	52.54
410.252	52.54
410.379	54.54
410.507	30.54
410.634	15.54
410.762	23.54
410.889	11.54
411.017	-2.46
411.144	13.54
411.271	13.54
411.399	25.54
411.526	14.54
411.653	26.54
411.781	20.54
411.908	2.54
412.036	2.54
412.163	11.54
412.29	18.54
412.418	16.54
412.545	11.54
412.672	13.54
412.8	10.54
412.927	7.54
413.054	16.54
413.182	20.54
413.309	6.54
413.436	11.54
413.564	3.54
413.691	10.54
413.818	22.54
413.945	-6.46
414.073	3.54
414.2	4.54
414.327	5.54
414.454	23.54
414.582	3.54
414.709	-17.46
414.836	15.54
414.963	20.54
415.091	9.54
415.218	1.54
415.345	1.54
415.472	11.54
415.6	5.54
415.727	38.54
415.854	25.54
415.981	7.54
416.108	5.54
416.236	8.54
416.363	21.54
416.49	7.54
416.617	6.54
416.744	9.54
416.871	17.54
416.998	9.54
417.126	19.54
417.253	-0.46
417.38	3.54
417.507	14.54
417.634	29.54
417.761	25.54
417.888	24.54
418.015	19.54
418.143	15.54
418.27	27.54
418.397	12.54
418.524	15.54
418.651	8.54
418.778	16.54
418.905	33.54
419.032	9.54
419.159	8.54
419.286	40.54
419.413	21.54
419.54	20.54
419.667	-23.46
419.794	-9.46
419.921	-3.46
420.048	11.54
420.175	12.54
420.302	10.54
420.429	10.54
420.556	13.54
420.683	-14.46
420.81	-12.46
420.937	10.54
421.064	13.54
421.191	8.54
421.318	7.54
421.445	35.54
421.572	-4.46
421.699	33.54
421.826	22.54
421.953	6.54
422.08	15.54
422.207	16.54
422.334	-17.46
422.461	22.54
422.588	21.54
422.714	12.54
422.841	21.54
422.968	18.54
423.095	4.54
423.222	5.54
423.349	39.54
423.476	21.54
423.603	-17.46
423.729	10.54
423.856	2.54
423.983	24.54
424.11	0.54
424.237	6.54
424.364	7.54
424.491	2.54
424.617	4.54
424.744	4.54
424.871	0.54
424.998	10.54
425.125	1.54
425.251	16.54
425.378	5.54
425.505	13.54
425.632	15.54
425.758	4.54
425.885	10.54
426.012	22.54
426.139	29.54
426.266	-3.46
426.392	18.54
426.519	4.54
426.646	6.54
426.772	22.54
426.899	14.54
427.026	28.54
427.153	14.54
427.279	19.54
427.406	18.54
427.533	7.54
427.659	12.54
427.786	22.54
427.913	22.54
428.039	5.54
428.166	-7.46
428.293	-10.46
428.419	20.54
428.546	10.54
428.673	-9.46
428.799	-2.46
428.926	13.54
429.053	27.54
429.179	29.54
429.306	11.54
429.433	28.54
429.559	16.54
429.686	-0.46
429.812	4.54
429.939	4.54
430.066	9.54
430.192	-5.46
430.319	8.54
430.445	4.54
430.572	14.54
430.699	-5.46
430.825	9.54
430.952	13.54
431.078	16.54
431.205	31.54
431.331	-7.46
431.458	1.54
431.584	29.54
431.711	3.54
431.837	6.54
431.964	4.54
432.09	10.54
432.217	-3.46
432.343	-1.46
432.47	8.54
432.596	16.54
432.723	3.54
432.849	4.54
432.976	15.54
433.102	16.54
433.229	15.54
433.355	24.54
433.482	71.54
433.608	160.54
433.735	138.54
433.861	141.54
433.987	156.54
434.114	245.54
434.24	218.54
434.367	65.54
434.493	-2.46
434.62	33.54
434.746	26.54
434.872	10.54
434.999	26.54
435.125	8.54
435.252	-9.46
435.378	10.54
435.504	-7.46
435.631	15.54
435.757	4.54
435.883	14.54
436.01	13.54
436.136	6.54
436.262	-1.46
436.389	12.54
436.515	33.54
436.641	22.54
436.768	12.54
436.894	6.54
437.02	12.54
437.147	24.54
437.273	17.54
437.399	9.54
437.526	33.54
437.652	15.54
437.778	14.54
437.904	-9.46
438.031	14.54
438.157	3.54
438.283	12.54
438.409	-4.46
438.536	1.54
438.662	20.54
438.788	10.54
438.914	24.54
439.041	27.54
439.167	34.54
439.293	-4.46
439.419	18.54
439.546	21.54
439.672	-1.46
439.798	23.54
439.924	15.54
440.05	25.54
440.177	29.54
440.303	13.54
440.429	5.54
440.555	7.54
440.681	9.54
440.807	23.54
440.934	23.54
441.06	13.54
441.186	8.54
441.312	18.54
441.438	18.54
441.564	33.54
441.69	15.54
441.816	8.54
441.943	0.54
442.069	14.54
442.195	29.54
442.321	29.54
442.447	-2.46
442.573	10.54
442.699	8.54
442.825	-8.46
442.951	28.54
443.077	2.54
443.203	19.54
443.33	8.54
443.456	-6.46
443.582	1.54
443.708	11.54
443.834	13.54
443.96	13.54
444.086	2.54
444.212	39.54
444.338	39.54
444.464	31.54
444.59	20.54
444.716	9.54
444.842	13.54
444.968	-3.46
445.094	4.54
445.22	-1.46
445.346	-13.46
445.472	8.54
445.598	10.54
445.724	2.54
445.85	10.54
445.976	5.54
446.102	35.54
446.228	24.54
446.354	2.54
446.48	1.54
446.605	-0.46
446.731	10.54
446.857	2.54
446.983	10.54
447.109	8.54
447.235	1.54
447.361	-6.46
447.487	10.54
447.613	17.54
447.739	20.54
447.865	12.54
447.99	18.54
448.116	2.54
448.242	12.54
448.368	6.54
448.494	-7.46
448.62	7.54
448.746	9.54
448.872	5.54
448.997	-3.46
449.123	26.54
449.249	33.54
449.375	8.54
449.501	5.54
449.627	8.54
449.752	31.54
449.878	8.54
450.004	2.54
450.13	12.54
450.256	10.54
450.381	-6.46
450.507	25.54
450.633	20.54
450.759	46.54
450.884	10.54
451.01	21.54
451.136	18.54
451.262	10.54
451.388	-6.46
451.513	-2.46
451.639	21.54
451.765	13.54
451.89	17.54
452.016	3.54
452.142	-3.46
452.268	16.54
452.393	5.54
452.519	8.54
452.645	7.54
452.771	-10.46
452.896	5.54
453.022	4.54
453.148	3.54
453.273	14.54
453.399	11.54
453.525	-0.46
453.65	-3.46
453.776	23.54
453.902	18.54
454.027	31.54
454.153	28.54
454.279	20.54
454.404	15.54
454.53	27.54
454.656	12.54
454.781	4.54
454.907	1.54
455.032	15.54
455.158	30.54
455.284	25.54
455.409	18.54
455.535	22.54
455.66	16.54
455.786	28.54
455.912	19.54
456.037	4.54
456.163	29.54
456.288	20.54
456.414	-19.46
456.539	0.54
456.665	19.54
456.791	3.54
456.916	5.54
457.042	13.54
457.167	-12.46
457.293	8.54
457.418	-5.46
457.544	4.54
457.669	10.54
457.795	21.54
457.92	27.54
458.046	23.54
458.171	-2.46
458.297	-1.46
458.422	-7.46
458.548	10.54
458.673	21.54
458.799	12.54
458.924	0.54
459.05	5.54
459.175	16.54
459.301	1.54
459.426	12.54
459.552	17.54
459.677	6.54
459.803	15.54
459.928	7.54
460.053	13.54
460.179	20.54
460.304	29.54
460.43	2.54
460.555	9.54
460.681	15.54
460.806	14.54
460.931	14.54
461.057	26.54
461.182	14.54
461.308	14.54
461.433	20.54
461.558	11.54
461.684	22.54
461.809	24.54
461.934	6.54
462.06	29.54
462.185	-14.46
462.311	4.54
462.436	30.54
462.561	15.54
462.687	13.54
462.812	18.54
462.937	-11.46
463.063	-7.46
463.188	-2.46
463.313	19.54
463.439	6.54
463.564	9.54
463.689	19.54
463.814	30.54
463.94	7.54
464.065	20.54
464.19	25.54
464.316	-11.46
464.441	5.54
464.566	-5.46
464.692	2.54
464.817	7.54
464.942	9.54
465.067	23.54
465.193	-14.46
465.318	13.54
465.443	10.54
465.568	23.54
465.694	3.54
465.819	33.54
465.944	30.54
466.069	17.54
466.194	15.54
466.32	15.54
466.445	1.54
466.57	7.54
466.695	9.54
466.82	41.54
466.946	37.54
467.071	2.54
467.196	2.54
467.321	18.54
467.446	16.54
467.572	22.54
467.697	-5.46
467.822	2.54
467.947	9.54
468.072	17.54
468.197	0.54
468.323	6.54
468.448	21.54
468.573	6.54
468.698	3.54
468.823	19.54
468.948	8.54
469.073	14.54
469.198	26.54
469.324	25.54
469.449	3.54
469.574	16.54
469.699	20.54
469.824	37.54
469.949	11.54
470.074	32.54
470.199	53.54
470.324	30.54
470.449	16.54
470.574	-0.46
470.7	-2.46
470.825	25.54
470.95	17.54
471.075	14.54
471.2	15.54
471.325	28.54
471.45	5.54
471.575	6.54
471.7	28.54
471.825	16.54
471.95	6.54
472.075	-3.46
472.2	7.54
472.325	11.54
472.45	10.54
472.575	9.54
472.7	8.54
472.825	32.54
472.95	26.54
473.075	6.54
473.2	6.54
473.325	10.54
473.45	-1.46
473.575	7.54
473.7	13.54
473.825	5.54
473.95	16.54
474.075	17.54
474.2	11.54
474.325	6.54
474.45	28.54
474.574	12.54
474.699	18.54
474.824	-2.46
474.949	3.54
475.074	13.54
475.199	30.54
475.324	10.54
475.449	24.54
475.574	17.54
475.699	13.54
475.824	1.54
475.949	12.54
476.073	19.54
476.198	11.54
476.323	-2.46
476.448	6.54
476.573	4.54
476.698	8.54
476.823	6.54
476.947	11.54
477.072	18.54
477.197	3.54
477.322	0.54
477.447	4.54
477.572	24.54
477.697	8.54
477.821	16.54
477.946	10.54
478.071	19.54
478.196	1.54
478.321	13.54
478.445	-4.46
478.57	-4.46
478.695	5.54
478.82	24.54
478.945	23.54
479.069	4.54
479.194	2.54
479.319	22.54
479.444	-7.46
479.569	4.54
479.693	17.54
479.818	13.54
479.943	27.54
480.068	27.54
480.192	26.54
480.317	5.54
480.442	7.54
480.567	7.54
480.691	20.54
480.816	8.54
480.941	4.54
481.066	36.54
481.19	22.54
481.315	12.54
481.44	-0.46
481.564	0.54
481.689	14.54
481.814	12.54
481.938	16.54
482.063	3.54
482.188	24.54
482.313	37.54
482.437	16.54
482.562	12.54
482.687	18.54
482.811	23.54
482.936	20.54
483.061	36.54
483.185	23.54
483.31	29.54
483.435	17.54
483.559	23.54
483.684	15.54
483.808	30.54
483.933	-0.46
484.058	8.54
484.182	13.54
484.307	21.54
484.432	13.54
484.556	7.54
484.681	5.54
484.805	25.54
484.93	38.54
485.055	54.54
485.179	77.54
485.304	134.54
485.428	376.54
485.553	1303.54
485.678	1795.54
485.802	1669.54
485.927	1822.54
486.051	2734.54
486.176	1652.54
486.3	454.54
486.425	156.54
486.549	93.54
486.674	60.54
486.799	54.54
486.923	21.54
487.048	23.54
487.172	23.54
487.297	28.54
487.421	34.54
487.546	17.54
487.67	27.54
487.795	23.54
487.919	28.54
488.044	43.54
488.168	25.54
488.293	14.54
488.417	5.54
488.542	14.54
488.666	17.54
488.791	18.54
488.915	3.54
489.04	24.54
489.164	31.54
489.289	44.54
489.413	5.54
489.538	17.54
489.662	33.54
489.786	5.54
489.911	9.54
490.035	14.54
490.16	14.54
490.284	6.54
490.409	27.54
490.533	21.54
490.658	37.54
490.782	22.54
490.906	8.54
491.031	15.54
491.155	16.54
491.28	39.54
491.404	24.54
491.528	41.54
491.653	20.54
491.777	40.54
491.902	20.54
492.026	27.54
492.15	19.54
492.275	36.54
492.399	4.54
492.524	17.54
492.648	28.54
492.772	33.54
492.897	34.54
493.021	28.54
493.145	41.54
493.27	38.54
493.394	13.54
493.518	6.54
493.643	-7.46
493.767	43.54
493.891	-3.46
494.016	13.54
494.14	10.54
494.264	28.54
494.389	15.54
494.513	4.54
494.637	1.54
494.762	-2.46
494.886	32.54
495.01	31.54
495.134	31.54
495.259	34.54
495.383	7.54
495.507	8.54
495.632	26.54
495.756	52.54
495.88	41.54
496.004	17.54
496.129	2.54
496.253	17.54
496.377	21.54
496.501	35.54
496.626	-6.46
496.75	10.54
496.874	-7.46
496.998	17.54
497.123	33.54
497.247	1.54
497.371	3.54
497.495	12.54
497.62	16.54
497.744	10.54
497.868	5.54
497.992	11.54
498.116	5.54
498.241	17.54
498.365	20.54
498.489	8.54
498.613	25.54
498.737	10.54
498.862	0.54
498.986	19.54
499.11	13.54
499.234	10.54
499.358	4.54
499.482	9.54
499.607	0.54
499.731	10.54
499.855	15.54
499.979	32.54
500.103	29.54
500.227	28.54
500.351	16.54
500.476	5.54
500.6	12.54
500.724	22.54
500.848	4.54
500.972	34.54
501.096	9.54
501.22	23.54
501.344	7.54
501.469	11.54
501.593	10.54
501.717	5.54
501.841	31.54
501.965	18.54
502.089	-1.46
502.213	27.54
502.337	7.54
502.461	-8.46
502.585	10.54
502.709	8.54
502.834	2.54
502.958	7.54
503.082	-3.46
503.206	12.54
503.33	18.54
503.454	12.54
503.578	23.54
503.702	29.54
503.826	0.54
503.95	37.54
504.074	-1.46
504.198	-5.46
504.322	-1.46
504.446	12.54
504.57	13.54
504.694	11.54
504.818	5.54
504.942	23.54
505.066	22.54
505.19	25.54
505.314	27.54
505.438	14.54
505.562	11.54
505.686	26.54
505.81	21.54
505.934	23.54
506.058	23.54
506.182	32.54
506.306	27.54
506.43	9.54
506.554	34.54
506.678	12.54
506.802	17.54
506.926	19.54
507.05	31.54
507.174	36.54
507.298	29.54
507.422	19.54
507.546	6.54
507.67	27.54
507.794	-9.46
507.918	10.54
508.042	6.54
508.165	6.54
508.289	-13.46
508.413	-3.46
508.537	-3.46
508.661	0.54
508.785	10.54
508.909	28.54
509.033	3.54
509.157	20.54
509.281	24.54
509.405	4.54
509.528	19.54
509.652	24.54
509.776	14.54
509.9	19.54
510.024	3.54
510.148	16.54
510.272	0.54
510.396	18.54
510.519	7.54
510.643	17.54
510.767	1.54
510.891	18.54
511.015	5.54
511.139	12.54
511.263	33.54
511.386	17.54
511.51	26.54
511.634	9.54
511.758	11.54
511.882	1.54
512.006	34.54
512.129	36.54
512.253	36.54
512.377	11.54
512.501	26.54
512.625	26.54
512.748	11.54
512.872	13.54
512.996	-3.46
513.12	11.54
513.244	2.54
513.367	1.54
513.491	17.54
513.615	14.54
513.739	24.54
513.862	29.54
513.986	7.54
514.11	20.54
514.234	-9.46
514.358	26.54
514.481	21.54
514.605	9.54
514.729	26.54
514.853	10.54
514.976	-0.46
515.1	14.54
515.224	17.54
515.348	-4.46
515.471	-3.46
515.595	8.54
515.719	7.54
515.842	24.54
515.966	20.54
516.09	25.54
516.214	17.54
516.337	49.54
516.461	29.54
516.585	18.54
516.708	23.54
516.832	-1.46
516.956	25.54
517.08	17.54
517.203	13.54
517.327	10.54
517.451	51.54
517.574	46.54
517.698	15.54
517.822	-1.46
517.945	31.54
518.069	22.54
518.193	52.54
518.316	28.54
518.44	33.54
518.564	12.54
518.687	7.54
518.811	31.54
518.935	56.54
519.058	33.54
519.182	18.54
519.306	32.54
519.429	21.54
519.553	58.54
519.676	40.54
519.8	7.54
519.924	-9.46
520.047	17.54
520.171	2.54
520.294	17.54
520.418	-0.46
520.542	-0.46
520.665	16.54
520.789	17.54
520.913	-3.46
521.036	-0.46
521.16	11.54
521.283	-6.46
521.407	2.54
521.53	10.54
521.654	-13.46
521.778	20.54
521.901	14.54
522.025	16.54
522.148	2.54
522.272	28.54
522.395	12.54
522.519	30.54
522.643	0.54
522.766	-3.46
522.89	4.54
523.013	5.54
523.137	-10.46
523.26	17.54
523.384	10.54
523.507	25.54
523.631	11.54
523.754	12.54
523.878	8.54
524.002	5.54
524.125	-9.46
524.249	-19.46
524.372	1.54
524.496	18.54
524.619	12.54
524.743	16.54
524.866	14.54
524.99	18.54
525.113	7.54
525.237	34.54
525.36	15.54
525.484	4.54
525.607	-3.46
525.731	-1.46
525.854	8.54
525.978	31.54
526.101	1.54
526.224	10.54
526.348	5.54
526.471	2.54
526.595	13.54
526.718	14.54
526.842	-5.46
526.965	32.54
527.089	3.54
527.212	20.54
527.336	5.54
527.459	19.54
527.582	15.54
527.706	22.54
527.829	4.54
527.953	18.54
528.076	10.54
528.2	-2.46
528.323	22.54
528.446	22.54
528.57	6.54
528.693	31.54
528.817	11.54
528.94	43.54
529.064	34.54
529.187	17.54
529.31	6.54
529.434	11.54
529.557	3.54
529.68	8.54
529.804	-9.46
529.927	24.54
530.051	24.54
530.174	16.54
530.297	16.54
530.421	44.54
530.544	15.54
530.668	13.54
530.791	3.54
530.914	13.54
531.038	-7.46
531.161	11.54
531.284	4.54
531.408	9.54
531.531	14.54
531.654	-2.46
531.778	6.54
531.901	3.54
532.024	4.54
532.148	2.54
532.271	-7.46
532.394	2.54
532.518	18.54
532.641	28.54
532.764	44.54
532.888	17.54
533.011	6.54
533.134	16.54
533.258	38.54
533.381	24.54
533.504	7.54
533.628	11.54
533.751	10.54
533.874	17.54
533.997	11.54
534.121	-3.46
534.244	11.54
534.367	16.54
534.491	14.54
534.614	10.54
534.737	10.54
534.86	7.54
534.984	0.54
535.107	8.54
535.23	17.54
535.354	-4.46
535.477	-4.46
535.6	1.54
535.723	9.54
535.847	10.54
535.97	-2.46
536.093	17.54
536.216	-15.46
536.34	22.54
536.463	4.54
536.586	8.54
536.709	14.54
536.833	19.54
536.956	-3.46
537.079	9.54
537.202	18.54
537.325	-6.46
537.449	-0.46
537.572	44.54
537.695	-1.46
537.818	12.54
537.941	14.54
538.065	3.54
538.188	-6.46
538.311	4.54
538.434	25.54
538.558	35.54
538.681	27.54
538.804	18.54
538.927	22.54
539.05	22.54
539.173	6.54
539.297	0.54
539.42	9.54
539.543	14.54
539.666	18.54
539.789	14.54
539.913	3.54
540.036	0.54
540.159	10.54
540.282	-13.46
540.405	0.54
540.528	7.54
540.651	22.54
540.775	-2.46
540.898	10.54
541.021	1.54
541.144	22.54
541.267	18.54
541.39	14.54
541.513	15.54
541.637	-14.46
541.76	-1.46
541.883	11.54
542.006	16.54
542.129	14.54
542.252	2.54
542.375	-3.46
542.498	15.54
542.622	31.54
542.745	16.54
542.868	17.54
542.991	18.54
543.114	15.54
543.237	28.54
543.36	26.54
543.483	21.54
543.606	10.54
543.73	26.54
543.853	6.54
543.976	13.54
544.099	23.54
544.222	6.54
544.345	-10.46
544.468	13.54
544.591	13.54
544.714	14.54
544.837	48.54
544.96	10.54
545.083	17.54
545.206	18.54
545.329	31.54
545.453	15.54
545.576	17.54
545.699	18.54
545.822	17.54
545.945	23.54
546.068	-6.46
546.191	14.54
546.314	9.54
546.437	15.54
546.56	13.54
546.683	12.54
546.806	12.54
546.929	-1.46
547.052	-6.46
547.175	28.54
547.298	7.54
547.421	-5.46
547.544	15.54
547.667	11.54
547.79	3.54
547.913	0.54
548.036	3.54
548.159	9.54
548.282	5.54
548.405	12.54
548.528	29.54
548.651	1.54
548.774	0.54
548.897	28.54
549.02	34.54
549.143	33.54
549.266	3.54
549.389	26.54
549.512	-6.46
549.635	10.54
549.758	23.54
549.881	3.54
550.004	21.54
550.127	25.54
550.25	0.54
550.373	-4.46
550.496	21.54
550.619	16.54
550.742	0.54
550.865	-4.46
550.988	9.54
551.111	32.54
551.234	19.54
551.356	9.54
551.479	-13.46
551.602	7.54
551.725	14.54
551.848	25.54
551.971	24.54
552.094	22.54
552.217	0.54
552.34	7.54
552.463	-7.46
552.586	10.54
552.709	-5.46
552.832	-3.46
552.955	0.54
553.077	-2.46
553.2	15.54
553.323	-5.46
553.446	11.54
553.569	11.54
553.692	17.54
553.815	10.54
553.938	19.54
554.061	30.54
554.184	9.54
554.306	18.54
554.429	-0.46
554.552	11.54
554.675	-6.46
554.798	5.54
554.921	11.54
555.044	-1.46
555.167	4.54
555.29	16.54
555.412	16.54
555.535	10.54
555.658	2.54
555.781	19.54
555.904	27.54
556.027	12.54
556.15	11.54
556.272	20.54
556.395	18.54
556.518	0.54
556.641	9.54
556.764	35.54
556.887	35.54
557.01	23.54
557.132	-6.46
557.255	-0.46
557.378	20.54
557.501	4.54
557.624	7.54
557.747	17.54
557.869	9.54
557.992	18.54
558.115	22.54
558.238	14.54
558.361	14.54
558.483	28.54
558.606	9.54
558.729	2.54
558.852	29.54
558.975	33.54
559.098	26.54
559.22	11.54
559.343	14.54
559.466	19.54
559.589	13.54
559.712	9.54
559.834	23.54
559.957	16.54
560.08	10.54
560.203	33.54
560.325	25.54
560.448	38.54
560.571	17.54
560.694	-2.46
560.817	21.54
560.939	9.54
561.062	7.54
561.185	22.54
561.308	4.54
561.43	13.54
561.553	9.54
561.676	-18.46
561.799	13.54
561.921	15.54
562.044	-0.46
562.167	18.54
562.29	28.54
562.413	14.54
562.535	17.54
562.658	13.54
562.781	5.54
562.903	1.54
563.026	21.54
563.149	37.54
563.272	13.54
563.394	-1.46
563.517	1.54
563.64	-14.46
563.763	1.54
563.885	27.54
564.008	32.54
564.131	8.54
564.254	3.54
564.376	22.54
564.499	-9.46
564.622	-2.46
564.744	27.54
564.867	13.54
564.99	17.54
565.113	10.54
565.235	2.54
565.358	-7.46
565.481	9.54
565.603	12.54
565.726	3.54
565.849	22.54
565.971	13.54
566.094	8.54
566.217	11.54
566.34	10.54
566.462	18.54
566.585	18.54
566.708	22.54
566.83	16.54
566.953	21.54
567.076	18.54
567.198	8.54
567.321	-3.46
567.444	4.54
567.566	11.54
567.689	5.54
567.812	5.54
567.934	2.54
568.057	4.54
568.18	10.54
568.302	11.54
568.425	-7.46
568.548	17.54
568.67	7.54
568.793	8.54
568.916	10.54
569.038	12.54
569.161	2.54
569.283	24.54
569.406	22.54
569.529	17.54
569.651	-18.46
569.774	2.54
569.897	10.54
570.019	19.54
570.142	5.54
570.265	9.54
570.387	5.54
570.51	12.54
570.632	37.54
570.755	12.54
570.878	4.54
571	16.54
571.123	5.54
571.246	21.54
571.368	14.54
571.491	21.54
571.613	1.54
571.736	4.54
571.859	-1.46
571.981	5.54
572.104	9.54
572.226	24.54
572.349	-8.46
572.472	18.54
572.594	22.54
572.717	21.54
572.839	-1.46
572.962	23.54
573.085	15.54
573.207	4.54
573.33	7.54
573.452	23.54
573.575	31.54
573.697	13.54
573.82	1.54
573.943	9.54
574.065	35.54
574.188	4.54
574.31	19.54
574.433	16.54
574.555	33.54
574.678	1.54
574.801	26.54
574.923	21.54
575.046	33.54
575.168	1.54
575.291	4.54
575.413	9.54
575.536	13.54
575.659	5.54
575.781	-4.46
575.904	5.54
576.026	17.54
576.149	-4.46
576.271	9.54
576.394	5.54
576.516	10.54
576.639	23.54
576.761	4.54
576.884	-7.46
577.007	6.54
577.129	30.54
577.252	-2.46
577.374	18.54
577.497	1.54
577.619	-3.46
577.742	-1.46
577.864	26.54
577.987	14.54
578.109	22.54
578.232	1.54
578.354	19.54
578.477	20.54
578.599	14.54
578.722	6.54
578.844	8.54
578.967	11.54
579.089	4.54
579.212	4.54
579.334	23.54
579.457	15.54
579.579	16.54
579.702	-1.46
579.824	4.54
579.947	11.54
580.069	14.54
580.192	13.54
580.314	23.54
580.437	4.54
580.559	54.54
580.682	15.54
580.804	25.54
580.927	17.54
581.049	12.54
581.172	9.54
581.294	28.54
581.417	20.54
581.539	22.54
581.662	15.54
581.784	25.54
581.907	17.54
582.029	23.54
582.152	3.54
582.274	14.54
582.396	11.54
582.519	26.54
582.641	-15.46
582.764	-11.46
582.886	30.54
583.009	11.54
583.131	-6.46
583.254	10.54
583.376	31.54
583.499	17.54
583.621	17.54
583.743	22.54
583.866	17.54
583.988	22.54
584.111	10.54
584.233	13.54
584.356	21.54
584.478	27.54
584.601	-0.46
584.723	2.54
584.845	3.54
584.968	22.54
585.09	-10.46
585.213	29.54
585.335	2.54
585.458	5.54
585.58	11.54
585.702	21.54
585.825	13.54
585.947	-2.46
586.07	-6.46
586.192	-2.46
586.315	20.54
586.437	16.54
586.559	-2.46
586.682	3.54
586.804	0.54
586.927	11.54
587.049	-0.46
587.171	30.54
587.294	8.54
587.416	28.54
587.539	-5.46
587.661	2.54
587.783	0.54
587.906	14.54
588.028	6.54
588.151	10.54
588.273	26.54
588.395	7.54
588.518	13.54
588.64	16.54
588.763	10.54
588.885	23.54
589.007	21.54
589.13	1.54
589.252	-8.46
589.375	25.54
589.497	14.54
589.619	9.54
589.742	-9.46
589.864	8.54
589.986	-4.46
590.109	-11.46
590.231	-2.46
590.354	22.54
590.476	-2.46
590.598	12.54
590.721	3.54
590.843	30.54
590.965	20.54
591.088	10.54
591.21	0.54
591.332	20.54
591.455	-3.46
591.577	14.54
591.7	0.54
591.822	-3.46
591.944	18.54
592.067	8.54
592.189	-1.46
592.311	3.54
592.434	-3.46
592.556	16.54
592.678	19.54
592.801	9.54
592.923	1.54
593.045	2.54
593.168	4.54
593.29	5.54
593.412	10.54
593.535	16.54
593.657	6.54
593.779	13.54
593.902	20.54
594.024	20.54
594.146	38.54
594.269	12.54
594.391	6.54
594.513	-3.46
594.636	1.54
594.758	3.54
594.88	20.54
595.003	21.54
595.125	12.54
595.247	13.54
595.37	25.54
595.492	7.54
595.614	25.54
595.737	18.54
595.859	5.54
595.981	12.54
596.104	12.54
596.226	14.54
596.348	14.54
596.471	-7.46
596.593	10.54
596.715	3.54
596.838	8.54
596.96	-0.46
597.082	15.54
597.204	15.54
597.327	5.54
597.449	5.54
597.571	18.54
597.694	31.54
597.816	26.54
597.938	10.54
598.061	3.54
598.183	4.54
598.305	23.54
598.427	5.54
598.55	10.54
598.672	20.54
598.794	24.54
598.917	-5.46
599.039	0.54
599.161	9.54
599.283	12.54
599.406	24.54
599.528	16.54
599.65	41.54
599.773	11.54
599.895	25.54
600.017	34.54
600.139	15.54
600.262	1.54
600.384	17.54
600.506	10.54
600.628	30.54
600.751	20.54
600.873	10.54
600.995	0.54
601.118	21.54
601.24	21.54
601.362	24.54
601.484	28.54
601.607	10.54
601.729	4.54
601.851	6.54
601.973	-11.46
602.096	10.54
602.218	14.54
602.34	17.54
602.462	33.54
602.585	-1.46
602.707	-2.46
602.829	2.54
602.951	6.54
603.074	-3.46
603.196	10.54
603.318	6.54
603.44	39.54
603.563	20.54
603.685	3.54
603.807	17.54
603.929	2.54
604.052	26.54
604.174	25.54
604.296	26.54
604.418	20.54
604.541	42.54
604.663	4.54
604.785	1.54
604.907	20.54
605.03	6.54
605.152	41.54
605.274	10.54
605.396	8.54
605.519	12.54
605.641	14.54
605.763	-3.46
605.885	13.54
606.008	25.54
606.13	22.54
606.252	18.54
606.374	6.54
606.496	7.54
606.619	21.54
606.741	14.54
606.863	32.54
606.985	34.54
607.108	18.54
607.23	22.54
607.352	2.54
607.474	10.54
607.596	10.54
607.719	0.54
607.841	20.54
607.963	12.54
608.085	19.54
608.207	36.54
608.33	4.54
608.452	25.54
608.574	20.54
608.696	22.54
608.819	13.54
608.941	14.54
609.063	4.54
609.185	2.54
609.307	11.54
609.43	22.54
609.552	8.54
609.674	2.54
609.796	17.54
609.918	21.54
610.041	14.54
610.163	26.54
610.285	14.54
610.407	10.54
610.529	2.54
610.652	5.54
610.774	22.54
610.896	9.54
611.018	-18.46
611.14	12.54
611.263	14.54
611.385	13.54
611.507	13.54
611.629	0.54
611.751	2.54
611.873	43.54
611.996	23.54
612.118	24.54
612.24	6.54
612.362	6.54
612.484	6.54
612.607	15.54
612.729	36.54
612.851	7.54
612.973	10.54
613.095	3.54
613.218	11.54
613.34	20.54
613.462	10.54
613.584	8.54
613.706	17.54
613.828	32.54
613.951	5.54
614.073	-0.46
614.195	-19.46
614.317	29.54
614.439	29.54
614.561	27.54
614.684	10.54
614.806	5.54
614.928	14.54
615.05	13.54
615.172	27.54
615.294	33.54
615.417	7.54
615.539	-0.46
615.661	16.54
615.783	35.54
615.905	37.54
616.027	71.54
616.15	105.54
616.272	87.54
616.394	56.54
616.516	32.54
616.638	31.54
616.76	11.54
616.883	17.54
617.005	12.54
617.127	8.54
617.249	13.54
617.371	12.54
617.493	24.54
617.615	-7.46
617.738	12.54
617.86	16.54
617.982	4.54
618.104	1.54
618.226	-3.46
618.348	-6.46
618.471	25.54
618.593	13.54
618.715	-13.46
618.837	12.54
618.959	33.54
619.081	32.54
619.203	10.54
619.326	9.54
619.448	17.54
619.57	14.54
619.692	3.54
619.814	14.54
619.936	16.54
620.058	23.54
620.181	12.54
620.303	15.54
620.425	26.54
620.547	12.54
620.669	25.54
620.791	4.54
620.913	11.54
621.036	0.54
621.158	4.54
621.28	12.54
621.402	4.54
621.524	-1.46
621.646	14.54
621.768	-9.46
621.891	-3.46
622.013	17.54
622.135	1.54
622.257	5.54
622.379	11.54
622.501	12.54
622.623	10.54
622.745	-1.46
622.868	16.54
622.99	4.54
623.112	10.54
623.234	20.54
623.356	17.54
623.478	8.54
623.6	23.54
623.722	10.54
623.845	17.54
623.967	-5.46
624.089	16.54
624.211	-1.46
624.333	10.54
624.455	13.54
624.577	12.54
624.699	16.54
624.822	17.54
624.944	-2.46
625.066	8.54
625.188	6.54
625.31	5.54
625.432	30.54
625.554	6.54
625.676	35.54
625.799	10.54
625.921	5.54
626.043	5.54
626.165	20.54
626.287	-15.46
626.409	2.54
626.531	3.54
626.653	-6.46
626.775	5.54
626.898	-9.46
627.02	-4.46
627.142	18.54
627.264	5.54
627.386	15.54
627.508	19.54
627.63	8.54
627.752	21.54
627.874	21.54
627.997	13.54
628.119	31.54
628.241	13.54
628.363	20.54
628.485	16.54
628.607	8.54
628.729	7.54
628.851	2.54
628.973	8.54
629.096	-3.46
629.218	21.54
629.34	21.54
629.462	14.54
629.584	-5.46
629.706	9.54
629.828	25.54
629.95	18.54
630.072	9.54
630.195	16.54
630.317	24.54
630.439	18.54
630.561	-2.46
630.683	0.54
630.805	18.54
630.927	18.54
631.049	14.54
631.171	6.54
631.293	1.54
631.416	11.54
631.538	-10.46
631.66	20.54
631.782	7.54
631.904	20.54
632.026	-0.46
632.148	24.54
632.27	-1.46
632.392	11.54
632.514	20.54
632.637	9.54
632.759	0.54
632.881	-2.46
633.003	2.54
633.125	-5.46
633.247	8.54
633.369	1.54
633.491	34.54
633.613	26.54
633.735	1.54
633.858	17.54
633.98	13.54
634.102	-1.46
634.224	-4.46
634.346	9.54
634.468	21.54
634.59	22.54
634.712	1.54
634.834	6.54
634.956	0.54
635.078	15.54
635.201	2.54
635.323	0.54
635.445	10.54
635.567	-4.46
635.689	17.54
635.811	5.54
635.933	8.54
636.055	4.54
636.177	28.54
636.299	13.54
636.421	16.54
636.544	0.54
636.666	14.54
636.788	2.54
636.91	11.54
637.032	1.54
637.154	10.54
637.276	48.54
637.398	28.54
637.52	25.54
637.642	5.54
637.764	10.54
637.887	10.54
638.009	7.54
638.131	10.54
638.253	11.54
638.375	1.54
638.497	8.54
638.619	4.54
638.741	13.54
638.863	-18.46
638.985	-9.46
639.107	-2.46
639.23	-10.46
639.352	25.54
639.474	6.54
639.596	9.54
639.718	-7.46
639.84	-2.46
639.962	16.54
640.084	13.54
640.206	25.54
640.328	12.54
640.45	17.54
640.573	13.54
640.695	16.54
640.817	24.54
640.939	26.54
641.061	8.54
641.183	4.54
641.305	-10.46
641.427	-4.46
641.549	12.54
641.671	2.54
641.793	4.54
641.915	33.54
642.038	28.54
642.16	5.54
642.282	9.54
642.404	12.54
642.526	23.54
642.648	15.54
642.77	0.54
642.892	-2.46
643.014	18.54
643.136	24.54
643.258	22.54
643.381	15.54
643.503	34.54
643.625	8.54
643.747	-3.46
643.869	0.54
643.991	1.54
644.113	23.54
644.235	16.54
644.357	-3.46
644.479	2.54
644.601	6.54
644.723	-9.46
644.846	6.54
644.968	-5.46
645.09	10.54
645.212	-11.46
645.334	16.54
645.456	9.54
645.578	8.54
645.7	4.54
645.822	17.54
645.944	12.54
646.066	-0.46
646.188	-5.46
646.311	34.54
646.433	28.54
646.555	52.54
646.677	35.54
646.799	22.54
646.921	41.54
647.043	41.54
647.165	-6.46
647.287	20.54
647.409	8.54
647.531	34.54
647.654	0.54
647.776	17.54
647.898	2.54
648.02	-3.46
648.142	-11.46
648.264	-4.46
648.386	3.54
648.508	1.54
648.63	-4.46
648.752	18.54
648.874	10.54
648.997	20.54
649.119	26.54
649.241	31.54
649.363	34.54
649.485	10.54
649.607	7.54
649.729	-7.46
649.851	8.54
649.973	2.54
650.095	14.54
650.217	-11.46
650.34	13.54
650.462	4.54
650.584	8.54
650.706	8.54
650.828	35.54
650.95	-5.46
651.072	17.54
651.194	-10.46
651.316	8.54
651.438	15.54
651.56	-0.46
651.683	2.54
651.805	3.54
651.927	-7.46
652.049	16.54
652.171	6.54
652.293	3.54
652.415	-20.46
652.537	-8.46
652.659	4.54
652.781	16.54
652.903	12.54
653.026	14.54
653.148	6.54
653.27	-6.46
653.392	10.54
653.514	4.54
653.636	11.54
653.758	21.54
653.88	-4.46
654.002	10.54
654.124	16.54
654.247	-0.46
654.369	36.54
654.491	16.54
654.613	27.54
654.735	17.54
654.857	32.54
654.979	36.54
655.101	39.54
655.223	54.54
655.345	17.54
655.468	19.54
655.59	13.54
655.712	20.54
655.834	29.54
655.956	49.54
656.078	49.54
656.2	44.54
656.322	40.54
656.444	24.54
656.566	44.54
656.689	45.54
656.811	61.54
656.933	87.54
657.055	109.54
657.177	168.54
657.299	268.54
657.421	530.54
657.543	1962.54
657.665	12724.54
657.787	15201.54
657.91	15353.54
658.032	15663.54
658.154	4718.54
658.276	4416.54
658.398	1337.54
658.52	1109.54
658.642	498.54
658.764	611.54
658.886	280.54
659.009	426.54
659.131	227.54
659.253	321.54
659.375	168.54
659.497	256.54
659.619	130.54
659.741	204.54
659.863	111.54
659.985	178.54
660.108	108.54
660.23	152.54
660.352	93.54
660.474	138.54
660.596	83.54
660.718	139.54
660.84	79.54
660.962	130.54
661.084	49.54
661.207	103.54
661.329	63.54
661.451	100.54
661.573	45.54
661.695	109.54
661.817	70.54
661.939	97.54
662.061	76.54
662.184	78.54
662.306	33.54
662.428	75.54
662.55	56.54
662.672	49.54
662.794	41.54
662.916	56.54
663.038	37.54
663.161	84.54
663.283	53.54
663.405	68.54
663.527	32.54
663.649	63.54
663.771	36.54
663.893	52.54
664.015	24.54
664.138	61.54
664.26	38.54
664.382	56.54
664.504	23.54
664.626	48.54
664.748	13.54
664.87	46.54
664.992	29.54
665.115	47.54
665.237	33.54
665.359	35.54
665.481	27.54
665.603	46.54
665.725	28.54
665.847	24.54
665.97	15.54
666.092	52.54
666.214	22.54
666.336	29.54
666.458	31.54
666.58	36.54
666.702	17.54
666.825	34.54
666.947	10.54
667.069	43.54
667.191	19.54
667.313	49.54
667.435	5.54
667.557	13.54
667.68	9.54
667.802	37.54
667.924	16.54
668.046	58.54
668.168	48.54
668.29	53.54
668.412	8.54
668.535	29.54
668.657	18.54
668.779	16.54
668.901	19.54
669.023	39.54
669.145	18.54
669.267	38.54
669.39	12.54
669.512	32.54
669.634	17.54
669.756	23.54
669.878	19.54
670	25.54
670.123	7.54
670.245	33.54
670.367	22.54
670.489	24.54
670.611	6.54
670.733	3.54
670.856	-2.46
670.978	27.54
671.1	11.54
671.222	28.54
671.344	5.54
671.466	27.54
671.589	15.54
671.711	21.54
671.833	16.54
671.955	13.54
672.077	22.54
672.199	37.54
672.322	31.54
672.444	23.54
672.566	28.54
672.688	16.54
672.81	8.54
672.932	21.54
673.055	2.54
673.177	15.54
673.299	7.54
673.421	12.54
673.543	25.54
673.665	38.54
673.788	32.54
673.91	19.54
674.032	-5.46
674.154	12.54
674.276	19.54
674.399	13.54
674.521	8.54
674.643	18.54
674.765	-0.46
674.887	22.54
675.009	7.54
675.132	21.54
675.254	10.54
675.376	26.54
675.498	10.54
675.62	33.54
675.743	4.54
675.865	35.54
675.987	-8.46
676.109	20.54
676.231	21.54
676.354	46.54
676.476	11.54
676.598	35.54
676.72	18.54
676.842	9.54
676.965	14.54
677.087	14.54
677.209	17.54
677.331	26.54
677.453	25.54
677.576	7.54
677.698	10.54
677.82	25.54
677.942	10.54
678.064	26.54
678.187	-1.46
678.309	22.54
678.431	22.54
678.553	24.54
678.675	27.54
678.798	13.54
678.92	12.54
679.042	7.54
679.164	7.54
679.286	39.54
679.409	19.54
679.531	6.54
679.653	11.54
679.775	5.54
679.898	4.54
680.02	13.54
680.142	13.54
680.264	16.54
680.386	-9.46
680.509	13.54
680.631	25.54
680.753	10.54
680.875	1.54
680.998	19.54
681.12	11.54
681.242	15.54
681.364	-2.46
681.486	26.54
681.609	-0.46
681.731	3.54
681.853	12.54
681.975	2.54
682.098	4.54
682.22	31.54
682.342	25.54
682.464	34.54
682.587	5.54
682.709	10.54
682.831	-1.46
682.953	0.54
683.076	6.54
683.198	26.54
683.32	10.54
683.442	14.54
683.565	17.54
683.687	14.54
683.809	15.54
683.931	4.54
684.054	13.54
684.176	12.54
684.298	10.54
684.42	11.54
684.543	15.54
684.665	16.54
684.787	2.54
684.909	2.54
685.032	21.54
685.154	-10.46
685.276	28.54
685.398	18.54
685.521	15.54
685.643	6.54
685.765	12.54
685.887	13.54
686.01	13.54
686.132	6.54
686.254	3.54
686.377	15.54
686.499	5.54
686.621	13.54
686.743	1.54
686.866	25.54
686.988	23.54
687.11	18.54
687.232	8.54
687.355	5.54
687.477	18.54
687.599	27.54
687.722	-13.46
687.844	7.54
687.966	4.54
688.088	5.54
688.211	25.54
688.333	21.54
688.455	24.54
688.578	11.54
688.7	20.54
688.822	14.54
688.944	-2.46
689.067	31.54
689.189	2.54
689.311	0.54
689.434	-3.46
689.556	17.54
689.678	19.54
689.801	-3.46
689.923	21.54
690.045	36.54
690.167	40.54
690.29	42.54
690.412	0.54
690.534	13.54
690.657	5.54
690.779	-0.46
690.901	11.54
691.024	10.54
691.146	8.54
691.268	11.54
691.391	12.54
691.513	21.54
691.635	38.54
691.758	26.54
691.88	27.54
692.002	5.54
692.125	0.54
692.247	11.54
692.369	11.54
692.492	-0.46
692.614	-7.46
692.736	9.54
692.859	-3.46
692.981	9.54
693.103	4.54
693.226	11.54
693.348	34.54
693.47	4.54
693.593	11.54
693.715	4.54
693.837	0.54
693.96	2.54
694.082	1.54
694.204	9.54
694.327	19.54
694.449	-10.46
694.571	-2.46
694.694	15.54
694.816	9.54
694.938	0.54
695.061	8.54
695.183	6.54
695.305	11.54
695.428	24.54
695.55	-5.46
695.672	0.54
695.795	20.54
695.917	28.54
696.04	7.54
696.162	8.54
696.284	9.54
696.407	5.54
696.529	-1.46
696.651	22.54
696.774	0.54
696.896	19.54
697.019	-0.46
697.141	9.54
697.263	10.54
697.386	6.54
697.508	4.54
697.63	38.54
697.753	21.54
697.875	7.54
697.998	-2.46
698.12	6.54
698.242	6.54
698.365	4.54
698.487	19.54
698.61	18.54
698.732	16.54
698.854	28.54
698.977	17.54
699.099	32.54
699.221	6.54
699.344	5.54
699.466	9.54
699.589	11.54
699.711	-14.46
699.834	3.54
699.956	9.54
700.078	15.54
700.201	11.54
700.323	39.54
700.446	11.54
700.568	4.54
700.69	18.54
700.813	22.54
700.935	-5.46
701.058	16.54
701.18	8.54
701.302	15.54
701.425	-5.46
701.547	36.54
701.67	12.54
701.792	17.54
701.915	0.54
702.037	-3.46
702.159	11.54
702.282	2.54
702.404	0.54
702.527	9.54
702.649	33.54
702.772	18.54
702.894	28.54
703.017	13.54
703.139	3.54
703.261	21.54
703.384	14.54
703.506	1.54
703.629	5.54
703.751	13.54
703.874	12.54
703.996	11.54
704.119	7.54
704.241	24.54
704.364	1.54
704.486	13.54
704.608	14.54
704.731	8.54
704.853	24.54
704.976	3.54
705.098	13.54
705.221	8.54
705.343	-1.46
705.466	0.54
705.588	24.54
705.711	16.54
705.833	10.54
705.956	10.54
706.078	16.54
706.201	10.54
706.323	0.54
706.446	-5.46
