Data from LowRes_H2_15_26_11_07_2024_HR4C61881__57__15-28-19-337.txt Node

Date: Thu Nov 07 15:28:19 EST 2024
User: crc00042
Spectrometer: HR4C6188
Trigger mode: 4
Integration Time (sec): 1.000000E-1
Scans to average: 1
Electric dark correction enabled: true
Nonlinearity correction enabled: false
Boxcar width: 0
XAxis mode: Wavelengths
Number of Pixels in Spectrum: 3648
>>>>>Begin Spectral Data<<<<<
245.66	-115.85
245.797	-115.85
245.934	-115.85
246.071	-59.85
246.208	25.15
246.344	0.15
246.481	-9.85
246.618	-1.85
246.755	8.15
246.892	5.15
247.029	2.15
247.165	-0.85
247.302	6.15
247.439	-2.85
247.576	8.15
247.713	-8.85
247.849	20.15
247.986	-25.85
248.123	10.15
248.26	11.15
248.396	25.15
248.533	1.15
248.67	-3.85
248.806	5.15
248.943	5.15
249.08	11.15
249.216	12.15
249.353	-20.85
249.49	6.15
249.626	24.15
249.763	12.15
249.9	-7.85
250.036	1.15
250.173	6.15
250.309	17.15
250.446	7.15
250.582	-9.85
250.719	-13.85
250.856	4.15
250.992	-2.85
251.129	14.15
251.265	-20.85
251.402	6.15
251.538	-5.85
251.675	20.15
251.811	27.15
251.948	33.15
252.084	19.15
252.221	-0.85
252.357	10.15
252.493	24.15
252.63	8.15
252.766	16.15
252.903	1.15
253.039	13.15
253.175	-4.85
253.312	34.15
253.448	-0.85
253.585	-24.85
253.721	-5.85
253.857	1.15
253.994	7.15
254.13	5.15
254.266	-1.85
254.403	-1.85
254.539	15.15
254.675	20.15
254.811	10.15
254.948	10.15
255.084	-2.85
255.22	-9.85
255.356	-4.85
255.493	12.15
255.629	10.15
255.765	0.15
255.901	25.15
256.037	29.15
256.174	21.15
256.31	1.15
256.446	3.15
256.582	22.15
256.718	0.15
256.854	31.15
256.991	16.15
257.127	13.15
257.263	15.15
257.399	11.15
257.535	10.15
257.671	11.15
257.807	-2.85
257.943	2.15
258.079	-18.85
258.215	15.15
258.351	24.15
258.487	5.15
258.623	21.15
258.759	17.15
258.895	13.15
259.031	13.15
259.167	-5.85
259.303	34.15
259.439	3.15
259.575	17.15
259.711	-4.85
259.847	-12.85
259.983	1.15
260.119	-10.85
260.255	1.15
260.391	6.15
260.527	16.15
260.663	29.15
260.799	23.15
260.934	5.15
261.07	-6.85
261.206	-13.85
261.342	-13.85
261.478	10.15
261.614	12.15
261.749	13.15
261.885	3.15
262.021	-3.85
262.157	26.15
262.293	17.15
262.428	3.15
262.564	-2.85
262.7	10.15
262.836	-6.85
262.971	11.15
263.107	1.15
263.243	22.15
263.378	15.15
263.514	-7.85
263.65	17.15
263.785	10.15
263.921	18.15
264.057	-9.85
264.192	10.15
264.328	22.15
264.464	-7.85
264.599	19.15
264.735	20.15
264.871	14.15
265.006	18.15
265.142	7.15
265.277	15.15
265.413	32.15
265.548	18.15
265.684	25.15
265.819	12.15
265.955	-3.85
266.091	5.15
266.226	-1.85
266.362	18.15
266.497	19.15
266.633	7.15
266.768	-2.85
266.903	-7.85
267.039	10.15
267.174	30.15
267.31	5.15
267.445	13.15
267.581	7.15
267.716	26.15
267.851	17.15
267.987	7.15
268.122	34.15
268.258	3.15
268.393	-4.85
268.528	17.15
268.664	-3.85
268.799	-16.85
268.934	3.15
269.07	11.15
269.205	6.15
269.34	31.15
269.476	-8.85
269.611	-3.85
269.746	25.15
269.881	28.15
270.017	26.15
270.152	6.15
270.287	12.15
270.422	30.15
270.558	2.15
270.693	9.15
270.828	3.15
270.963	-6.85
271.098	-10.85
271.234	-0.85
271.369	12.15
271.504	5.15
271.639	-15.85
271.774	-3.85
271.909	-1.85
272.045	-8.85
272.18	-11.85
272.315	6.15
272.45	10.15
272.585	-16.85
272.72	-5.85
272.855	10.15
272.99	14.15
273.125	0.15
273.26	-11.85
273.395	3.15
273.53	-1.85
273.665	11.15
273.8	12.15
273.935	20.15
274.07	1.15
274.205	10.15
274.34	5.15
274.475	10.15
274.61	20.15
274.745	1.15
274.88	29.15
275.015	5.15
275.15	3.15
275.285	22.15
275.42	34.15
275.555	22.15
275.69	35.15
275.825	26.15
275.959	33.15
276.094	-8.85
276.229	-3.85
276.364	-9.85
276.499	-0.85
276.634	1.15
276.768	10.15
276.903	-6.85
277.038	13.15
277.173	13.15
277.308	3.15
277.442	-19.85
277.577	-15.85
277.712	5.15
277.847	16.15
277.981	4.15
278.116	-19.85
278.251	16.15
278.386	15.15
278.52	11.15
278.655	12.15
278.79	26.15
278.924	12.15
279.059	14.15
279.194	-15.85
279.328	53.15
279.463	24.15
279.598	25.15
279.732	3.15
279.867	12.15
280.001	13.15
280.136	22.15
280.271	21.15
280.405	13.15
280.54	22.15
280.674	2.15
280.809	16.15
280.943	16.15
281.078	-2.85
281.213	17.15
281.347	1.15
281.482	19.15
281.616	15.15
281.751	-2.85
281.885	-5.85
282.02	7.15
282.154	10.15
282.288	6.15
282.423	-14.85
282.557	-2.85
282.692	2.15
282.826	6.15
282.961	7.15
283.095	2.15
283.229	17.15
283.364	-0.85
283.498	6.15
283.633	4.15
283.767	7.15
283.901	21.15
284.036	11.15
284.17	1.15
284.304	6.15
284.439	4.15
284.573	-2.85
284.707	20.15
284.842	-0.85
284.976	-0.85
285.11	-8.85
285.244	13.15
285.379	47.15
285.513	8.15
285.647	10.15
285.781	4.15
285.916	19.15
286.05	9.15
286.184	21.15
286.318	17.15
286.453	8.15
286.587	-5.85
286.721	-0.85
286.855	4.15
286.989	6.15
287.123	-9.85
287.258	-0.85
287.392	12.15
287.526	5.15
287.66	3.15
287.794	2.15
287.928	4.15
288.062	21.15
288.196	7.15
288.33	3.15
288.464	18.15
288.598	7.15
288.733	14.15
288.867	9.15
289.001	-6.85
289.135	2.15
289.269	-5.85
289.403	-1.85
289.537	2.15
289.671	20.15
289.805	-10.85
289.939	4.15
290.073	9.15
290.207	31.15
290.34	0.15
290.474	29.15
290.608	18.15
290.742	1.15
290.876	-4.85
291.01	-4.85
291.144	42.15
291.278	35.15
291.412	20.15
291.546	-2.85
291.679	3.15
291.813	14.15
291.947	5.15
292.081	-2.85
292.215	3.15
292.349	25.15
292.482	19.15
292.616	28.15
292.75	10.15
292.884	-4.85
293.018	8.15
293.151	-12.85
293.285	10.15
293.419	-2.85
293.553	-3.85
293.686	2.15
293.82	-0.85
293.954	24.15
294.088	19.15
294.221	-19.85
294.355	7.15
294.489	10.15
294.622	-0.85
294.756	6.15
294.89	11.15
295.023	16.15
295.157	25.15
295.291	18.15
295.424	20.15
295.558	24.15
295.691	9.15
295.825	-1.85
295.959	4.15
296.092	2.15
296.226	10.15
296.359	-4.85
296.493	10.15
296.627	3.15
296.76	14.15
296.894	1.15
297.027	10.15
297.161	11.15
297.294	-7.85
297.428	-2.85
297.561	23.15
297.695	3.15
297.828	6.15
297.962	9.15
298.095	-0.85
298.229	6.15
298.362	-5.85
298.495	-3.85
298.629	-17.85
298.762	7.15
298.896	4.15
299.029	-15.85
299.162	4.15
299.296	24.15
299.429	2.15
299.563	4.15
299.696	5.15
299.829	3.15
299.963	30.15
300.096	26.15
300.229	14.15
300.363	3.15
300.496	-1.85
300.629	-8.85
300.763	-5.85
300.896	-2.85
301.029	4.15
301.162	4.15
301.296	-2.85
301.429	7.15
301.562	-11.85
301.695	10.15
301.829	7.15
301.962	25.15
302.095	1.15
302.228	-5.85
302.362	8.15
302.495	-9.85
302.628	14.15
302.761	-8.85
302.894	17.15
303.027	25.15
303.161	-14.85
303.294	1.15
303.427	26.15
303.56	6.15
303.693	6.15
303.826	5.15
303.959	0.15
304.092	-6.85
304.225	-4.85
304.359	6.15
304.492	8.15
304.625	7.15
304.758	19.15
304.891	9.15
305.024	8.15
305.157	-9.85
305.29	0.15
305.423	-12.85
305.556	17.15
305.689	4.15
305.822	-10.85
305.955	16.15
306.088	5.15
306.221	-1.85
306.354	8.15
306.487	2.15
306.62	6.15
306.752	11.15
306.885	20.15
307.018	5.15
307.151	-3.85
307.284	23.15
307.417	-5.85
307.55	15.15
307.683	-9.85
307.816	12.15
307.948	13.15
308.081	40.15
308.214	23.15
308.347	36.15
308.48	1.15
308.613	-2.85
308.745	9.15
308.878	-5.85
309.011	0.15
309.144	30.15
309.277	24.15
309.409	26.15
309.542	9.15
309.675	11.15
309.808	2.15
309.94	19.15
310.073	-1.85
310.206	2.15
310.339	5.15
310.471	-7.85
310.604	6.15
310.737	-8.85
310.869	1.15
311.002	4.15
311.135	-5.85
311.267	-0.85
311.4	9.15
311.533	20.15
311.665	-2.85
311.798	10.15
311.93	12.15
312.063	34.15
312.196	15.15
312.328	8.15
312.461	12.15
312.593	3.15
312.726	3.15
312.859	-4.85
312.991	16.15
313.124	1.15
313.256	16.15
313.389	17.15
313.521	7.15
313.654	-14.85
313.786	-10.85
313.919	5.15
314.051	-0.85
314.184	14.15
314.316	-4.85
314.449	-26.85
314.581	-4.85
314.714	0.15
314.846	10.15
314.978	-3.85
315.111	3.15
315.243	20.15
315.376	15.15
315.508	25.15
315.641	16.15
315.773	35.15
315.905	5.15
316.038	-6.85
316.17	20.15
316.302	11.15
316.435	7.15
316.567	18.15
316.699	18.15
316.832	-11.85
316.964	4.15
317.096	5.15
317.229	-3.85
317.361	-8.85
317.493	9.15
317.625	-18.85
317.758	20.15
317.89	16.15
318.022	10.15
318.155	-3.85
318.287	-5.85
318.419	10.15
318.551	1.15
318.683	-11.85
318.816	-13.85
318.948	15.15
319.08	7.15
319.212	-7.85
319.344	8.15
319.477	-2.85
319.609	15.15
319.741	23.15
319.873	9.15
320.005	2.15
320.137	13.15
320.269	14.15
320.401	10.15
320.534	7.15
320.666	-15.85
320.798	-20.85
320.93	-4.85
321.062	-9.85
321.194	-7.85
321.326	0.15
321.458	12.15
321.59	13.15
321.722	-3.85
321.854	15.15
321.986	-1.85
322.118	12.15
322.25	-4.85
322.382	-0.85
322.514	7.15
322.646	-5.85
322.778	15.15
322.91	-5.85
323.042	2.15
323.174	-8.85
323.306	-18.85
323.438	9.15
323.57	6.15
323.702	4.15
323.834	18.15
323.966	0.15
324.097	19.15
324.229	18.15
324.361	12.15
324.493	9.15
324.625	-15.85
324.757	16.15
324.889	8.15
325.021	17.15
325.152	16.15
325.284	15.15
325.416	-14.85
325.548	-6.85
325.68	5.15
325.811	21.15
325.943	27.15
326.075	1.15
326.207	-1.85
326.339	11.15
326.47	12.15
326.602	9.15
326.734	29.15
326.866	31.15
326.997	3.15
327.129	-3.85
327.261	-22.85
327.392	-3.85
327.524	4.15
327.656	9.15
327.787	11.15
327.919	-4.85
328.051	-1.85
328.182	10.15
328.314	29.15
328.446	6.15
328.577	27.15
328.709	24.15
328.841	-6.85
328.972	-8.85
329.104	-0.85
329.235	5.15
329.367	-2.85
329.499	-1.85
329.63	-1.85
329.762	-0.85
329.893	12.15
330.025	6.15
330.156	-23.85
330.288	16.15
330.419	32.15
330.551	13.15
330.683	13.15
330.814	-9.85
330.946	17.15
331.077	-2.85
331.208	-5.85
331.34	4.15
331.471	-9.85
331.603	4.15
331.734	-3.85
331.866	-3.85
331.997	-7.85
332.129	-9.85
332.26	5.15
332.392	22.15
332.523	5.15
332.654	5.15
332.786	15.15
332.917	1.15
333.048	30.15
333.18	39.15
333.311	-0.85
333.443	19.15
333.574	-6.85
333.705	25.15
333.837	-7.85
333.968	6.15
334.099	15.15
334.231	15.15
334.362	5.15
334.493	25.15
334.624	31.15
334.756	28.15
334.887	12.15
335.018	11.15
335.15	33.15
335.281	32.15
335.412	23.15
335.543	9.15
335.675	4.15
335.806	16.15
335.937	3.15
336.068	3.15
336.199	36.15
336.331	0.15
336.462	-2.85
336.593	17.15
336.724	4.15
336.855	19.15
336.986	13.15
337.118	7.15
337.249	20.15
337.38	3.15
337.511	2.15
337.642	2.15
337.773	-15.85
337.904	11.15
338.035	10.15
338.166	12.15
338.298	15.15
338.429	9.15
338.56	31.15
338.691	23.15
338.822	15.15
338.953	29.15
339.084	23.15
339.215	3.15
339.346	-2.85
339.477	10.15
339.608	3.15
339.739	10.15
339.87	17.15
340.001	0.15
340.132	12.15
340.263	5.15
340.394	9.15
340.525	27.15
340.656	-13.85
340.787	-9.85
340.918	14.15
341.049	24.15
341.179	7.15
341.31	15.15
341.441	27.15
341.572	12.15
341.703	-4.85
341.834	-4.85
341.965	18.15
342.096	11.15
342.227	9.15
342.357	2.15
342.488	17.15
342.619	7.15
342.75	19.15
342.881	0.15
343.012	29.15
343.142	51.15
343.273	-6.85
343.404	11.15
343.535	34.15
343.666	33.15
343.796	9.15
343.927	22.15
344.058	22.15
344.189	27.15
344.319	32.15
344.45	14.15
344.581	7.15
344.712	-9.85
344.842	1.15
344.973	-8.85
345.104	14.15
345.234	3.15
345.365	-9.85
345.496	8.15
345.626	16.15
345.757	10.15
345.888	1.15
346.018	14.15
346.149	0.15
346.28	32.15
346.41	-11.85
346.541	22.15
346.672	14.15
346.802	6.15
346.933	-22.85
347.063	2.15
347.194	-0.85
347.325	17.15
347.455	15.15
347.586	24.15
347.716	-3.85
347.847	16.15
347.977	9.15
348.108	16.15
348.238	20.15
348.369	1.15
348.499	9.15
348.63	-1.85
348.76	31.15
348.891	10.15
349.021	24.15
349.152	5.15
349.282	25.15
349.413	5.15
349.543	19.15
349.674	9.15
349.804	0.15
349.935	13.15
350.065	25.15
350.196	11.15
350.326	8.15
350.456	18.15
350.587	22.15
350.717	1.15
350.848	9.15
350.978	14.15
351.108	3.15
351.239	34.15
351.369	-3.85
351.499	3.15
351.63	22.15
351.76	-2.85
351.89	8.15
352.021	24.15
352.151	4.15
352.281	24.15
352.412	34.15
352.542	22.15
352.672	9.15
352.803	9.15
352.933	-8.85
353.063	21.15
353.193	9.15
353.324	13.15
353.454	8.15
353.584	21.15
353.714	2.15
353.845	23.15
353.975	-4.85
354.105	-7.85
354.235	5.15
354.365	21.15
354.496	10.15
354.626	26.15
354.756	26.15
354.886	2.15
355.016	8.15
355.146	1.15
355.277	-0.85
355.407	12.15
355.537	13.15
355.667	20.15
355.797	3.15
355.927	24.15
356.057	8.15
356.187	5.15
356.318	-9.85
356.448	0.15
356.578	20.15
356.708	20.15
356.838	11.15
356.968	19.15
357.098	12.15
357.228	10.15
357.358	0.15
357.488	-3.85
357.618	35.15
357.748	27.15
357.878	2.15
358.008	12.15
358.138	16.15
358.268	-8.85
358.398	28.15
358.528	-4.85
358.658	6.15
358.788	9.15
358.918	21.15
359.048	3.15
359.178	14.15
359.308	11.15
359.438	23.15
359.568	32.15
359.698	26.15
359.827	5.15
359.957	15.15
360.087	33.15
360.217	10.15
360.347	2.15
360.477	17.15
360.607	-3.85
360.737	26.15
360.866	20.15
360.996	3.15
361.126	1.15
361.256	29.15
361.386	46.15
361.516	28.15
361.645	-9.85
361.775	9.15
361.905	-17.85
362.035	-4.85
362.165	18.15
362.294	0.15
362.424	28.15
362.554	32.15
362.684	-6.85
362.813	22.15
362.943	7.15
363.073	9.15
363.203	-9.85
363.332	12.15
363.462	0.15
363.592	-5.85
363.721	2.15
363.851	9.15
363.981	28.15
364.111	9.15
364.24	0.15
364.37	16.15
364.5	21.15
364.629	14.15
364.759	-5.85
364.888	-3.85
365.018	13.15
365.148	-5.85
365.277	-7.85
365.407	25.15
365.537	8.15
365.666	22.15
365.796	24.15
365.925	14.15
366.055	9.15
366.184	-2.85
366.314	-4.85
366.444	12.15
366.573	7.15
366.703	10.15
366.832	26.15
366.962	13.15
367.091	39.15
367.221	25.15
367.35	12.15
367.48	55.15
367.609	24.15
367.739	12.15
367.868	-7.85
367.998	-2.85
368.127	14.15
368.257	38.15
368.386	21.15
368.516	6.15
368.645	-3.85
368.775	3.15
368.904	15.15
369.033	8.15
369.163	-3.85
369.292	7.15
369.422	29.15
369.551	11.15
369.68	8.15
369.81	12.15
369.939	11.15
370.069	20.15
370.198	-1.85
370.327	-5.85
370.457	20.15
370.586	32.15
370.715	4.15
370.845	5.15
370.974	15.15
371.103	20.15
371.233	7.15
371.362	16.15
371.491	14.15
371.621	37.15
371.75	20.15
371.879	-0.85
372.008	5.15
372.138	9.15
372.267	22.15
372.396	12.15
372.525	-3.85
372.655	1.15
372.784	10.15
372.913	-0.85
373.042	18.15
373.172	9.15
373.301	-2.85
373.43	4.15
373.559	10.15
373.688	18.15
373.818	40.15
373.947	20.15
374.076	15.15
374.205	15.15
374.334	14.15
374.463	-8.85
374.593	34.15
374.722	18.15
374.851	30.15
374.98	10.15
375.109	7.15
375.238	5.15
375.367	46.15
375.496	-2.85
375.625	2.15
375.755	13.15
375.884	44.15
376.013	6.15
376.142	8.15
376.271	11.15
376.4	23.15
376.529	9.15
376.658	18.15
376.787	-3.85
376.916	9.15
377.045	11.15
377.174	15.15
377.303	8.15
377.432	37.15
377.561	34.15
377.69	18.15
377.819	15.15
377.948	19.15
378.077	5.15
378.206	-1.85
378.335	-2.85
378.464	22.15
378.593	41.15
378.722	2.15
378.851	11.15
378.98	39.15
379.108	13.15
379.237	7.15
379.366	13.15
379.495	15.15
379.624	22.15
379.753	21.15
379.882	-0.85
380.011	-2.85
380.14	-1.85
380.268	2.15
380.397	1.15
380.526	29.15
380.655	-6.85
380.784	11.15
380.913	9.15
381.041	23.15
381.17	-6.85
381.299	7.15
381.428	17.15
381.557	7.15
381.685	-7.85
381.814	31.15
381.943	-2.85
382.072	-15.85
382.2	-7.85
382.329	12.15
382.458	18.15
382.587	39.15
382.715	10.15
382.844	23.15
382.973	13.15
383.102	12.15
383.23	13.15
383.359	2.15
383.488	23.15
383.616	10.15
383.745	-16.85
383.874	1.15
384.003	1.15
384.131	-2.85
384.26	8.15
384.389	24.15
384.517	-0.85
384.646	7.15
384.774	-0.85
384.903	24.15
385.032	19.15
385.16	16.15
385.289	-1.85
385.418	15.15
385.546	7.15
385.675	29.15
385.803	27.15
385.932	14.15
386.06	7.15
386.189	23.15
386.318	7.15
386.446	10.15
386.575	5.15
386.703	27.15
386.832	2.15
386.96	-11.85
387.089	16.15
387.217	11.15
387.346	20.15
387.474	17.15
387.603	20.15
387.731	17.15
387.86	14.15
387.988	18.15
388.117	23.15
388.245	21.15
388.374	-6.85
388.502	13.15
388.631	-3.85
388.759	11.15
388.888	7.15
389.016	-10.85
389.144	-1.85
389.273	15.15
389.401	1.15
389.53	10.15
389.658	15.15
389.786	2.15
389.915	-11.85
390.043	-5.85
390.172	3.15
390.3	24.15
390.428	13.15
390.557	6.15
390.685	9.15
390.813	23.15
390.942	31.15
391.07	2.15
391.198	13.15
391.327	8.15
391.455	2.15
391.583	31.15
391.712	22.15
391.84	24.15
391.968	9.15
392.096	10.15
392.225	7.15
392.353	13.15
392.481	3.15
392.609	41.15
392.738	21.15
392.866	5.15
392.994	0.15
393.122	36.15
393.251	9.15
393.379	14.15
393.507	-4.85
393.635	-0.85
393.764	21.15
393.892	35.15
394.02	18.15
394.148	11.15
394.276	8.15
394.404	12.15
394.533	5.15
394.661	16.15
394.789	31.15
394.917	38.15
395.045	14.15
395.173	3.15
395.302	-1.85
395.43	5.15
395.558	6.15
395.686	4.15
395.814	26.15
395.942	0.15
396.07	17.15
396.198	21.15
396.326	30.15
396.454	24.15
396.582	7.15
396.711	17.15
396.839	23.15
396.967	41.15
397.095	-8.85
397.223	15.15
397.351	15.15
397.479	13.15
397.607	9.15
397.735	20.15
397.863	24.15
397.991	23.15
398.119	-3.85
398.247	12.15
398.375	15.15
398.503	14.15
398.631	6.15
398.759	11.15
398.887	16.15
399.015	6.15
399.143	15.15
399.271	10.15
399.399	18.15
399.526	29.15
399.654	26.15
399.782	-0.85
399.91	29.15
400.038	37.15
400.166	6.15
400.294	11.15
400.422	-10.85
400.55	10.15
400.678	21.15
400.805	5.15
400.933	3.15
401.061	13.15
401.189	5.15
401.317	25.15
401.445	29.15
401.573	24.15
401.7	7.15
401.828	-3.85
401.956	14.15
402.084	17.15
402.212	6.15
402.34	7.15
402.467	8.15
402.595	27.15
402.723	23.15
402.851	29.15
402.978	10.15
403.106	21.15
403.234	23.15
403.362	29.15
403.489	23.15
403.617	2.15
403.745	17.15
403.873	22.15
404	30.15
404.128	27.15
404.256	20.15
404.384	32.15
404.511	26.15
404.639	3.15
404.767	2.15
404.894	12.15
405.022	14.15
405.15	25.15
405.277	-5.85
405.405	11.15
405.533	7.15
405.66	1.15
405.788	-12.85
405.916	5.15
406.043	-4.85
406.171	-2.85
406.299	17.15
406.426	10.15
406.554	17.15
406.681	34.15
406.809	4.15
406.937	21.15
407.064	2.15
407.192	6.15
407.319	12.15
407.447	16.15
407.574	23.15
407.702	1.15
407.83	7.15
407.957	1.15
408.085	-2.85
408.212	2.15
408.34	2.15
408.467	-0.85
408.595	13.15
408.722	12.15
408.85	20.15
408.977	18.15
409.105	6.15
409.232	8.15
409.36	3.15
409.487	14.15
409.615	16.15
409.742	49.15
409.87	42.15
409.997	42.15
410.125	40.15
410.252	64.15
410.379	57.15
410.507	36.15
410.634	9.15
410.762	8.15
410.889	28.15
411.017	17.15
411.144	25.15
411.271	2.15
411.399	15.15
411.526	23.15
411.653	13.15
411.781	19.15
411.908	20.15
412.036	9.15
412.163	39.15
412.29	12.15
412.418	4.15
412.545	29.15
412.672	28.15
412.8	30.15
412.927	7.15
413.054	19.15
413.182	33.15
413.309	13.15
413.436	-4.85
413.564	-9.85
413.691	4.15
413.818	24.15
413.945	8.15
414.073	-4.85
414.2	7.15
414.327	31.15
414.454	25.15
414.582	-9.85
414.709	-1.85
414.836	9.15
414.963	7.15
415.091	20.15
415.218	21.15
415.345	8.15
415.472	18.15
415.6	1.15
415.727	32.15
415.854	20.15
415.981	2.15
416.108	-12.85
416.236	10.15
416.363	17.15
416.49	-4.85
416.617	15.15
416.744	22.15
416.871	27.15
416.998	-2.85
417.126	5.15
417.253	1.15
417.38	7.15
417.507	26.15
417.634	28.15
417.761	10.15
417.888	23.15
418.015	43.15
418.143	25.15
418.27	18.15
418.397	0.15
418.524	23.15
418.651	6.15
418.778	9.15
418.905	46.15
419.032	30.15
419.159	25.15
419.286	40.15
419.413	28.15
419.54	31.15
419.667	-0.85
419.794	-6.85
419.921	5.15
420.048	14.15
420.175	10.15
420.302	-2.85
420.429	31.15
420.556	10.15
420.683	-8.85
420.81	7.15
420.937	13.15
421.064	7.15
421.191	5.15
421.318	32.15
421.445	31.15
421.572	6.15
421.699	33.15
421.826	18.15
421.953	2.15
422.08	12.15
422.207	12.15
422.334	6.15
422.461	30.15
422.588	-5.85
422.714	27.15
422.841	18.15
422.968	14.15
423.095	14.15
423.222	1.15
423.349	19.15
423.476	18.15
423.603	4.15
423.729	10.15
423.856	7.15
423.983	17.15
424.11	-4.85
424.237	11.15
424.364	11.15
424.491	21.15
424.617	8.15
424.744	9.15
424.871	1.15
424.998	7.15
425.125	15.15
425.251	37.15
425.378	8.15
425.505	14.15
425.632	17.15
425.758	-0.85
425.885	5.15
426.012	24.15
426.139	29.15
426.266	11.15
426.392	2.15
426.519	12.15
426.646	14.15
426.772	30.15
426.899	14.15
427.026	17.15
427.153	16.15
427.279	26.15
427.406	20.15
427.533	2.15
427.659	14.15
427.786	3.15
427.913	12.15
428.039	28.15
428.166	15.15
428.293	9.15
428.419	24.15
428.546	9.15
428.673	14.15
428.799	-1.85
428.926	-1.85
429.053	20.15
429.179	19.15
429.306	34.15
429.433	42.15
429.559	37.15
429.686	5.15
429.812	16.15
429.939	5.15
430.066	7.15
430.192	-0.85
430.319	23.15
430.445	12.15
430.572	22.15
430.699	-1.85
430.825	5.15
430.952	12.15
431.078	19.15
431.205	20.15
431.331	8.15
431.458	1.15
431.584	11.15
431.711	22.15
431.837	10.15
431.964	17.15
432.09	19.15
432.217	-0.85
432.343	-0.85
432.47	10.15
432.596	8.15
432.723	5.15
432.849	19.15
432.976	15.15
433.102	11.15
433.229	9.15
433.355	44.15
433.482	55.15
433.608	135.15
433.735	151.15
433.861	150.15
433.987	174.15
434.114	264.15
434.24	183.15
434.367	86.15
434.493	15.15
434.62	38.15
434.746	31.15
434.872	3.15
434.999	23.15
435.125	19.15
435.252	0.15
435.378	7.15
435.504	9.15
435.631	21.15
435.757	20.15
435.883	36.15
436.01	19.15
436.136	24.15
436.262	28.15
436.389	28.15
436.515	26.15
436.641	17.15
436.768	27.15
436.894	28.15
437.02	16.15
437.147	35.15
437.273	21.15
437.399	31.15
437.526	26.15
437.652	10.15
437.778	32.15
437.904	10.15
438.031	1.15
438.157	8.15
438.283	43.15
438.409	1.15
438.536	-7.85
438.662	23.15
438.788	17.15
438.914	18.15
439.041	28.15
439.167	17.15
439.293	12.15
439.419	20.15
439.546	31.15
439.672	12.15
439.798	29.15
439.924	15.15
440.05	33.15
440.177	15.15
440.303	18.15
440.429	36.15
440.555	20.15
440.681	17.15
440.807	12.15
440.934	27.15
441.06	27.15
441.186	18.15
441.312	-6.85
441.438	5.15
441.564	10.15
441.69	54.15
441.816	23.15
441.943	10.15
442.069	0.15
442.195	18.15
442.321	35.15
442.447	0.15
442.573	-13.85
442.699	13.15
442.825	16.15
442.951	18.15
443.077	13.15
443.203	6.15
443.33	-3.85
443.456	-3.85
443.582	10.15
443.708	10.15
443.834	23.15
443.96	19.15
444.086	27.15
444.212	39.15
444.338	30.15
444.464	34.15
444.59	35.15
444.716	22.15
444.842	4.15
444.968	-8.85
445.094	18.15
445.22	8.15
445.346	-12.85
445.472	18.15
445.598	23.15
445.724	14.15
445.85	5.15
445.976	30.15
446.102	18.15
446.228	17.15
446.354	23.15
446.48	14.15
446.605	26.15
446.731	9.15
446.857	2.15
446.983	4.15
447.109	-4.85
447.235	3.15
447.361	9.15
447.487	35.15
447.613	7.15
447.739	3.15
447.865	12.15
447.99	10.15
448.116	13.15
448.242	24.15
448.368	23.15
448.494	-2.85
448.62	25.15
448.746	10.15
448.872	7.15
448.997	7.15
449.123	15.15
449.249	25.15
449.375	11.15
449.501	2.15
449.627	19.15
449.752	33.15
449.878	16.15
450.004	18.15
450.13	14.15
450.256	5.15
450.381	13.15
450.507	13.15
450.633	11.15
450.759	33.15
450.884	23.15
451.01	21.15
451.136	5.15
451.262	31.15
451.388	21.15
451.513	22.15
451.639	13.15
451.765	25.15
451.89	22.15
452.016	19.15
452.142	10.15
452.268	25.15
452.393	14.15
452.519	4.15
452.645	15.15
452.771	31.15
452.896	11.15
453.022	19.15
453.148	16.15
453.273	29.15
453.399	11.15
453.525	2.15
453.65	-0.85
453.776	30.15
453.902	9.15
454.027	11.15
454.153	18.15
454.279	34.15
454.404	3.15
454.53	17.15
454.656	31.15
454.781	11.15
454.907	5.15
455.032	23.15
455.158	34.15
455.284	39.15
455.409	7.15
455.535	25.15
455.66	37.15
455.786	33.15
455.912	16.15
456.037	14.15
456.163	19.15
456.288	26.15
456.414	-0.85
456.539	-2.85
456.665	18.15
456.791	25.15
456.916	15.15
457.042	26.15
457.167	0.15
457.293	20.15
457.418	17.15
457.544	22.15
457.669	10.15
457.795	11.15
457.92	10.15
458.046	15.15
458.171	32.15
458.297	12.15
458.422	7.15
458.548	8.15
458.673	17.15
458.799	22.15
458.924	6.15
459.05	17.15
459.175	19.15
459.301	22.15
459.426	7.15
459.552	21.15
459.677	9.15
459.803	30.15
459.928	13.15
460.053	22.15
460.179	18.15
460.304	31.15
460.43	-10.85
460.555	11.15
460.681	5.15
460.806	9.15
460.931	2.15
461.057	18.15
461.182	5.15
461.308	20.15
461.433	14.15
461.558	13.15
461.684	14.15
461.809	32.15
461.934	17.15
462.06	39.15
462.185	6.15
462.311	2.15
462.436	25.15
462.561	25.15
462.687	26.15
462.812	23.15
462.937	5.15
463.063	9.15
463.188	-6.85
463.313	42.15
463.439	13.15
463.564	18.15
463.689	23.15
463.814	27.15
463.94	5.15
464.065	18.15
464.19	19.15
464.316	-2.85
464.441	14.15
464.566	0.15
464.692	10.15
464.817	11.15
464.942	6.15
465.067	5.15
465.193	11.15
465.318	10.15
465.443	1.15
465.568	17.15
465.694	10.15
465.819	32.15
465.944	1.15
466.069	33.15
466.194	3.15
466.32	12.15
466.445	21.15
466.57	18.15
466.695	-4.85
466.82	19.15
466.946	17.15
467.071	3.15
467.196	5.15
467.321	23.15
467.446	15.15
467.572	13.15
467.697	4.15
467.822	31.15
467.947	13.15
468.072	-8.85
468.197	1.15
468.323	20.15
468.448	13.15
468.573	8.15
468.698	-6.85
468.823	14.15
468.948	33.15
469.073	24.15
469.198	35.15
469.324	23.15
469.449	24.15
469.574	22.15
469.699	22.15
469.824	15.15
469.949	18.15
470.074	6.15
470.199	32.15
470.324	16.15
470.449	31.15
470.574	10.15
470.7	15.15
470.825	27.15
470.95	28.15
471.075	-2.85
471.2	8.15
471.325	36.15
471.45	14.15
471.575	14.15
471.7	20.15
471.825	-1.85
471.95	3.15
472.075	-0.85
472.2	9.15
472.325	17.15
472.45	7.15
472.575	19.15
472.7	15.15
472.825	38.15
472.95	21.15
473.075	28.15
473.2	-1.85
473.325	17.15
473.45	-11.85
473.575	-8.85
473.7	14.15
473.825	25.15
473.95	8.15
474.075	14.15
474.2	14.15
474.325	-3.85
474.45	26.15
474.574	22.15
474.699	25.15
474.824	22.15
474.949	-8.85
475.074	3.15
475.199	20.15
475.324	18.15
475.449	16.15
475.574	19.15
475.699	19.15
475.824	19.15
475.949	17.15
476.073	25.15
476.198	28.15
476.323	19.15
476.448	11.15
476.573	20.15
476.698	22.15
476.823	20.15
476.947	18.15
477.072	11.15
477.197	4.15
477.322	0.15
477.447	5.15
477.572	-0.85
477.697	8.15
477.821	14.15
477.946	26.15
478.071	19.15
478.196	18.15
478.321	34.15
478.445	13.15
478.57	0.15
478.695	12.15
478.82	14.15
478.945	16.15
479.069	24.15
479.194	21.15
479.319	36.15
479.444	17.15
479.569	7.15
479.693	28.15
479.818	7.15
479.943	20.15
480.068	5.15
480.192	29.15
480.317	28.15
480.442	26.15
480.567	17.15
480.691	10.15
480.816	14.15
480.941	19.15
481.066	37.15
481.19	22.15
481.315	14.15
481.44	31.15
481.564	13.15
481.689	30.15
481.814	21.15
481.938	39.15
482.063	16.15
482.188	24.15
482.313	41.15
482.437	24.15
482.562	26.15
482.687	42.15
482.811	28.15
482.936	31.15
483.061	18.15
483.185	23.15
483.31	27.15
483.435	28.15
483.559	6.15
483.684	24.15
483.808	43.15
483.933	22.15
484.058	-0.85
484.182	21.15
484.307	11.15
484.432	24.15
484.556	14.15
484.681	17.15
484.805	31.15
484.93	38.15
485.055	43.15
485.179	94.15
485.304	144.15
485.428	376.15
485.553	1254.15
485.678	1753.15
485.802	1638.15
485.927	1807.15
486.051	2682.15
486.176	1617.15
486.3	448.15
486.425	142.15
486.549	91.15
486.674	86.15
486.799	51.15
486.923	37.15
487.048	44.15
487.172	37.15
487.297	33.15
487.421	35.15
487.546	42.15
487.67	38.15
487.795	8.15
487.919	46.15
488.044	39.15
488.168	26.15
488.293	8.15
488.417	21.15
488.542	31.15
488.666	29.15
488.791	22.15
488.915	19.15
489.04	33.15
489.164	42.15
489.289	30.15
489.413	2.15
489.538	29.15
489.662	50.15
489.786	14.15
489.911	13.15
490.035	15.15
490.16	17.15
490.284	13.15
490.409	-2.85
490.533	22.15
490.658	53.15
490.782	42.15
490.906	15.15
491.031	23.15
491.155	3.15
491.28	30.15
491.404	13.15
491.528	12.15
491.653	13.15
491.777	29.15
491.902	8.15
492.026	26.15
492.15	33.15
492.275	37.15
492.399	23.15
492.524	16.15
492.648	48.15
492.772	36.15
492.897	25.15
493.021	4.15
493.145	18.15
493.27	25.15
493.394	15.15
493.518	-4.85
493.643	12.15
493.767	30.15
493.891	16.15
494.016	23.15
494.14	5.15
494.264	26.15
494.389	35.15
494.513	19.15
494.637	-4.85
494.762	23.15
494.886	27.15
495.01	14.15
495.134	32.15
495.259	40.15
495.383	13.15
495.507	6.15
495.632	25.15
495.756	31.15
495.88	18.15
496.004	23.15
496.129	12.15
496.253	48.15
496.377	41.15
496.501	35.15
496.626	5.15
496.75	10.15
496.874	33.15
496.998	21.15
497.123	27.15
497.247	11.15
497.371	6.15
497.495	9.15
497.62	23.15
497.744	18.15
497.868	11.15
497.992	14.15
498.116	23.15
498.241	19.15
498.365	26.15
498.489	12.15
498.613	34.15
498.737	17.15
498.862	15.15
498.986	16.15
499.11	34.15
499.234	16.15
499.358	-5.85
499.482	15.15
499.607	32.15
499.731	31.15
499.855	14.15
499.979	14.15
500.103	26.15
500.227	32.15
500.351	19.15
500.476	24.15
500.6	15.15
500.724	20.15
500.848	14.15
500.972	30.15
501.096	21.15
501.22	33.15
501.344	21.15
501.469	17.15
501.593	17.15
501.717	41.15
501.841	27.15
501.965	1.15
502.089	23.15
502.213	40.15
502.337	26.15
502.461	13.15
502.585	39.15
502.709	23.15
502.834	1.15
502.958	10.15
503.082	20.15
503.206	17.15
503.33	25.15
503.454	27.15
503.578	25.15
503.702	29.15
503.826	19.15
503.95	30.15
504.074	17.15
504.198	-4.85
504.322	-12.85
504.446	18.15
504.57	15.15
504.694	17.15
504.818	19.15
504.942	32.15
505.066	28.15
505.19	25.15
505.314	32.15
505.438	30.15
505.562	13.15
505.686	33.15
505.81	21.15
505.934	8.15
506.058	14.15
506.182	25.15
506.306	29.15
506.43	17.15
506.554	26.15
506.678	6.15
506.802	14.15
506.926	25.15
507.05	18.15
507.174	26.15
507.298	21.15
507.422	22.15
507.546	18.15
507.67	24.15
507.794	3.15
507.918	16.15
508.042	9.15
508.165	3.15
508.289	16.15
508.413	9.15
508.537	15.15
508.661	30.15
508.785	12.15
508.909	20.15
509.033	11.15
509.157	32.15
509.281	23.15
509.405	10.15
509.528	23.15
509.652	41.15
509.776	26.15
509.9	41.15
510.024	22.15
510.148	10.15
510.272	23.15
510.396	24.15
510.519	-4.85
510.643	26.15
510.767	25.15
510.891	19.15
511.015	8.15
511.139	14.15
511.263	33.15
511.386	9.15
511.51	27.15
511.634	28.15
511.758	23.15
511.882	13.15
512.006	16.15
512.129	21.15
512.253	61.15
512.377	18.15
512.501	32.15
512.625	29.15
512.748	9.15
512.872	25.15
512.996	15.15
513.12	9.15
513.244	10.15
513.367	24.15
513.491	37.15
513.615	23.15
513.739	7.15
513.862	11.15
513.986	20.15
514.11	39.15
514.234	12.15
514.358	44.15
514.481	43.15
514.605	6.15
514.729	23.15
514.853	14.15
514.976	10.15
515.1	24.15
515.224	21.15
515.348	15.15
515.471	13.15
515.595	18.15
515.719	12.15
515.842	35.15
515.966	17.15
516.09	43.15
516.214	18.15
516.337	37.15
516.461	26.15
516.585	30.15
516.708	23.15
516.832	28.15
516.956	28.15
517.08	19.15
517.203	6.15
517.327	25.15
517.451	36.15
517.574	44.15
517.698	11.15
517.822	26.15
517.945	22.15
518.069	41.15
518.193	42.15
518.316	29.15
518.44	33.15
518.564	30.15
518.687	23.15
518.811	33.15
518.935	70.15
519.058	28.15
519.182	37.15
519.306	39.15
519.429	37.15
519.553	69.15
519.676	30.15
519.8	30.15
519.924	12.15
520.047	20.15
520.171	30.15
520.294	7.15
520.418	38.15
520.542	15.15
520.665	30.15
520.789	21.15
520.913	10.15
521.036	11.15
521.16	11.15
521.283	12.15
521.407	7.15
521.53	7.15
521.654	-4.85
521.778	19.15
521.901	19.15
522.025	27.15
522.148	12.15
522.272	14.15
522.395	12.15
522.519	20.15
522.643	18.15
522.766	17.15
522.89	14.15
523.013	27.15
523.137	6.15
523.26	1.15
523.384	21.15
523.507	14.15
523.631	-2.85
523.754	-0.85
523.878	24.15
524.002	38.15
524.125	30.15
524.249	24.15
524.372	9.15
524.496	24.15
524.619	29.15
524.743	22.15
524.866	15.15
524.99	26.15
525.113	17.15
525.237	30.15
525.36	32.15
525.484	25.15
525.607	2.15
525.731	5.15
525.854	15.15
525.978	45.15
526.101	10.15
526.224	25.15
526.348	27.15
526.471	17.15
526.595	20.15
526.718	23.15
526.842	-0.85
526.965	37.15
527.089	21.15
527.212	11.15
527.336	15.15
527.459	35.15
527.582	16.15
527.706	30.15
527.829	11.15
527.953	9.15
528.076	-2.85
528.2	-2.85
528.323	32.15
528.446	18.15
528.57	29.15
528.693	29.15
528.817	11.15
528.94	12.15
529.064	34.15
529.187	0.15
529.31	12.15
529.434	3.15
529.557	2.15
529.68	21.15
529.804	25.15
529.927	10.15
530.051	10.15
530.174	9.15
530.297	22.15
530.421	22.15
530.544	19.15
530.668	32.15
530.791	-4.85
530.914	21.15
531.038	17.15
531.161	28.15
531.284	19.15
531.408	13.15
531.531	4.15
531.654	-4.85
531.778	13.15
531.901	12.15
532.024	16.15
532.148	4.15
532.271	24.15
532.394	10.15
532.518	26.15
532.641	46.15
532.764	49.15
532.888	21.15
533.011	8.15
533.134	3.15
533.258	41.15
533.381	13.15
533.504	1.15
533.628	14.15
533.751	23.15
533.874	23.15
533.997	11.15
534.121	9.15
534.244	-3.85
534.367	10.15
534.491	11.15
534.614	5.15
534.737	30.15
534.86	19.15
534.984	7.15
535.107	14.15
535.23	24.15
535.354	20.15
535.477	3.15
535.6	-6.85
535.723	18.15
535.847	7.15
535.97	17.15
536.093	17.15
536.216	-2.85
536.34	22.15
536.463	10.15
536.586	28.15
536.709	19.15
536.833	14.15
536.956	9.15
537.079	0.15
537.202	15.15
537.325	10.15
537.449	-9.85
537.572	10.15
537.695	8.15
537.818	-1.85
537.941	2.15
538.065	10.15
538.188	11.15
538.311	17.15
538.434	24.15
538.558	24.15
538.681	18.15
538.804	27.15
538.927	33.15
539.05	17.15
539.173	16.15
539.297	12.15
539.42	12.15
539.543	21.15
539.666	41.15
539.789	21.15
539.913	15.15
540.036	10.15
540.159	10.15
540.282	10.15
540.405	18.15
540.528	25.15
540.651	9.15
540.775	7.15
540.898	8.15
541.021	0.15
541.144	36.15
541.267	9.15
541.39	32.15
541.513	5.15
541.637	12.15
541.76	0.15
541.883	10.15
542.006	19.15
542.129	29.15
542.252	9.15
542.375	9.15
542.498	17.15
542.622	20.15
542.745	7.15
542.868	18.15
542.991	27.15
543.114	21.15
543.237	36.15
543.36	35.15
543.483	17.15
543.606	21.15
543.73	42.15
543.853	11.15
543.976	5.15
544.099	15.15
544.222	19.15
544.345	2.15
544.468	7.15
544.591	12.15
544.714	20.15
544.837	22.15
544.96	17.15
545.083	27.15
545.206	3.15
545.329	9.15
545.453	3.15
545.576	-1.85
545.699	-7.85
545.822	6.15
545.945	15.15
546.068	10.15
546.191	17.15
546.314	18.15
546.437	33.15
546.56	36.15
546.683	13.15
546.806	23.15
546.929	8.15
547.052	4.15
547.175	3.15
547.298	20.15
547.421	17.15
547.544	6.15
547.667	17.15
547.79	22.15
547.913	2.15
548.036	-10.85
548.159	14.15
548.282	10.15
548.405	1.15
548.528	12.15
548.651	27.15
548.774	13.15
548.897	10.15
549.02	39.15
549.143	35.15
549.266	16.15
549.389	25.15
549.512	6.15
549.635	27.15
549.758	27.15
549.881	10.15
550.004	-0.85
550.127	-5.85
550.25	8.15
550.373	-2.85
550.496	25.15
550.619	26.15
550.742	7.15
550.865	-18.85
550.988	22.15
551.111	25.15
551.234	24.15
551.356	2.15
551.479	4.15
551.602	5.15
551.725	25.15
551.848	43.15
551.971	27.15
552.094	11.15
552.217	13.15
552.34	26.15
552.463	2.15
552.586	16.15
552.709	18.15
552.832	13.15
552.955	13.15
553.077	18.15
553.2	19.15
553.323	4.15
553.446	21.15
553.569	10.15
553.692	14.15
553.815	19.15
553.938	15.15
554.061	29.15
554.184	3.15
554.306	5.15
554.429	6.15
554.552	34.15
554.675	9.15
554.798	2.15
554.921	14.15
555.044	34.15
555.167	20.15
555.29	24.15
555.412	2.15
555.535	23.15
555.658	12.15
555.781	13.15
555.904	13.15
556.027	24.15
556.15	24.15
556.272	8.15
556.395	15.15
556.518	15.15
556.641	7.15
556.764	38.15
556.887	25.15
557.01	2.15
557.132	18.15
557.255	16.15
557.378	25.15
557.501	19.15
557.624	26.15
557.747	15.15
557.869	20.15
557.992	35.15
558.115	25.15
558.238	13.15
558.361	25.15
558.483	13.15
558.606	25.15
558.729	20.15
558.852	34.15
558.975	38.15
559.098	21.15
559.22	8.15
559.343	13.15
559.466	25.15
559.589	-0.85
559.712	17.15
559.834	29.15
559.957	22.15
560.08	17.15
560.203	9.15
560.325	22.15
560.448	27.15
560.571	14.15
560.694	18.15
560.817	32.15
560.939	1.15
561.062	8.15
561.185	14.15
561.308	23.15
561.43	8.15
561.553	24.15
561.676	7.15
561.799	15.15
561.921	-2.85
562.044	3.15
562.167	2.15
562.29	39.15
562.413	41.15
562.535	26.15
562.658	8.15
562.781	2.15
562.903	5.15
563.026	6.15
563.149	35.15
563.272	14.15
563.394	18.15
563.517	23.15
563.64	-6.85
563.763	27.15
563.885	23.15
564.008	28.15
564.131	10.15
564.254	-8.85
564.376	7.15
564.499	-16.85
564.622	9.15
564.744	15.15
564.867	13.15
564.99	20.15
565.113	16.15
565.235	5.15
565.358	1.15
565.481	-3.85
565.603	7.15
565.726	11.15
565.849	27.15
565.971	20.15
566.094	7.15
566.217	19.15
566.34	6.15
566.462	19.15
566.585	11.15
566.708	26.15
566.83	28.15
566.953	28.15
567.076	9.15
567.198	0.15
567.321	-5.85
567.444	22.15
567.566	29.15
567.689	-5.85
567.812	-4.85
567.934	11.15
568.057	17.15
568.18	16.15
568.302	13.15
568.425	14.15
568.548	17.15
568.67	27.15
568.793	26.15
568.916	15.15
569.038	7.15
569.161	16.15
569.283	24.15
569.406	9.15
569.529	4.15
569.651	-0.85
569.774	18.15
569.897	9.15
570.019	34.15
570.142	25.15
570.265	29.15
570.387	29.15
570.51	12.15
570.632	23.15
570.755	18.15
570.878	3.15
571	14.15
571.123	13.15
571.246	23.15
571.368	22.15
571.491	3.15
571.613	16.15
571.736	14.15
571.859	29.15
571.981	-2.85
572.104	-6.85
572.226	19.15
572.349	-0.85
572.472	15.15
572.594	14.15
572.717	21.15
572.839	19.15
572.962	10.15
573.085	3.15
573.207	24.15
573.33	27.15
573.452	28.15
573.575	36.15
573.697	19.15
573.82	19.15
573.943	24.15
574.065	20.15
574.188	21.15
574.31	14.15
574.433	22.15
574.555	35.15
574.678	21.15
574.801	18.15
574.923	7.15
575.046	18.15
575.168	11.15
575.291	15.15
575.413	22.15
575.536	10.15
575.659	1.15
575.781	5.15
575.904	11.15
576.026	21.15
576.149	23.15
576.271	29.15
576.394	2.15
576.516	20.15
576.639	14.15
576.761	9.15
576.884	4.15
577.007	13.15
577.129	9.15
577.252	13.15
577.374	28.15
577.497	6.15
577.619	21.15
577.742	3.15
577.864	14.15
577.987	38.15
578.109	21.15
578.232	16.15
578.354	28.15
578.477	1.15
578.599	16.15
578.722	5.15
578.844	3.15
578.967	18.15
579.089	9.15
579.212	-1.85
579.334	11.15
579.457	26.15
579.579	30.15
579.702	6.15
579.824	15.15
579.947	-2.85
580.069	15.15
580.192	-1.85
580.314	35.15
580.437	28.15
580.559	32.15
580.682	8.15
580.804	11.15
580.927	30.15
581.049	59.15
581.172	33.15
581.294	10.15
581.417	23.15
581.539	24.15
581.662	40.15
581.784	25.15
581.907	24.15
582.029	31.15
582.152	17.15
582.274	17.15
582.396	9.15
582.519	23.15
582.641	8.15
582.764	-0.85
582.886	22.15
583.009	21.15
583.131	9.15
583.254	23.15
583.376	34.15
583.499	17.15
583.621	23.15
583.743	34.15
583.866	21.15
583.988	25.15
584.111	25.15
584.233	11.15
584.356	21.15
584.478	30.15
584.601	7.15
584.723	18.15
584.845	23.15
584.968	5.15
585.09	7.15
585.213	20.15
585.335	0.15
585.458	9.15
585.58	13.15
585.702	24.15
585.825	7.15
585.947	0.15
586.07	9.15
586.192	9.15
586.315	25.15
586.437	-8.85
586.559	13.15
586.682	10.15
586.804	23.15
586.927	23.15
587.049	25.15
587.171	25.15
587.294	19.15
587.416	27.15
587.539	0.15
587.661	-5.85
587.783	-9.85
587.906	7.15
588.028	34.15
588.151	14.15
588.273	29.15
588.395	26.15
588.518	15.15
588.64	18.15
588.763	34.15
588.885	25.15
589.007	32.15
589.13	8.15
589.252	6.15
589.375	17.15
589.497	31.15
589.619	12.15
589.742	32.15
589.864	35.15
589.986	11.15
590.109	3.15
590.231	14.15
590.354	31.15
590.476	-3.85
590.598	-2.85
590.721	-5.85
590.843	11.15
590.965	15.15
591.088	18.15
591.21	6.15
591.332	27.15
591.455	3.15
591.577	7.15
591.7	9.15
591.822	13.15
591.944	11.15
592.067	21.15
592.189	8.15
592.311	10.15
592.434	9.15
592.556	9.15
592.678	19.15
592.801	7.15
592.923	31.15
593.045	27.15
593.168	15.15
593.29	16.15
593.412	27.15
593.535	15.15
593.657	5.15
593.779	13.15
593.902	15.15
594.024	35.15
594.146	29.15
594.269	6.15
594.391	-0.85
594.513	27.15
594.636	15.15
594.758	3.15
594.88	15.15
595.003	45.15
595.125	11.15
595.247	13.15
595.37	15.15
595.492	15.15
595.614	37.15
595.737	18.15
595.859	11.15
595.981	9.15
596.104	24.15
596.226	-9.85
596.348	3.15
596.471	1.15
596.593	17.15
596.715	9.15
596.838	6.15
596.96	2.15
597.082	22.15
597.204	13.15
597.327	14.15
597.449	5.15
597.571	20.15
597.694	35.15
597.816	18.15
597.938	18.15
598.061	25.15
598.183	14.15
598.305	23.15
598.427	25.15
598.55	24.15
598.672	33.15
598.794	38.15
598.917	1.15
599.039	15.15
599.161	14.15
599.283	14.15
599.406	22.15
599.528	22.15
599.65	35.15
599.773	18.15
599.895	29.15
600.017	27.15
600.139	21.15
600.262	2.15
600.384	15.15
600.506	3.15
600.628	23.15
600.751	28.15
600.873	19.15
600.995	13.15
601.118	41.15
601.24	17.15
601.362	41.15
601.484	33.15
601.607	16.15
601.729	24.15
601.851	16.15
601.973	16.15
602.096	27.15
602.218	25.15
602.34	27.15
602.462	27.15
602.585	17.15
602.707	12.15
602.829	25.15
602.951	7.15
603.074	7.15
603.196	28.15
603.318	7.15
603.44	7.15
603.563	30.15
603.685	2.15
603.807	16.15
603.929	20.15
604.052	23.15
604.174	24.15
604.296	18.15
604.418	7.15
604.541	38.15
604.663	14.15
604.785	9.15
604.907	25.15
605.03	11.15
605.152	48.15
605.274	15.15
605.396	17.15
605.519	11.15
605.641	17.15
605.763	23.15
605.885	17.15
606.008	23.15
606.13	22.15
606.252	47.15
606.374	12.15
606.496	-3.85
606.619	8.15
606.741	14.15
606.863	24.15
606.985	37.15
607.108	14.15
607.23	21.15
607.352	20.15
607.474	11.15
607.596	18.15
607.719	31.15
607.841	16.15
607.963	18.15
608.085	18.15
608.207	54.15
608.33	41.15
608.452	25.15
608.574	14.15
608.696	26.15
608.819	39.15
608.941	24.15
609.063	-2.85
609.185	9.15
609.307	14.15
609.43	26.15
609.552	24.15
609.674	-0.85
609.796	13.15
609.918	27.15
610.041	17.15
610.163	17.15
610.285	8.15
610.407	21.15
610.529	3.15
610.652	16.15
610.774	13.15
610.896	7.15
611.018	22.15
611.14	14.15
611.263	18.15
611.385	1.15
611.507	15.15
611.629	11.15
611.751	18.15
611.873	47.15
611.996	23.15
612.118	27.15
612.24	22.15
612.362	14.15
612.484	20.15
612.607	35.15
612.729	29.15
612.851	17.15
612.973	15.15
613.095	22.15
613.218	11.15
613.34	23.15
613.462	26.15
613.584	15.15
613.706	3.15
613.828	45.15
613.951	18.15
614.073	3.15
614.195	-0.85
614.317	24.15
614.439	28.15
614.561	21.15
614.684	31.15
614.806	28.15
614.928	36.15
615.05	25.15
615.172	38.15
615.294	39.15
615.417	17.15
615.539	16.15
615.661	25.15
615.783	20.15
615.905	29.15
616.027	68.15
616.15	117.15
616.272	91.15
616.394	70.15
616.516	48.15
616.638	31.15
616.76	22.15
616.883	21.15
617.005	8.15
617.127	-8.85
617.249	3.15
617.371	22.15
617.493	13.15
617.615	25.15
617.738	8.15
617.86	29.15
617.982	12.15
618.104	19.15
618.226	5.15
618.348	-2.85
618.471	18.15
618.593	27.15
618.715	16.15
618.837	9.15
618.959	9.15
619.081	3.15
619.203	9.15
619.326	8.15
619.448	12.15
619.57	21.15
619.692	23.15
619.814	6.15
619.936	20.15
620.058	28.15
620.181	28.15
620.303	19.15
620.425	13.15
620.547	7.15
620.669	18.15
620.791	18.15
620.913	21.15
621.036	9.15
621.158	25.15
621.28	25.15
621.402	1.15
621.524	9.15
621.646	32.15
621.768	-3.85
621.891	-1.85
622.013	6.15
622.135	17.15
622.257	12.15
622.379	5.15
622.501	2.15
622.623	14.15
622.745	13.15
622.868	11.15
622.99	10.15
623.112	26.15
623.234	7.15
623.356	12.15
623.478	8.15
623.6	23.15
623.722	32.15
623.845	28.15
623.967	18.15
624.089	0.15
624.211	21.15
624.333	30.15
624.455	25.15
624.577	31.15
624.699	31.15
624.822	24.15
624.944	12.15
625.066	12.15
625.188	-0.85
625.31	14.15
625.432	40.15
625.554	11.15
625.676	37.15
625.799	12.15
625.921	30.15
626.043	25.15
626.165	10.15
626.287	-7.85
626.409	17.15
626.531	5.15
626.653	2.15
626.775	25.15
626.898	8.15
627.02	21.15
627.142	24.15
627.264	11.15
627.386	7.15
627.508	15.15
627.63	7.15
627.752	11.15
627.874	30.15
627.997	26.15
628.119	35.15
628.241	22.15
628.363	31.15
628.485	18.15
628.607	16.15
628.729	11.15
628.851	13.15
628.973	27.15
629.096	-5.85
629.218	17.15
629.34	17.15
629.462	3.15
629.584	23.15
629.706	9.15
629.828	28.15
629.95	19.15
630.072	21.15
630.195	23.15
630.317	19.15
630.439	8.15
630.561	17.15
630.683	6.15
630.805	21.15
630.927	20.15
631.049	6.15
631.171	14.15
631.293	28.15
631.416	17.15
631.538	10.15
631.66	17.15
631.782	16.15
631.904	30.15
632.026	6.15
632.148	16.15
632.27	4.15
632.392	3.15
632.514	11.15
632.637	0.15
632.759	11.15
632.881	3.15
633.003	6.15
633.125	5.15
633.247	0.15
633.369	13.15
633.491	17.15
633.613	8.15
633.735	-7.85
633.858	43.15
633.98	26.15
634.102	-6.85
634.224	-17.85
634.346	2.15
634.468	12.15
634.59	21.15
634.712	25.15
634.834	47.15
634.956	7.15
635.078	5.15
635.201	6.15
635.323	17.15
635.445	7.15
635.567	-9.85
635.689	12.15
635.811	5.15
635.933	15.15
636.055	21.15
636.177	23.15
636.299	27.15
636.421	13.15
636.544	3.15
636.666	22.15
636.788	15.15
636.91	19.15
637.032	8.15
637.154	20.15
637.276	33.15
637.398	28.15
637.52	3.15
637.642	1.15
637.764	13.15
637.887	1.15
638.009	24.15
638.131	16.15
638.253	9.15
638.375	22.15
638.497	20.15
638.619	6.15
638.741	14.15
638.863	-9.85
638.985	16.15
639.107	29.15
639.23	6.15
639.352	43.15
639.474	20.15
639.596	13.15
639.718	-3.85
639.84	22.15
639.962	11.15
640.084	20.15
640.206	34.15
640.328	9.15
640.45	15.15
640.573	15.15
640.695	14.15
640.817	12.15
640.939	29.15
641.061	25.15
641.183	15.15
641.305	0.15
641.427	1.15
641.549	7.15
641.671	25.15
641.793	17.15
641.915	15.15
642.038	5.15
642.16	19.15
642.282	21.15
642.404	1.15
642.526	26.15
642.648	15.15
642.77	15.15
642.892	6.15
643.014	33.15
643.136	18.15
643.258	9.15
643.381	41.15
643.503	38.15
643.625	15.15
643.747	8.15
643.869	13.15
643.991	19.15
644.113	24.15
644.235	9.15
644.357	-0.85
644.479	15.15
644.601	15.15
644.723	29.15
644.846	12.15
644.968	13.15
645.09	2.15
645.212	2.15
645.334	12.15
645.456	19.15
645.578	24.15
645.7	31.15
645.822	35.15
645.944	20.15
646.066	17.15
646.188	9.15
646.311	16.15
646.433	29.15
646.555	58.15
646.677	39.15
646.799	27.15
646.921	43.15
647.043	40.15
647.165	-1.85
647.287	7.15
647.409	14.15
647.531	20.15
647.654	-7.85
647.776	30.15
647.898	13.15
648.02	1.15
648.142	-5.85
648.264	16.15
648.386	-7.85
648.508	-2.85
648.63	8.15
648.752	18.15
648.874	5.15
648.997	10.15
649.119	7.15
649.241	6.15
649.363	35.15
649.485	21.15
649.607	-3.85
649.729	15.15
649.851	21.15
649.973	21.15
650.095	24.15
650.217	7.15
650.34	6.15
650.462	17.15
650.584	15.15
650.706	25.15
650.828	12.15
650.95	1.15
651.072	12.15
651.194	8.15
651.316	6.15
651.438	19.15
651.56	10.15
651.683	6.15
651.805	22.15
651.927	16.15
652.049	8.15
652.171	6.15
652.293	24.15
652.415	10.15
652.537	-13.85
652.659	-3.85
652.781	16.15
652.903	12.15
653.026	37.15
653.148	10.15
653.27	1.15
653.392	12.15
653.514	8.15
653.636	15.15
653.758	6.15
653.88	7.15
654.002	5.15
654.124	2.15
654.247	12.15
654.369	35.15
654.491	24.15
654.613	24.15
654.735	16.15
654.857	29.15
654.979	16.15
655.101	17.15
655.223	46.15
655.345	19.15
655.468	23.15
655.59	33.15
655.712	43.15
655.834	39.15
655.956	33.15
656.078	29.15
656.2	43.15
656.322	29.15
656.444	27.15
656.566	57.15
656.689	57.15
656.811	61.15
656.933	107.15
657.055	81.15
657.177	151.15
657.299	256.15
657.421	519.15
657.543	1890.15
657.665	12625.15
657.787	15186.15
657.91	15281.15
658.032	15668.15
658.154	4636.15
658.276	3631.15
658.398	1208.15
658.52	1050.15
658.642	512.15
658.764	618.15
658.886	276.15
659.009	403.15
659.131	218.15
659.253	312.15
659.375	172.15
659.497	257.15
659.619	140.15
659.741	213.15
659.863	101.15
659.985	185.15
660.108	98.15
660.23	153.15
660.352	103.15
660.474	150.15
660.596	94.15
660.718	152.15
660.84	82.15
660.962	126.15
661.084	67.15
661.207	107.15
661.329	74.15
661.451	109.15
661.573	54.15
661.695	118.15
661.817	73.15
661.939	104.15
662.061	59.15
662.184	87.15
662.306	59.15
662.428	90.15
662.55	56.15
662.672	74.15
662.794	38.15
662.916	65.15
663.038	48.15
663.161	97.15
663.283	64.15
663.405	73.15
663.527	40.15
663.649	66.15
663.771	46.15
663.893	62.15
664.015	30.15
664.138	43.15
664.26	22.15
664.382	65.15
664.504	29.15
664.626	29.15
664.748	15.15
664.87	39.15
664.992	44.15
665.115	37.15
665.237	19.15
665.359	28.15
665.481	34.15
665.603	59.15
665.725	16.15
665.847	38.15
665.97	28.15
666.092	50.15
666.214	39.15
666.336	59.15
666.458	46.15
666.58	51.15
666.702	7.15
666.825	35.15
666.947	-4.85
667.069	47.15
667.191	18.15
667.313	49.15
667.435	18.15
667.557	20.15
667.68	24.15
667.802	40.15
667.924	18.15
668.046	50.15
668.168	21.15
668.29	49.15
668.412	18.15
668.535	31.15
668.657	9.15
668.779	33.15
668.901	18.15
669.023	39.15
669.145	21.15
669.267	49.15
669.39	34.15
669.512	34.15
669.634	21.15
669.756	25.15
669.878	14.15
670	46.15
670.123	14.15
670.245	31.15
670.367	28.15
670.489	43.15
670.611	14.15
670.733	11.15
670.856	19.15
670.978	34.15
671.1	29.15
671.222	48.15
671.344	11.15
671.466	15.15
671.589	1.15
671.711	28.15
671.833	4.15
671.955	22.15
672.077	12.15
672.199	26.15
672.322	32.15
672.444	36.15
672.566	9.15
672.688	23.15
672.81	9.15
672.932	48.15
673.055	11.15
673.177	22.15
673.299	21.15
673.421	23.15
673.543	37.15
673.665	29.15
673.788	23.15
673.91	29.15
674.032	15.15
674.154	22.15
674.276	31.15
674.399	18.15
674.521	7.15
674.643	33.15
674.765	1.15
674.887	39.15
675.009	7.15
675.132	31.15
675.254	2.15
675.376	31.15
675.498	23.15
675.62	30.15
675.743	26.15
675.865	47.15
675.987	14.15
676.109	18.15
676.231	22.15
676.354	48.15
676.476	6.15
676.598	31.15
676.72	17.15
676.842	12.15
676.965	5.15
677.087	27.15
677.209	19.15
677.331	25.15
677.453	23.15
677.576	24.15
677.698	21.15
677.82	23.15
677.942	14.15
678.064	25.15
678.187	11.15
678.309	19.15
678.431	19.15
678.553	33.15
678.675	44.15
678.798	39.15
678.92	35.15
679.042	17.15
679.164	7.15
679.286	32.15
679.409	3.15
679.531	7.15
679.653	-2.85
679.775	11.15
679.898	18.15
680.02	18.15
680.142	-1.85
680.264	27.15
680.386	2.15
680.509	28.15
680.631	24.15
680.753	23.15
680.875	2.15
680.998	33.15
681.12	8.15
681.242	31.15
681.364	16.15
681.486	7.15
681.609	8.15
681.731	3.15
681.853	5.15
681.975	6.15
682.098	28.15
682.22	32.15
682.342	9.15
682.464	38.15
682.587	37.15
682.709	20.15
682.831	4.15
682.953	13.15
683.076	22.15
683.198	33.15
683.32	20.15
683.442	20.15
683.565	15.15
683.687	17.15
683.809	1.15
683.931	1.15
684.054	23.15
684.176	30.15
684.298	24.15
684.42	19.15
684.543	14.15
684.665	21.15
684.787	5.15
684.909	14.15
685.032	21.15
685.154	18.15
685.276	13.15
685.398	8.15
685.521	0.15
685.643	14.15
685.765	12.15
685.887	20.15
686.01	30.15
686.132	36.15
686.254	22.15
686.377	25.15
686.499	29.15
686.621	36.15
686.743	20.15
686.866	18.15
686.988	38.15
687.11	23.15
687.232	11.15
687.355	-0.85
687.477	6.15
687.599	19.15
687.722	21.15
687.844	27.15
687.966	9.15
688.088	17.15
688.211	39.15
688.333	25.15
688.455	9.15
688.578	29.15
688.7	22.15
688.822	37.15
688.944	-1.85
689.067	46.15
689.189	8.15
689.311	-0.85
689.434	9.15
689.556	13.15
689.678	18.15
689.801	19.15
689.923	8.15
690.045	34.15
690.167	51.15
690.29	30.15
690.412	14.15
690.534	24.15
690.657	9.15
690.779	12.15
690.901	16.15
691.024	16.15
691.146	5.15
691.268	-0.85
691.391	27.15
691.513	4.15
691.635	27.15
691.758	28.15
691.88	28.15
692.002	5.15
692.125	8.15
692.247	24.15
692.369	-10.85
692.492	25.15
692.614	11.15
692.736	8.15
692.859	-5.85
692.981	9.15
693.103	30.15
693.226	27.15
693.348	38.15
693.47	18.15
693.593	8.15
693.715	5.15
693.837	14.15
693.96	13.15
694.082	10.15
694.204	27.15
694.327	18.15
694.449	17.15
694.571	21.15
694.694	32.15
694.816	23.15
694.938	11.15
695.061	31.15
695.183	24.15
695.305	8.15
695.428	25.15
695.55	-2.85
695.672	9.15
695.795	13.15
695.917	47.15
696.04	9.15
696.162	9.15
696.284	1.15
696.407	18.15
696.529	23.15
696.651	39.15
696.774	29.15
696.896	26.15
697.019	29.15
697.141	15.15
697.263	12.15
697.386	-2.85
697.508	13.15
697.63	24.15
697.753	27.15
697.875	17.15
697.998	23.15
698.12	25.15
698.242	19.15
698.365	16.15
698.487	2.15
698.61	6.15
698.732	15.15
698.854	26.15
698.977	-2.85
699.099	21.15
699.221	15.15
699.344	23.15
699.466	6.15
699.589	0.15
699.711	0.15
699.834	15.15
699.956	16.15
700.078	13.15
700.201	3.15
700.323	27.15
700.446	15.15
700.568	15.15
700.69	22.15
700.813	48.15
700.935	8.15
701.058	13.15
701.18	18.15
701.302	7.15
701.425	4.15
701.547	13.15
701.67	15.15
701.792	2.15
701.915	9.15
702.037	8.15
702.159	18.15
702.282	20.15
702.404	4.15
702.527	18.15
702.649	20.15
702.772	25.15
702.894	9.15
703.017	27.15
703.139	25.15
703.261	12.15
703.384	25.15
703.506	9.15
703.629	14.15
703.751	27.15
703.874	7.15
703.996	4.15
704.119	7.15
704.241	17.15
704.364	8.15
704.486	26.15
704.608	30.15
704.731	18.15
704.853	21.15
704.976	13.15
705.098	9.15
705.221	23.15
705.343	19.15
705.466	28.15
705.588	29.15
705.711	19.15
705.833	23.15
705.956	30.15
706.078	25.15
706.201	13.15
706.323	16.15
706.446	3.15
